,Fp1,Fp2,F7,F3,Fz,F4,F8,FC5,FC1,FC2,FC6,T7,C3,Cz,C4,T8,TP9,CP5,CP1,CP2,CP6,TP10,P7,P3,Pz,P4,P8,PO9,O1,Oz,O2,PO10
125998,-53,171,350,110,210,215,423,284,309,248,162,1311,-36,274,242,352,188,173,120,316,108,325,57,107,-134,270,298,100,304,15,214,430
125999,-23,161,381,67,197,218,389,275,276,241,204,1333,-55,261,256,340,216,143,86,312,131,294,44,87,-142,269,326,32,290,11,198,402
126000,23,210,397,93,211,241,390,272,296,261,233,1322,-37,294,266,373,256,194,129,347,153,316,104,134,-100,297,351,-26,308,18,206,412
126001,44,192,424,140,209,215,371,288,316,278,234,1327,-12,289,277,400,312,242,161,363,188,409,193,187,-87,316,328,46,402,61,251,412
126002,24,102,443,135,225,229,340,290,303,264,237,1351,0,265,258,309,286,255,144,343,145,328,193,193,-86,263,251,44,412,33,232,299
126003,20,69,378,146,236,273,308,301,303,277,244,1330,-10,273,238,234,301,242,142,322,91,217,209,188,-90,249,253,107,389,30,232,184
126004,3,107,297,138,217,295,337,305,312,283,354,1330,-28,284,269,333,170,210,129,337,155,239,147,145,-109,281,353,132,354,18,217,120
126005,-13,143,342,112,221,219,342,281,304,255,363,1372,-16,285,269,375,125,244,131,342,180,326,164,150,-84,303,353,34,394,46,246,405
126006,-10,142,415,96,219,200,362,260,280,267,384,1274,-30,285,265,296,302,217,152,328,125,321,232,172,-88,267,175,172,407,48,237,457
126007,56,197,465,63,237,238,481,310,296,254,214,1358,0,305,260,304,360,246,156,347,138,400,247,193,-96,276,234,179,400,47,254,461
126008,39,181,493,120,241,200,445,317,290,239,161,1337,4,302,254,367,257,242,158,355,189,400,134,189,-74,305,332,109,362,55,261,514
126009,5,88,429,165,229,244,342,332,294,265,245,1345,7,313,275,390,201,201,158,388,223,369,50,168,-52,319,431,99,364,77,266,300
126010,-29,-3,380,125,214,237,272,320,295,264,253,1372,20,318,287,366,309,259,180,403,216,355,193,207,-33,349,530,97,429,104,278,184
126011,-69,4,352,94,214,236,252,241,288,273,247,1327,-23,308,269,298,364,252,184,387,170,324,272,213,-33,333,426,156,436,101,303,420
126012,-60,23,370,116,229,236,248,282,295,283,252,1343,-20,292,239,218,281,237,151,343,70,271,192,183,-67,252,193,97,385,45,259,553
126013,-45,35,378,136,242,254,313,322,294,287,258,1320,3,288,254,282,164,227,151,335,119,428,141,159,-74,266,224,81,367,36,246,569
126014,43,117,432,149,276,326,460,323,307,301,297,1362,-10,270,265,316,252,236,122,316,147,503,163,149,-110,276,261,170,376,22,207,523
126015,126,156,452,132,275,352,583,233,292,295,314,1335,-59,256,266,326,248,193,91,317,159,518,96,111,-116,271,311,179,336,19,240,542
126016,133,245,511,129,294,343,594,236,297,311,277,1397,-65,254,261,307,247,213,110,318,149,405,174,160,-129,257,272,276,399,49,241,463
126017,93,273,494,180,295,316,471,327,312,317,239,1412,-15,288,269,328,225,257,171,343,175,392,242,198,-108,275,268,214,471,59,257,443
126018,31,221,450,228,286,322,435,353,314,324,228,1430,11,286,265,303,169,269,177,340,174,352,281,214,-90,293,249,-45,469,89,274,409
126019,76,287,487,237,296,289,407,397,329,323,203,1517,17,291,251,225,239,315,199,333,129,258,398,255,-73,285,223,-99,494,101,296,311
126020,149,357,482,220,283,227,373,397,300,308,194,1584,21,281,226,241,232,342,187,314,120,199,482,236,-97,257,246,-257,395,-11,206,181
126021,224,472,507,218,294,274,448,374,303,325,253,1536,1,287,243,160,137,285,150,323,182,266,397,191,-138,261,322,-163,358,-26,175,221
126022,334,595,509,202,289,302,534,335,302,295,253,1334,-52,252,238,62,94,196,113,290,150,339,201,123,-170,217,176,56,316,-66,131,384
126023,419,643,503,209,336,340,529,273,311,308,268,1139,-53,258,269,93,55,119,101,319,178,411,-16,80,-153,230,180,140,265,-70,139,436
126024,393,556,445,181,330,285,481,241,283,259,250,1108,-92,239,219,247,-11,77,71,289,119,366,-135,21,-182,216,249,53,165,-135,70,200
126025,393,566,489,167,313,269,467,230,284,276,246,1131,-83,253,201,283,34,85,109,298,94,266,-128,39,-179,208,230,101,193,-137,54,228
126026,435,670,553,204,334,300,549,247,291,320,294,1179,-62,274,262,182,57,86,118,331,168,253,-164,71,-131,244,266,190,240,-76,100,343
126027,485,697,562,211,347,360,595,266,298,306,345,1198,-57,256,260,367,75,105,90,303,144,236,-164,55,-160,203,247,138,225,-141,63,162
126028,469,687,498,201,332,367,542,264,289,300,350,1165,-71,242,234,578,-6,95,65,275,36,226,-138,34,-202,167,230,79,166,-207,2,-236
126029,457,674,481,217,342,412,521,273,294,319,442,1102,-86,245,246,491,1,78,59,266,30,214,-124,20,-200,138,194,20,120,-253,-49,-92
126030,501,608,547,249,326,415,498,321,307,311,438,1126,-84,232,229,264,32,109,54,239,19,162,-36,29,-236,113,35,94,182,-216,-27,215
126031,498,505,545,266,321,460,487,322,294,323,415,1114,-109,234,239,293,54,85,38,232,24,112,-31,35,-212,128,-11,70,206,-195,15,245
126032,402,452,502,232,339,537,525,218,281,315,291,1123,-135,223,216,321,13,31,28,234,64,81,-53,24,-194,152,39,-159,199,-156,46,239
126033,361,531,404,166,322,421,536,137,264,296,225,1192,-130,220,229,344,36,47,34,257,101,119,-7,27,-192,187,133,-264,204,-146,53,119
126034,361,593,395,204,303,364,490,200,271,326,307,1220,-127,260,272,325,16,42,50,295,161,297,-106,17,-153,247,272,-71,193,-136,66,80
126035,404,643,436,237,310,329,459,298,290,317,329,1294,-104,258,275,280,-34,64,64,300,132,238,-139,27,-170,236,203,-17,173,-144,56,282
126036,395,652,454,256,303,327,419,434,302,331,365,1381,-81,257,262,280,-86,96,63,289,107,42,-81,39,-182,175,133,81,189,-189,4,146
126037,356,641,402,245,296,355,442,362,286,345,340,1239,-108,277,283,260,67,67,59,302,153,159,-37,33,-173,225,318,-25,172,-159,51,-6
126038,334,607,365,249,272,350,418,214,280,318,297,1146,-152,262,269,171,13,19,22,307,119,144,-65,0,-181,228,266,-234,106,-144,42,77
126039,321,505,370,236,260,345,396,230,270,303,275,1213,-135,255,242,138,14,46,25,271,44,144,0,33,-172,167,114,-124,111,-179,19,235
126040,350,441,407,214,277,364,359,260,260,287,279,1273,-93,261,230,184,94,91,35,252,11,194,56,59,-164,149,43,-85,160,-135,53,365
126041,409,504,433,196,271,359,323,210,270,297,298,1153,-95,268,224,234,-2,83,40,263,17,235,36,59,-175,159,66,-139,166,-130,94,370
126042,341,479,406,209,276,396,326,221,273,292,317,978,-130,262,233,228,-133,-5,30,262,37,156,-11,23,-202,151,77,-263,118,-136,55,299
126043,356,517,363,184,268,337,350,206,279,303,218,1124,-112,249,194,201,-60,42,32,257,-7,98,46,57,-201,128,45,-169,151,-154,26,225
126044,335,542,433,198,275,308,397,208,280,293,251,1150,-89,260,219,227,54,53,30,261,8,55,31,53,-215,133,39,-146,175,-150,46,240
126045,365,570,465,240,291,266,427,283,288,280,221,1157,-83,250,206,151,-1,52,30,248,-21,35,15,44,-241,127,69,-121,176,-158,42,131
126046,449,598,480,230,303,242,430,263,284,303,214,1146,-97,241,227,178,-21,73,29,248,27,45,35,54,-216,166,175,-216,195,-152,36,-45
126047,433,583,485,228,292,256,423,210,280,290,195,1160,-106,235,217,98,-35,53,3,242,34,218,-4,23,-236,167,151,-244,158,-186,-7,97
126048,436,593,520,230,287,264,457,222,293,292,170,1238,-94,245,207,-8,83,76,16,252,31,249,45,48,-239,143,-55,10,188,-140,61,405
126049,429,581,508,208,279,284,435,239,280,297,221,1266,-95,255,200,63,192,137,43,245,28,206,168,59,-231,134,-37,-162,212,-160,57,281
126050,408,570,488,209,283,258,428,246,283,310,285,1228,-81,236,205,261,228,190,56,263,-7,218,279,108,-212,142,40,-113,269,-167,29,175
126051,376,520,449,216,276,248,338,241,293,295,260,1146,-86,255,179,249,-40,117,41,247,-75,155,42,65,-208,142,29,-74,210,-142,52,166
126052,358,523,412,208,300,323,362,183,282,313,291,1096,-111,258,205,169,-274,4,44,245,-29,49,-198,-16,-194,159,62,-71,131,-132,64,116
126053,328,460,362,195,273,336,370,151,251,294,266,1068,-137,234,204,-39,-222,-27,25,246,-49,73,-254,-31,-225,146,30,44,141,-137,57,207
126054,333,380,358,225,292,398,328,195,304,310,111,1118,-83,258,185,-256,-104,50,72,287,31,140,-173,46,-176,207,85,198,240,-46,150,310
126055,337,446,355,208,296,371,308,233,298,317,149,1166,-68,254,181,-33,-47,84,91,296,53,119,-78,75,-144,204,84,265,294,-34,163,296
126056,364,498,348,202,281,299,305,229,283,298,212,1173,-87,266,180,359,-18,83,88,281,-39,57,-71,83,-135,181,63,146,267,-68,113,247
126057,370,437,371,193,277,312,323,224,277,328,143,1153,-95,268,203,380,-60,81,83,294,-12,59,-125,63,-136,194,130,-89,191,-100,91,64
126058,326,364,342,150,265,347,288,196,266,322,132,1110,-102,261,221,5,-59,45,78,309,76,113,-168,45,-134,238,289,-85,177,-120,74,-384
126059,302,347,325,172,264,279,284,177,281,295,165,1093,-86,267,209,-6,-17,94,96,338,76,26,-94,74,-136,241,296,-90,199,-132,39,-243
126060,297,368,293,201,282,235,242,228,288,283,178,1201,-36,280,199,207,-17,139,131,312,1,27,-41,109,-109,176,32,-18,260,-83,106,257
126061,301,434,303,215,257,187,190,249,286,268,183,1294,-42,269,183,200,-161,80,118,264,-118,44,-113,91,-123,118,-91,-119,204,-123,91,296
126062,328,419,357,204,260,218,192,360,303,283,187,1354,-11,272,171,103,-76,184,140,277,-144,68,-21,130,-147,114,-152,-53,242,-104,99,270
126063,323,435,282,228,267,306,263,348,317,297,121,1214,-15,305,195,104,-14,150,144,303,-104,78,-1,143,-114,161,-146,66,282,-41,154,252
126064,299,409,246,231,275,336,234,248,284,274,132,1128,-59,283,189,142,-140,84,110,278,-56,17,-123,97,-120,180,-35,30,271,-20,184,227
126065,264,387,286,229,289,315,217,270,299,293,176,1169,-58,280,234,167,-74,104,119,309,18,-69,-119,79,-99,210,161,-99,287,7,187,18
126066,264,405,247,180,271,283,267,185,298,294,195,1119,-68,289,252,199,-8,107,105,335,80,-12,-87,84,-95,272,325,-203,247,-37,153,-91
126067,319,479,254,149,262,228,248,144,271,272,141,1117,-90,262,207,150,-47,108,112,318,41,22,-14,112,-113,230,125,-145,269,-38,142,74
126068,365,506,302,163,265,217,242,206,291,284,108,1179,-56,277,194,41,6,141,141,304,-28,108,25,125,-93,215,-84,-112,274,-6,158,384
126069,344,461,319,126,258,214,246,199,281,286,126,1208,-42,282,193,37,0,141,149,319,-19,123,84,133,-82,204,-82,-140,301,-11,192,329
126070,363,474,347,72,261,196,238,168,273,281,147,1172,-71,289,232,73,-13,123,145,321,5,80,58,115,-84,220,-1,-77,322,-29,186,169
126071,379,491,384,96,271,204,245,182,277,281,215,1111,-76,301,264,-42,-19,88,147,335,54,52,-71,79,-74,259,87,-63,330,9,200,261
126072,379,474,360,152,278,282,282,173,275,295,253,1133,-72,292,269,-117,-37,49,127,339,68,93,-101,77,-79,265,89,40,327,45,233,326
126073,379,409,355,158,282,303,289,173,280,288,247,1186,-69,279,286,100,6,82,119,337,64,133,-53,96,-87,260,86,177,362,42,236,350
126074,346,369,312,185,297,265,293,227,301,272,82,1246,-31,284,212,241,92,147,133,318,-22,181,46,150,-54,237,75,369,442,53,246,378
126075,323,366,271,210,294,293,360,258,288,262,108,1249,-9,276,173,163,56,137,123,319,-61,163,-33,123,-75,218,67,160,408,76,300,339
126076,307,371,304,195,297,326,404,246,283,278,207,1105,-68,274,225,180,-23,48,95,306,-9,167,-94,83,-101,247,110,133,372,91,304,403
126077,278,441,325,188,297,314,352,215,297,287,167,1157,-80,266,222,171,47,77,107,308,-3,198,-37,93,-86,261,188,176,382,83,296,478
126078,268,469,387,188,287,334,334,230,287,303,169,1228,-56,262,245,-18,83,116,110,311,10,147,34,91,-97,229,142,158,380,60,251,335
126079,214,469,423,226,277,311,337,282,286,301,194,1296,-40,266,273,-117,34,158,112,321,106,201,80,109,-89,287,209,113,386,57,266,441
126080,244,519,457,319,277,273,348,377,308,270,241,1361,-22,254,268,184,-7,187,105,331,115,233,123,146,-99,281,256,83,405,76,270,419
126081,257,557,327,285,294,291,367,473,290,272,289,1309,-46,229,247,431,110,189,63,271,-45,134,200,108,-144,175,143,-181,312,-32,164,197
126082,349,571,327,221,305,306,389,318,277,307,333,1248,-75,244,270,364,138,188,65,263,-35,141,212,105,-161,172,142,-356,252,-103,94,204
126083,388,562,351,227,318,317,451,200,287,293,312,1223,-68,246,269,264,58,178,89,282,63,225,241,125,-174,226,285,-286,288,-72,123,38
126084,418,569,406,193,306,296,447,160,277,283,203,1256,-80,250,240,335,7,166,74,279,74,355,150,110,-172,238,406,-111,289,-84,116,-40
126085,441,555,437,182,306,315,475,198,282,278,213,1287,-75,266,259,170,56,151,94,304,121,321,43,89,-138,255,373,91,307,-41,149,357
126086,404,509,421,162,285,329,396,255,263,264,258,1227,-77,236,256,134,73,128,86,273,101,262,-38,49,-175,222,244,144,256,-72,118,434
126087,428,519,407,160,312,341,350,304,261,277,319,1219,-52,260,270,327,30,146,100,270,62,269,-47,52,-170,206,128,105,265,-97,110,425
126088,412,493,390,166,299,329,375,249,269,272,371,1240,-51,273,282,388,130,186,124,284,34,289,98,132,-148,217,134,214,354,-35,162,497
126089,407,463,426,152,277,344,362,218,247,291,388,1273,-100,263,305,353,102,134,92,306,61,337,68,114,-131,228,213,127,322,-33,161,505
126090,329,347,383,170,262,385,400,282,250,293,241,1212,-90,265,298,363,68,111,92,313,104,401,61,92,-124,247,269,68,301,-23,160,519
126091,247,213,373,143,255,475,471,249,246,302,182,1227,-81,263,263,327,115,141,93,320,98,297,118,92,-115,259,251,234,333,-24,166,463
126092,279,248,394,156,258,405,374,246,245,306,248,1226,-92,245,284,313,51,129,74,310,93,116,83,75,-139,243,267,308,288,-71,142,214
126093,339,308,377,146,278,354,380,221,251,306,245,1235,-107,237,300,351,-6,110,68,319,144,264,52,64,-136,275,452,185,260,-91,112,74
126094,344,397,372,145,276,349,381,180,265,310,230,1249,-117,248,306,303,57,104,84,320,111,347,103,99,-123,281,370,-94,290,-60,137,377
126095,380,508,396,146,285,243,387,183,256,283,230,1276,-99,253,264,152,118,151,96,315,73,382,200,134,-107,248,245,-177,320,-8,181,546
126096,390,548,339,82,278,243,433,135,262,305,292,1215,-100,260,315,111,136,152,111,346,135,400,220,147,-87,258,282,-39,300,-62,155,483
126097,354,536,278,119,281,273,427,154,260,313,280,1194,-102,277,341,125,132,138,132,369,180,263,140,135,-77,288,298,132,322,-35,162,413
126098,320,541,263,163,272,274,391,174,248,313,306,1193,-89,272,314,332,70,147,119,381,196,225,62,129,-63,302,320,241,335,-3,180,387
126099,334,560,360,164,294,302,463,166,258,314,353,1172,-93,272,297,474,-16,118,99,365,123,279,-18,115,-73,270,291,266,316,-19,164,494
126100,372,587,422,160,297,305,499,195,262,312,358,1201,-100,277,298,345,59,132,119,367,79,435,4,115,-82,298,311,332,338,-4,190,604
126101,387,531,412,148,286,252,414,177,268,308,270,1203,-116,272,312,276,122,101,96,370,162,471,-11,125,-78,335,370,343,360,27,208,535
126102,346,486,436,139,275,257,348,123,252,276,227,1229,-113,258,285,253,118,89,93,355,149,349,-68,107,-90,293,337,254,307,-40,160,339
126103,292,524,471,160,293,318,372,173,276,301,298,1247,-98,282,341,193,25,110,114,388,175,290,-69,121,-74,308,357,161,291,-26,165,378
126104,252,477,326,172,281,324,348,297,283,302,229,1307,-70,311,348,-88,-3,144,124,400,193,278,-36,144,-71,328,335,107,299,-33,155,365
126105,303,426,306,201,274,329,354,351,293,283,197,1342,-39,298,327,30,55,172,131,385,177,240,8,156,-57,324,289,112,303,-46,134,309
126106,318,462,330,200,284,308,378,277,298,289,291,1282,-78,281,333,393,113,157,121,354,74,248,83,179,-43,298,268,64,354,-50,148,291
126107,305,392,333,167,264,332,311,186,287,284,302,1236,-70,295,328,442,113,155,134,363,38,330,154,192,-37,295,305,69,388,-45,176,272
126108,296,327,350,118,274,332,328,179,285,286,285,1246,-59,275,310,242,72,186,135,364,99,251,163,195,-54,298,274,-73,326,-60,147,253
126109,313,285,394,156,273,307,268,226,307,267,225,1204,-23,305,311,230,49,195,172,371,99,209,167,189,-39,300,206,-5,326,-47,134,197
126110,289,258,427,153,261,273,266,242,301,261,260,1215,-26,290,304,163,-17,162,142,335,89,185,55,138,-44,289,288,7,259,-102,66,-90
126111,287,276,384,148,256,314,271,224,314,300,277,1304,-31,291,293,81,11,197,127,314,54,134,57,130,-71,248,173,-142,233,-124,62,204
126112,277,273,335,130,251,368,282,207,279,324,262,1305,-32,280,308,123,51,205,130,316,50,79,172,161,-90,221,76,-185,267,-152,35,282
126113,270,354,246,127,261,300,365,203,289,305,137,1236,-46,286,288,183,10,155,136,320,105,44,100,150,-84,233,188,-102,241,-137,59,218
126114,266,411,249,153,270,258,437,244,313,292,60,1198,-51,277,249,132,-72,119,105,310,96,18,-18,85,-120,224,190,-54,223,-142,63,96
126115,278,437,268,157,276,275,400,234,303,315,218,1181,-59,295,304,115,-127,106,107,318,81,-14,-40,102,-103,240,159,58,251,-134,75,63
126116,314,472,301,142,267,242,334,236,305,314,253,1128,-70,282,298,178,-71,97,125,321,76,-17,-66,118,-90,244,159,92,286,-108,110,72
126117,288,463,288,160,265,319,292,204,303,330,287,1093,-74,309,324,249,-75,71,129,360,122,78,-67,102,-71,257,205,-15,272,-101,102,138
126118,265,404,362,163,256,308,269,142,288,315,232,1123,-68,282,313,221,-68,69,118,363,135,211,-91,110,-82,272,210,33,273,-54,126,216
126119,306,406,442,195,286,334,297,239,308,328,152,1227,-18,304,330,168,-12,145,160,376,188,241,12,159,-47,308,257,123,345,-31,173,91
126120,305,414,452,213,279,318,335,253,308,321,214,1254,-13,309,341,1,74,151,151,373,210,232,96,159,-45,315,240,51,333,-74,124,10
126121,330,402,437,211,284,305,351,213,306,319,240,1189,-35,284,342,91,122,134,125,394,212,277,142,189,-34,340,312,14,382,-23,183,132
126122,348,401,418,174,281,261,316,245,290,291,186,1242,-51,269,331,169,19,147,129,375,216,298,102,190,-39,330,305,30,375,11,223,371
126123,369,436,428,201,282,280,368,300,299,316,245,1267,-15,302,346,249,48,159,144,383,205,309,69,174,-37,338,350,-20,338,-11,190,250
126124,316,404,396,221,271,263,342,307,279,292,242,1314,-20,295,322,329,39,170,139,362,151,223,111,180,-37,305,205,-106,341,-19,180,358
126125,314,410,329,192,261,289,371,282,290,315,286,1259,-21,286,311,389,30,178,134,361,76,188,123,203,-30,293,116,-16,347,-8,172,464
126126,277,455,233,204,264,287,397,283,301,310,281,1173,-24,283,288,315,-21,132,147,368,78,228,22,162,-49,299,147,68,327,-34,162,416
126127,277,390,213,189,257,277,373,356,303,286,214,1166,-31,285,296,231,8,91,117,370,107,212,-14,140,-53,304,160,141,304,-88,109,233
126128,305,315,290,128,276,299,374,383,315,284,218,1196,-12,294,322,229,88,132,141,397,122,163,11,167,-17,317,201,232,348,-39,146,243
126129,271,311,406,197,262,261,344,355,313,289,257,1210,-5,293,331,258,102,136,152,395,160,16,-16,166,-32,332,269,200,333,-54,142,127
126130,269,341,470,186,241,266,276,230,310,280,272,1254,-21,299,322,261,60,139,146,388,145,40,-53,134,-37,336,270,144,311,-72,116,229
126131,336,381,532,169,266,286,274,228,312,297,282,1274,-12,280,315,145,67,165,153,380,71,187,60,171,-21,309,85,157,353,-15,178,484
126132,324,345,534,172,260,281,308,240,309,315,257,1302,2,287,314,84,124,217,172,398,104,274,170,185,3,351,158,-31,374,9,213,548
126133,263,351,442,148,256,261,365,277,307,302,276,1285,7,292,344,-109,154,232,185,404,189,275,212,183,3,359,155,-20,386,-2,173,426
126134,259,427,400,147,262,255,387,277,306,339,313,1237,14,305,377,59,2,213,183,430,249,332,174,185,28,397,231,19,390,22,201,421
126135,284,423,405,149,256,278,387,306,308,332,339,1230,-3,288,354,472,14,208,161,413,199,361,134,183,19,383,260,28,367,47,246,459
126136,315,420,403,130,239,275,325,298,284,288,347,1225,-26,287,343,543,46,179,157,400,91,370,86,165,-8,341,231,70,360,7,206,390
126137,372,445,464,140,236,316,302,261,286,311,191,1323,-14,315,353,373,35,224,173,408,153,384,119,211,25,368,304,11,387,27,207,388
126138,335,410,516,147,252,328,395,233,295,313,174,1400,3,316,349,371,35,274,172,433,195,359,223,257,52,400,364,144,461,63,236,374
126139,290,403,470,165,244,295,363,288,297,313,266,1396,25,317,366,249,73,256,195,444,180,269,218,246,47,390,323,185,483,72,255,440
126140,278,442,411,172,246,237,337,283,283,333,280,1300,-6,292,387,202,69,220,192,442,174,259,110,218,13,398,293,-45,417,85,251,482
126141,311,427,436,157,224,243,371,274,283,330,275,1291,-9,290,387,294,132,222,158,434,207,384,149,205,-7,397,378,111,399,73,252,447
126142,344,416,477,144,233,276,327,218,290,337,219,1256,-16,301,370,363,140,220,151,436,237,319,192,209,4,419,420,30,419,69,253,404
126143,290,348,403,147,233,315,333,242,271,338,277,1245,-32,298,370,335,43,189,129,427,220,109,123,174,-20,405,345,18,372,20,189,242
126144,298,359,369,139,235,247,334,238,286,328,268,1305,-15,308,374,321,94,187,140,433,250,247,72,149,-2,420,439,76,348,18,219,269
126145,271,395,367,135,242,214,289,249,293,324,215,1365,6,319,360,265,122,224,169,448,216,322,159,200,25,417,359,215,402,58,274,329
126146,254,444,407,167,252,219,290,276,304,324,214,1397,16,332,350,194,120,261,196,446,185,247,191,238,70,405,219,311,452,104,311,481
126147,158,464,438,177,248,216,304,275,294,332,227,1329,-17,320,329,199,97,230,206,433,171,170,107,211,45,390,234,323,416,81,270,284
