,Fp1,Fp2,F7,F3,Fz,F4,F8,FC5,FC1,FC2,FC6,T7,C3,Cz,C4,T8,TP9,CP5,CP1,CP2,CP6,TP10,P7,P3,Pz,P4,P8,PO9,O1,Oz,O2,PO10
9895,-186,47,-628,-175,8,-194,-234,-399,54,142,-206,-463,488,87,659,85,24,-35,-275,30,-48,249,318,83,366,333,64,459,-59,172,-348,-19
9896,-191,-15,-561,-135,7,-262,-234,-453,63,151,-239,-360,507,107,678,61,61,54,-267,28,-82,229,354,95,357,368,-52,390,-60,155,-352,-139
9897,-81,-41,-514,-43,0,-264,-248,-520,54,133,-344,-237,445,73,654,58,23,26,-285,-2,-93,187,289,106,359,345,-86,397,-35,173,-304,42
9898,-34,56,-474,-35,17,-216,-217,-504,36,133,-267,8,377,67,664,189,-30,-63,-328,13,-50,62,347,96,339,321,-68,370,-123,72,-392,-32
9899,-22,166,-514,-9,24,-213,-228,-433,29,176,-190,65,409,112,704,216,60,-58,-306,9,15,-98,381,104,347,338,-102,367,-134,60,-432,-139
9900,-18,194,-659,-42,19,-225,-267,-470,23,149,-160,74,418,95,723,85,-50,-30,-307,-3,3,131,369,89,359,331,-92,317,-141,99,-390,-58
9901,-73,216,-639,-31,2,-240,-282,-423,34,125,-217,77,438,92,694,-138,-214,48,-286,21,-73,405,471,98,391,314,-94,150,-131,136,-275,117
9902,-163,176,-606,-1,-15,-247,-229,-415,56,167,-173,-35,477,94,691,-187,-359,67,-272,18,-41,368,515,101,381,358,-106,247,-126,201,-153,366
9903,-179,189,-582,33,3,-316,-237,-241,84,135,-229,-353,548,89,717,-158,-407,45,-289,-4,-56,224,396,61,351,375,-123,186,-148,212,-69,630
9904,-278,150,-731,43,26,-324,-279,-239,80,136,-326,-584,516,92,719,-230,-183,-22,-301,10,-94,297,327,52,343,366,-84,199,-109,221,-133,561
9905,-243,99,-753,17,24,-265,-234,-320,66,139,-284,-593,462,71,587,-415,-140,7,-323,-76,-243,281,198,-6,274,241,-289,499,-122,71,-445,-53
9906,-157,117,-635,42,18,-197,-199,-373,39,144,-190,-498,411,48,471,-381,-220,31,-332,-122,-275,79,78,-83,220,159,-470,269,-295,-142,-739,-623
9907,-159,146,-554,8,17,-202,-160,-663,-5,144,-175,-88,277,49,577,-161,-150,-271,-391,-88,-128,-30,202,-77,215,226,-238,171,-349,-179,-765,-505
9908,-141,116,-670,-9,-11,-245,-184,-673,16,110,-239,13,389,46,595,-258,-175,-269,-395,-89,-129,241,270,-45,216,251,-127,277,-309,-127,-668,-319
9909,-126,138,-695,-57,17,-269,-285,-498,42,92,-358,-84,464,53,526,-285,-142,-182,-340,-134,-225,355,375,-16,236,199,-261,414,-225,-1,-500,-139
9910,-149,229,-652,-46,61,-244,-301,-432,22,117,-345,-44,206,54,538,43,-131,-189,-375,-111,-219,348,468,-25,258,222,-275,353,-157,99,-368,169
9911,-235,185,-655,-40,40,-171,-249,-542,-4,131,-290,-175,170,37,571,103,-248,-260,-425,-91,-187,154,380,-61,239,233,-266,167,-265,30,-428,55
9912,-236,102,-634,-74,63,-203,-231,-588,16,147,-162,21,308,47,621,14,-233,-155,-403,-80,-207,187,462,-68,249,200,-286,129,-300,-49,-519,-288
9913,-239,80,-654,-79,59,-243,-283,-487,12,115,-154,-118,338,37,608,-209,-262,-172,-416,-100,-202,76,279,-129,214,196,-191,20,-374,-69,-527,-179
9914,-185,120,-684,-114,60,-290,-263,-339,28,96,-170,-264,372,20,616,-441,-266,-162,-398,-112,-211,52,216,-119,190,208,-156,235,-343,-68,-554,-237
9915,-220,101,-678,-113,22,-238,-308,-343,20,118,-134,-262,343,13,671,-473,-361,-166,-387,-103,-189,49,267,-80,205,223,-186,260,-304,-47,-536,-221
9916,-204,20,-619,64,10,-84,-266,-325,22,151,-113,-333,357,42,684,-273,-630,-216,-419,-77,-102,44,163,-155,215,275,-88,21,-357,-41,-451,-194
9917,-99,25,-580,85,49,-159,-234,-323,50,144,-162,-449,378,61,708,-106,-494,-107,-345,-31,-37,-7,263,-76,276,332,-120,205,-227,84,-317,81
9918,-226,57,-616,-7,19,-236,-307,-413,21,119,-243,-783,363,56,670,-81,-166,-147,-345,-8,-88,214,278,-54,291,325,3,262,-180,121,-252,207
9919,-249,156,-727,-72,7,-95,-306,-410,14,168,-194,-637,359,42,648,11,-169,-258,-417,-34,-108,270,71,-153,248,303,-40,211,-254,54,-303,103
9920,-115,158,-673,-32,54,73,-324,-415,17,155,-151,-483,291,38,659,-15,-260,-256,-479,-64,-208,62,-119,-250,180,184,-369,70,-415,-147,-588,-274
9921,-109,96,-613,-45,36,-91,-390,-445,10,123,-254,-552,322,26,635,-8,-183,-225,-440,-90,-254,-115,82,-187,169,139,-434,119,-442,-207,-660,-276
9922,-168,112,-655,-116,34,-211,-352,-497,44,153,-264,-452,413,57,658,-18,-147,-161,-354,-29,-195,124,269,-68,272,244,-199,208,-260,30,-318,222
9923,-142,98,-684,-168,19,-210,-289,-541,46,148,-298,-302,344,70,684,-67,-232,-195,-380,1,-129,327,215,-54,297,348,53,113,-217,112,-134,617
9924,-122,43,-629,-83,29,-231,-280,-519,25,153,-295,-336,260,79,696,-17,-325,-216,-387,27,-60,257,127,-90,301,429,186,20,-231,124,-76,714
9925,-195,-3,-721,-68,3,-222,-369,-437,15,118,-301,-308,289,35,632,-126,-423,-214,-423,-60,-179,204,106,-97,224,267,-85,-31,-384,-116,-503,-81
9926,-180,10,-706,-22,15,-238,-330,-307,35,94,-294,-336,363,29,599,-328,-535,-105,-442,-117,-306,150,140,-87,164,114,-487,-71,-440,-302,-861,-697
9927,-118,60,-683,17,11,-245,-236,-407,40,98,-220,-294,347,24,578,-356,-307,-116,-438,-112,-297,61,178,-95,162,86,-536,-61,-445,-281,-871,-703
9928,-92,113,-728,-11,-6,-240,-223,-525,29,86,-142,-305,331,43,628,-315,-234,-114,-393,-32,-182,-31,178,-54,239,187,-402,33,-333,-87,-561,-241
9929,-230,80,-712,6,-33,-234,-317,-389,52,124,-190,-515,421,59,685,-285,-340,-94,-364,-28,-163,23,234,-19,276,227,-395,27,-268,-38,-516,-57
9930,-243,72,-726,-9,-52,-228,-411,-363,46,134,-316,-356,516,49,657,-266,-435,-74,-368,-56,-254,31,325,-4,245,167,-473,214,-273,-118,-648,-250
9931,-170,93,-807,-83,-39,-109,-350,-496,42,133,-231,-219,555,44,602,-234,-344,-41,-348,-57,-287,141,407,33,267,144,-453,165,-235,-114,-670,-433
9932,-124,139,-717,-106,-11,-79,-288,-554,30,130,-165,-205,523,54,547,-166,-171,-67,-355,-72,-298,165,478,49,256,126,-435,-147,-319,-194,-702,-521
9933,-69,133,-635,-85,19,-183,-256,-513,-5,153,-183,171,226,49,653,-217,-81,-206,-388,-23,-204,196,382,13,270,219,-307,138,-251,-100,-567,-281
9934,-155,-1,-571,-61,5,-217,-279,-481,-5,169,-247,93,204,50,659,-255,-189,-256,-385,-29,-197,130,311,-44,264,230,-305,251,-292,-77,-539,-186
9935,-247,-59,-696,-83,9,-124,-286,-539,-5,172,-284,-211,311,60,626,-298,-233,-244,-404,-32,-188,-26,317,-45,232,225,-305,-37,-369,-115,-570,-272
9936,-283,-76,-655,-61,-5,-116,-278,-503,7,159,-278,-120,270,61,633,-292,-236,-256,-425,-14,-167,148,221,-115,220,238,-225,151,-297,-106,-555,-252
9937,-335,-68,-655,-50,-16,-201,-270,-542,-28,152,-108,-53,222,45,691,-187,-228,-289,-446,-11,-131,139,87,-174,230,268,-91,287,-289,-69,-528,-240
9938,-413,29,-791,-79,-4,-176,-275,-583,-24,132,-13,215,256,30,735,-282,-403,-231,-445,-1,-113,45,84,-122,236,270,-117,175,-334,-40,-551,-213
9939,-364,98,-798,-76,3,-73,-247,-399,14,181,-14,-113,385,62,730,-366,-514,-189,-409,-6,-137,162,68,-88,277,250,-240,131,-319,-38,-547,-138
9940,-221,112,-728,-52,-9,-68,-233,-376,33,186,1,-467,427,92,737,-252,-435,-144,-359,13,-116,150,171,-32,298,305,-238,165,-237,23,-477,-119
9941,-90,153,-635,-93,-56,-71,-279,-491,22,174,-158,-473,363,79,705,-36,-351,-157,-364,25,-101,164,248,-9,316,326,-164,201,-204,66,-462,-94
9942,-84,138,-609,-123,-22,-82,-273,-538,-1,178,-199,-421,395,86,684,45,-385,-182,-380,1,-120,119,186,-54,311,317,-160,291,-196,92,-432,-14
9943,-123,170,-685,-119,-22,-118,-280,-475,30,151,-181,-623,457,92,677,-69,-234,-151,-368,-5,-172,152,303,-48,329,279,-246,278,-183,111,-396,82
9944,-134,161,-765,-81,-20,-15,-366,-365,37,148,-237,-734,470,92,654,-134,-344,-85,-377,1,-216,210,257,-16,325,279,-128,168,-207,110,-362,236
9945,-148,110,-800,-212,-37,-10,-374,-474,21,158,-268,-358,421,83,661,-161,-492,3,-372,-6,-164,232,234,1,328,302,-2,183,-190,112,-358,121
9946,-205,48,-777,-192,-19,-67,-249,-586,15,158,-272,67,399,89,711,-99,-277,-157,-367,5,-110,141,353,37,354,345,-46,342,-96,202,-289,13
9947,-224,35,-746,-112,-25,-120,-274,-610,-8,159,-300,-45,370,75,686,-27,-130,-201,-355,22,-105,26,227,-32,347,322,-161,281,-117,178,-374,-55
9948,-240,34,-715,-58,-4,-177,-384,-497,14,135,-321,-207,417,87,688,4,-140,-185,-332,-8,-110,124,289,-25,361,300,-213,381,-112,160,-357,34
9949,-307,98,-740,-89,-7,-144,-342,-516,46,169,-216,-350,420,94,698,-74,-167,-225,-304,-4,-104,122,305,-11,359,305,-261,293,-158,121,-370,48
9950,-155,137,-692,-109,-1,-46,-382,-494,44,172,-218,-356,466,92,659,-234,-127,-168,-289,-10,-166,132,262,-11,334,275,-313,264,-206,-71,-632,-149
9951,-117,121,-766,-113,-15,6,-426,-487,15,185,-253,-612,446,79,656,-212,-323,-183,-318,-1,-125,136,276,-18,339,306,-220,191,-193,11,-576,-117
9952,-113,118,-740,-107,-19,-76,-409,-467,26,177,-214,-350,416,94,670,-303,-396,-146,-333,29,-93,78,482,51,377,337,-160,175,-202,32,-470,-199
9953,-149,120,-664,-94,-27,-134,-338,-581,22,142,-125,0,421,110,703,-202,-192,-111,-303,50,-72,-127,568,98,379,359,-281,319,-170,72,-400,-96
9954,-246,104,-758,-119,-36,-173,-312,-550,14,123,-129,110,413,91,683,-8,-141,-99,-294,40,-52,-228,542,143,399,381,-159,134,-171,54,-425,-117
9955,-261,27,-887,-107,-48,-176,-343,-383,43,140,-235,-225,496,73,674,-7,-173,-71,-280,14,-94,-196,466,107,374,379,-202,338,-121,54,-473,-203
9956,-247,-74,-836,-91,-36,-217,-400,-305,73,136,-273,-361,570,82,677,-182,-259,-87,-267,7,-137,61,211,29,384,361,-211,381,-122,134,-365,-13
9957,-319,-155,-825,-125,-37,-210,-406,-373,56,128,-364,-832,557,84,723,-257,-278,-48,-296,15,-142,53,233,79,412,383,-123,343,-55,236,-225,265
9958,-318,-157,-855,-119,-54,-186,-420,-386,13,121,-398,-1081,494,91,734,-212,-144,-70,-320,21,-140,-133,394,100,411,408,-94,699,36,242,-296,32
9959,-248,-55,-837,-81,-41,-170,-374,-461,5,110,-243,-654,278,99,647,-129,-39,-143,-341,16,-116,48,464,68,409,388,-182,503,34,202,-373,-276
9960,-249,63,-792,-104,-23,-186,-401,-659,19,126,-232,139,257,123,602,-101,-123,-101,-291,44,-163,331,476,133,480,436,-177,373,74,315,-157,133
9961,-304,95,-764,-192,-34,-268,-456,-727,21,119,-332,277,323,118,607,-110,-250,-144,-279,50,-193,308,389,134,461,440,-150,105,-34,293,-99,439
9962,-377,-6,-869,-219,-54,-202,-486,-677,14,146,-360,-3,358,127,648,-129,-349,-144,-243,57,-153,297,334,119,490,486,-50,110,10,367,13,629
9963,-406,-138,-922,-177,-46,-195,-532,-636,36,152,-349,-85,419,144,637,-294,-10,-53,-221,31,-211,53,455,174,487,398,-215,483,94,247,-337,-31
9964,-353,-144,-947,-199,-51,-248,-533,-585,35,148,-280,-180,415,122,662,-496,-131,-135,-293,-19,-253,-205,365,44,355,238,-427,198,-174,-145,-863,-716
9965,-335,-131,-973,-162,-52,-185,-465,-556,6,158,-235,-321,403,92,668,-662,-305,-178,-339,-19,-147,-90,310,-21,356,300,-215,-35,-257,-58,-587,-246
9966,-257,29,-838,-107,-22,-127,-348,-620,5,157,-213,-344,381,89,649,-753,-167,-162,-338,-13,-154,7,344,20,355,335,-167,-33,-268,-31,-559,-50
9967,-227,183,-799,-122,-13,-171,-327,-559,5,127,-155,-407,353,74,629,-478,-151,-194,-347,-35,-213,-46,277,0,272,238,-262,-15,-333,-171,-828,-564
9968,-245,200,-907,-98,-34,-164,-320,-451,17,130,-145,-298,351,64,637,-320,-441,-182,-360,-25,-214,-57,216,-55,264,235,-244,63,-301,-101,-714,-538
9969,-84,304,-773,-79,-4,-169,-326,-479,24,129,-159,-361,380,63,626,-261,-303,-183,-349,-46,-203,8,196,-52,300,269,-268,92,-258,-65,-584,-277
9970,8,290,-770,-80,-11,-215,-350,-443,31,97,-224,-707,425,68,606,-123,-234,-155,-309,-56,-194,68,189,-32,302,289,-277,123,-249,-38,-499,-92
9971,28,296,-747,-100,0,-182,-294,-423,34,125,-187,-900,440,64,613,-57,-356,-174,-336,-46,-209,72,199,-9,301,276,-281,119,-264,-51,-524,-135
9972,80,280,-756,-84,18,-192,-252,-515,39,135,-192,-567,464,59,583,-54,-306,-163,-309,-42,-233,45,324,17,317,257,-341,135,-204,-12,-570,-329
9973,130,268,-720,-67,48,-181,-211,-537,40,130,-209,-291,475,69,613,67,-342,-136,-314,-59,-188,-53,353,33,321,258,-294,162,-203,-34,-672,-530
9974,89,269,-672,-37,60,-103,-276,-498,63,133,-289,-398,451,51,598,37,-421,-163,-364,-49,-164,-113,176,-25,292,240,-220,151,-263,-69,-604,-291
9975,-34,310,-758,-68,37,-209,-331,-489,54,106,-375,-541,410,45,576,-54,-317,-248,-386,-53,-139,-187,179,-70,275,260,-98,-45,-315,-61,-501,-117
9976,20,363,-735,-94,51,-244,-404,-475,26,112,-347,-724,329,43,596,-173,-410,-258,-362,-27,-157,-10,201,-58,300,323,-12,-81,-287,13,-357,226
9977,139,481,-709,-65,75,-116,-409,-452,19,109,-351,-905,365,40,552,-288,-438,-149,-337,-53,-248,-10,216,-63,295,260,-209,54,-297,-41,-414,73
9978,130,598,-673,-49,73,-174,-379,-496,62,87,-419,-990,461,36,496,-308,-275,-123,-332,-94,-359,-126,396,-59,251,130,-506,97,-351,-169,-757,-536
9979,73,565,-661,-41,59,-177,-310,-566,65,66,-421,-687,468,48,494,-138,-288,-154,-289,-96,-328,-115,536,-41,280,139,-439,83,-286,-127,-732,-548
9980,153,536,-730,-27,94,-62,-235,-521,56,122,-321,-286,299,41,561,-154,-426,-191,-309,-60,-264,-145,536,-55,283,188,-411,256,-213,-32,-557,-357
9981,236,496,-682,-47,101,-73,-246,-550,58,135,-280,-81,264,26,617,-61,-339,-264,-356,-65,-247,-271,451,-32,278,174,-416,234,-245,-46,-624,-448
9982,259,501,-698,-74,78,-102,-228,-557,36,131,-218,-200,238,41,642,-47,-277,-304,-355,-59,-174,-372,253,-63,293,204,-338,102,-236,-20,-576,-397
9983,150,530,-758,-57,63,-155,-232,-661,1,125,-202,-221,190,42,614,-168,-392,-272,-400,-24,-183,-432,-115,-151,287,234,-338,266,-264,-7,-519,-259
9984,194,505,-721,-95,51,-153,-293,-825,-1,111,-285,-25,233,50,613,-206,-379,-150,-363,-23,-229,-175,-16,-84,314,234,-321,204,-220,44,-431,-150
9985,221,499,-797,-150,51,-197,-327,-775,39,89,-352,-191,301,60,598,-252,-192,-297,-353,-52,-274,-14,136,-71,311,212,-308,321,-189,22,-529,-195
9986,151,481,-834,-11,53,-129,-410,-589,46,128,-311,-571,363,52,583,-305,-265,-372,-365,-43,-249,9,39,-116,303,180,-239,287,-238,-4,-608,-196
9987,117,514,-869,12,54,29,-299,-565,29,126,-336,-703,334,49,651,-346,-317,-313,-321,-25,-193,48,45,-101,301,233,-127,206,-252,5,-506,-200
9988,94,575,-950,-67,42,-142,-296,-500,34,76,-394,-746,356,34,674,-441,-290,-271,-314,-53,-199,-43,82,-101,297,215,-280,142,-301,-84,-603,-335
9989,22,609,-898,-70,42,-222,-331,-425,61,88,-362,-598,438,52,639,-454,-360,-201,-289,-30,-218,-66,192,-44,329,248,-430,213,-215,7,-535,-191
9990,-128,540,-725,-23,73,-145,-342,-469,65,95,-281,-312,392,56,542,-402,-296,-142,-297,-36,-256,-171,313,-2,322,248,-451,209,-209,50,-521,-135
9991,-120,404,-741,-36,77,-178,-306,-583,27,117,-366,104,327,25,516,-291,-125,-216,-338,-46,-240,-163,345,-24,315,237,-324,329,-202,58,-522,-141
9992,62,311,-797,-59,40,-147,-321,-660,12,112,-368,33,317,15,581,-220,-110,-280,-331,-20,-215,104,256,-71,300,258,-218,159,-289,-19,-549,-252
9993,118,299,-807,-106,51,-130,-316,-724,6,136,-183,-264,264,49,624,-140,-158,-351,-342,18,-177,108,186,-75,309,275,-223,93,-278,-15,-505,-164
9994,107,289,-734,-132,47,-102,-263,-551,-10,141,-179,-269,329,37,603,-117,-283,-291,-337,16,-205,-25,214,-67,297,259,-247,158,-268,-1,-560,-207
9995,136,293,-741,-250,2,-149,-288,-504,8,89,-227,-249,378,14,578,-422,-389,-224,-343,-11,-246,-5,301,-15,278,252,-278,-31,-285,-31,-547,-244
9996,176,415,-648,-165,19,-132,-293,-497,30,118,-172,-520,410,45,619,-636,-338,-154,-323,15,-219,82,363,1,317,298,-210,79,-213,33,-448,-107
9997,223,454,-618,-64,10,-162,-269,-462,27,116,-171,-954,427,52,613,-442,-320,-136,-327,16,-199,75,337,25,316,308,-175,105,-214,25,-430,-23
9998,241,400,-666,-76,47,-135,-211,-421,50,131,-161,-880,451,63,659,-142,-447,-105,-292,29,-122,5,344,60,354,316,-91,91,-173,104,-400,-25
9999,192,332,-721,-147,35,-158,-245,-407,53,146,-147,-401,457,64,658,-164,-656,-87,-307,28,-94,-40,406,38,338,328,-53,107,-172,126,-412,-59
10000,34,365,-753,-128,19,-141,-314,-473,38,126,-204,-460,441,74,639,-70,-351,-46,-304,35,-84,12,585,98,350,367,-76,136,-134,136,-352,1
10001,11,430,-783,-84,26,-144,-305,-560,44,118,-299,-709,411,71,590,105,-498,-81,-287,23,-137,190,517,104,361,358,-180,187,-83,193,-308,88
10002,91,488,-773,-50,23,-244,-282,-586,55,121,-314,-620,394,54,590,32,-288,-128,-302,0,-125,142,397,23,365,362,-261,258,-114,180,-344,0
10003,158,511,-795,-38,51,-236,-257,-596,39,116,-252,-512,407,33,600,55,52,-200,-336,-31,-140,31,232,-56,314,316,-303,220,-242,25,-505,-126
10004,142,489,-726,-15,27,-230,-228,-479,66,114,-258,-361,486,44,574,-17,-316,-234,-311,-51,-169,55,263,-52,280,277,-360,1,-302,-33,-551,-182
10005,113,528,-811,-33,40,-283,-230,-577,55,95,-224,-63,451,29,612,-65,-318,-218,-323,-60,-197,39,346,-19,325,280,-355,-41,-233,26,-453,-98
10006,172,491,-805,-78,35,-207,-205,-637,-6,100,-194,-131,265,33,619,-101,119,-252,-357,-23,-181,135,257,0,339,328,-295,125,-178,67,-370,3
10007,232,460,-627,-112,34,-150,-264,-474,-9,117,-225,-491,204,50,653,-136,-76,-272,-381,28,-150,116,58,-29,346,370,-178,303,-139,163,-268,62
10008,160,445,-666,-68,40,-153,-266,-562,17,122,-252,-811,339,40,654,-252,-246,-213,-324,34,-113,15,108,-22,369,391,-136,279,-117,258,-173,151
10009,-107,385,-735,5,63,-142,-241,-561,61,148,-164,-881,427,48,710,-366,-300,-143,-321,48,-25,-139,186,17,396,454,51,342,-102,333,-96,292
10010,-100,350,-802,-43,50,-108,-183,-530,30,163,-82,-771,413,45,729,-280,-372,-136,-327,16,-34,-403,198,-12,348,378,32,147,-296,46,-431,96
10011,60,301,-771,-37,21,-96,-223,-511,24,139,-116,-583,381,37,682,-285,-404,-238,-370,-54,-129,-135,195,-34,290,282,-222,52,-353,-93,-636,-234
10012,136,339,-704,-17,56,-155,-228,-487,54,144,-195,-224,367,44,628,-59,-278,-195,-339,-52,-155,106,349,7,306,286,-376,374,-231,-48,-659,-553
10013,189,432,-748,-28,70,-197,-207,-398,44,130,-253,-91,355,61,589,125,-176,-192,-347,-6,-143,110,308,15,335,312,-305,199,-184,42,-492,-250
10014,183,462,-768,-28,44,-225,-277,-334,47,121,-193,-139,410,42,561,-36,-120,-233,-356,-38,-189,116,343,12,325,299,-255,300,-126,111,-482,-189
10015,281,470,-712,-42,55,-198,-292,-399,63,103,-198,-172,415,52,576,-154,-180,-206,-363,-28,-140,194,301,5,324,321,-191,63,-227,49,-513,-187
10016,294,449,-662,-69,78,-141,-318,-533,41,99,-255,-205,369,31,622,-197,-218,-247,-380,-19,-186,65,105,-23,290,311,-242,-152,-374,-65,-528,-112
10017,206,422,-664,-4,59,-70,-308,-522,47,105,-285,-116,412,31,642,-240,-272,-180,-369,-34,-252,151,131,-19,291,308,-315,-229,-390,-77,-599,-165
10018,151,415,-710,-33,29,-10,-376,-526,32,119,-313,-423,421,32,702,-205,-300,-97,-344,-44,-197,117,284,-7,324,359,-233,-74,-325,-25,-570,-205
10019,162,482,-701,-55,57,-45,-289,-473,61,121,-183,-924,437,49,692,-17,-281,-106,-317,21,-94,-18,326,24,366,447,-6,82,-218,46,-451,-60
10020,135,458,-651,-64,61,-56,-174,-410,69,120,-192,-971,506,46,577,57,-189,-87,-294,65,-97,100,351,90,399,479,-7,125,-150,122,-376,44
10021,128,393,-674,-82,31,-77,-211,-417,59,112,-196,-928,491,47,598,-181,-213,-216,-293,82,-90,237,296,96,420,472,-59,205,-96,214,-245,143
10022,99,408,-741,-149,2,-91,-213,-662,2,115,-242,17,318,49,647,-307,-137,-275,-314,53,-135,276,358,120,423,455,-222,265,-13,270,-233,108
10023,51,429,-786,-73,35,-86,-217,-691,24,139,-159,614,284,63,664,-294,-116,-207,-309,65,-175,265,403,138,438,451,-279,281,29,305,-222,116
10024,141,339,-666,-1,33,-205,-215,-519,62,105,-125,-43,418,42,661,-230,-252,-170,-294,51,-210,163,310,114,429,435,-226,147,-25,252,-135,235
10025,258,281,-562,-83,43,-245,-187,-503,38,92,-187,-529,437,52,655,-63,-210,-135,-292,78,-169,148,337,160,430,456,-130,172,-26,238,-112,349
10026,255,302,-569,-53,50,-179,-260,-499,36,84,-209,-556,483,37,636,5,-401,-81,-253,82,-119,141,370,232,479,528,-23,196,70,368,33,519
10027,224,423,-623,3,62,-143,-233,-573,74,86,-142,-377,567,60,649,-95,-273,-87,-234,90,-67,195,393,205,488,529,-47,268,105,386,-85,210
10028,137,518,-756,-54,36,-111,-183,-625,55,97,-118,-392,570,52,634,-397,-102,-6,-242,87,-100,278,385,171,461,496,-75,421,91,312,-215,101
10029,194,540,-626,-20,39,-26,-159,-416,58,150,-117,-263,441,60,654,-264,-313,48,-266,83,-126,386,440,161,421,509,-22,293,-14,133,-357,190
10030,264,624,-604,86,85,-140,-106,-282,95,155,-67,-87,429,82,733,-109,-258,-26,-260,120,-61,310,525,216,467,557,68,251,46,286,-119,324
10031,239,620,-794,20,84,-187,-85,-343,84,103,-83,-21,440,45,673,-7,-35,-64,-275,17,-148,209,435,184,421,438,-198,289,5,167,-406,-410
10032,296,618,-686,-101,75,-195,-82,-508,40,129,-64,-162,363,43,645,95,23,-253,-307,18,-123,166,293,112,382,421,-193,361,-41,96,-469,-482
10033,317,629,-545,-51,80,-162,-103,-504,21,101,-46,-283,291,41,685,93,-63,-244,-341,45,-57,-35,307,55,365,443,-13,262,-139,44,-496,-313
10034,228,576,-688,0,66,-59,-181,-473,26,113,-18,-440,323,17,711,188,-158,-212,-380,20,34,-295,347,58,335,427,65,27,-203,13,-477,-310
10035,175,528,-730,-24,81,-46,-157,-471,25,108,-37,-345,349,19,685,142,-215,-250,-404,-17,26,66,330,31,308,426,-5,77,-215,30,-406,-179
10036,171,478,-715,-42,68,-129,-200,-452,22,100,-125,-265,376,8,639,30,-276,-252,-404,-10,-43,99,335,12,306,418,-12,134,-208,17,-418,-86
10037,202,416,-659,-45,56,-213,-268,-506,51,96,-208,-226,359,-1,610,-248,-85,-233,-413,-63,-133,197,440,45,296,362,-56,277,-145,71,-395,-35
10038,154,405,-580,-14,66,-232,-218,-468,66,78,-236,-398,375,-6,571,-460,-365,-250,-432,-80,-213,390,344,-3,236,266,-268,345,-207,-31,-523,-296
10039,115,437,-576,28,43,-319,-223,-390,79,43,-256,-450,444,25,537,-326,-543,-142,-392,-62,-238,262,490,58,241,229,-335,67,-251,-65,-549,-360
10040,105,430,-574,56,45,-204,-210,-386,87,89,-222,-305,447,21,547,-190,-289,-153,-374,-80,-247,217,515,62,248,244,-328,-69,-282,-31,-461,-119
10041,72,399,-613,53,71,-154,-239,-438,59,85,-179,-148,425,15,563,-145,-240,-178,-381,-69,-170,242,446,84,253,290,-163,148,-221,29,-391,-15
10042,62,303,-667,53,52,-114,-288,-442,55,89,-175,-355,451,11,577,-170,-356,-106,-384,-66,-106,278,409,125,271,352,148,198,-154,114,-319,95
10043,117,310,-668,42,50,-197,-244,-428,71,80,-197,-747,462,14,580,-105,-379,-121,-394,-65,-76,298,280,70,277,370,256,132,-192,80,-283,110
10044,214,352,-687,-78,58,-241,-226,-420,62,57,-225,-820,443,-15,553,-9,-51,-135,-424,-75,-105,235,312,-4,228,323,25,161,-237,40,-325,47
