,Fp1,Fp2,F7,F3,Fz,F4,F8,FC5,FC1,FC2,FC6,T7,C3,Cz,C4,T8,TP9,CP5,CP1,CP2,CP6,TP10,P7,P3,Pz,P4,P8,PO9,O1,Oz,O2,PO10
130114,235,343,424,-327,35,189,25,341,125,-129,84,112,170,-218,157,116,-84,-287,-99,154,-38,59,-8,-60,-2,32,47,234,-66,-263,-145,115
130115,256,394,504,-353,39,257,82,314,106,-120,82,148,150,-197,155,74,-70,-255,-78,151,-7,54,133,-31,11,57,106,214,-11,-184,-46,319
130116,263,370,510,-393,24,323,114,314,88,-129,112,140,141,-206,181,111,-133,-242,-82,186,37,109,99,-36,13,103,183,215,-11,-117,38,535
130117,248,393,500,-391,13,362,119,320,106,-125,112,158,144,-207,187,154,-85,-281,-94,195,37,182,39,-37,19,105,227,260,16,-108,43,555
130118,229,390,532,-385,8,365,125,335,115,-131,83,162,155,-219,168,152,-45,-289,-97,169,-9,171,86,-47,18,58,142,284,22,-172,-60,232
130119,235,346,599,-427,22,328,104,372,100,-142,90,184,166,-211,154,70,-43,-228,-94,156,14,130,151,-28,12,63,94,204,3,-186,-53,144
130120,227,368,629,-484,20,320,110,401,119,-139,35,197,174,-204,141,-34,-2,-206,-78,168,16,201,245,-12,7,66,126,150,33,-137,22,372
130121,206,361,683,-512,37,292,142,414,114,-123,58,195,167,-225,131,-127,-10,-230,-91,217,-31,245,168,-23,-23,29,82,197,-8,-174,-24,267
130122,224,320,724,-394,29,225,147,444,117,-128,124,174,167,-207,140,-30,0,-244,-95,206,-18,218,160,-47,-15,22,56,293,5,-142,-71,64
130123,244,201,725,-330,26,277,135,450,105,-132,145,193,181,-202,164,194,14,-206,-50,207,35,192,200,-15,18,52,116,285,63,-89,1,209
130124,249,262,701,-318,26,316,132,513,133,-97,134,237,207,-183,181,242,31,-167,-25,239,39,216,197,27,30,65,160,342,71,-95,-5,263
130125,248,371,691,-367,23,249,102,507,144,-109,109,272,225,-189,169,95,63,-110,-10,242,20,208,371,53,36,48,154,196,67,-119,-58,190
130126,192,453,632,-345,17,200,88,486,144,-140,86,249,219,-193,159,-172,19,-102,-18,244,47,193,344,59,43,58,184,163,49,-107,-49,198
130127,121,440,559,-336,19,205,96,532,138,-158,44,279,202,-168,154,-199,-10,-190,-34,207,40,169,140,10,37,63,192,284,22,-115,-55,217
130128,-60,394,444,-352,3,198,88,548,115,-155,41,256,202,-182,148,-46,-66,-217,-42,169,57,119,24,3,31,48,197,234,20,-136,-80,270
130129,-70,339,443,-344,2,240,-2,536,127,-154,-27,114,219,-214,113,25,-59,-180,-39,164,22,89,69,-9,26,11,203,220,72,-100,-21,388
130130,98,319,499,-326,15,295,5,517,130,-151,26,98,222,-195,122,-33,-38,-193,-48,194,-23,79,163,-17,22,12,109,299,60,-80,-15,353
130131,170,306,484,-290,4,260,-18,527,139,-154,31,210,236,-183,124,-73,-48,-140,-32,166,-29,97,233,20,24,-7,-14,300,74,-109,-90,43
130132,202,307,425,-298,6,241,-19,514,143,-123,58,272,250,-174,129,-27,-17,-123,0,190,-30,123,223,67,46,10,-23,329,106,-74,-74,-34
130133,191,356,450,-284,-4,195,18,472,118,-129,95,287,232,-187,139,72,-38,-165,-4,230,-25,105,98,53,72,27,24,315,94,-76,-69,-34
130134,169,314,545,-346,-24,278,-11,439,122,-107,124,271,239,-165,179,169,-75,-153,4,260,1,49,83,58,75,12,9,204,88,-118,-94,16
130135,181,288,600,-418,-22,321,42,417,112,-78,126,243,242,-156,178,209,-220,-152,4,233,2,12,101,67,84,11,-35,167,114,-53,-9,308
130136,157,315,600,-420,-6,303,35,402,108,-77,83,222,219,-156,187,198,-249,-161,8,247,14,14,75,72,124,64,21,318,119,36,128,397
130137,173,349,592,-368,9,268,7,411,136,-87,89,212,248,-138,194,161,-108,-167,40,281,5,25,85,100,134,62,18,299,111,-3,45,355
130138,201,363,634,-346,14,235,15,415,131,-90,75,73,246,-163,159,156,20,-191,35,271,-47,11,108,69,90,-6,-75,356,58,-169,-224,35
130139,180,336,665,-395,-14,187,0,359,95,-124,19,-125,212,-189,140,113,-25,-213,5,237,-88,21,93,35,64,-39,-129,318,31,-208,-272,-109
130140,111,368,599,-349,-10,186,24,472,113,-121,61,390,294,-187,161,89,-3,-40,40,266,-78,8,297,78,88,-40,-147,225,12,-242,-277,-111
130141,57,357,555,-334,2,215,34,483,120,-114,19,212,268,-169,163,108,-58,-115,46,288,-32,18,174,79,118,20,-84,193,54,-142,-162,62
130142,41,321,495,-321,-12,212,21,452,118,-117,3,186,252,-142,169,57,-66,-141,30,259,-20,-8,145,87,134,35,-77,119,71,-110,-102,119
130143,112,307,454,-339,-11,212,-1,432,117,-130,-3,190,222,-155,145,-232,-64,-146,22,227,-25,-51,169,65,125,33,-105,202,21,-148,-112,26
130144,138,137,525,-428,3,301,-30,433,109,-105,0,146,214,-122,152,-333,-114,-178,21,279,-28,-37,155,46,115,51,-95,134,-18,-198,-161,-226
130145,77,160,584,-416,-23,293,-25,437,101,-123,28,123,216,-134,153,-217,-77,-173,-3,260,-50,8,199,37,111,50,-86,179,16,-187,-140,-6
130146,138,368,575,-416,-13,245,-12,423,106,-124,37,52,231,-145,148,-116,-79,-178,9,252,-72,26,94,20,119,39,-79,368,42,-134,-88,278
130147,107,431,542,-416,21,262,0,418,121,-96,25,105,224,-141,157,-34,-93,-194,39,234,-44,7,17,52,116,44,-73,398,77,-167,-115,276
130148,21,467,548,-322,13,234,1,499,130,-122,8,254,242,-145,135,-79,-82,-196,30,234,-55,-51,63,35,107,20,-79,341,35,-210,-196,69
130149,37,411,509,-318,3,102,-2,550,96,-158,-45,299,231,-180,72,-138,-77,-195,12,208,-118,-37,141,0,88,-22,-125,239,-24,-269,-238,-90
130150,85,379,416,-351,10,180,-9,537,96,-131,7,211,211,-177,102,-21,-139,-237,2,203,-103,-50,41,-5,81,7,-92,120,-67,-203,-109,142
130151,175,338,334,-362,7,239,-6,484,98,-94,37,77,210,-150,144,153,-153,-281,2,238,-35,-41,-59,-21,95,66,12,154,3,-90,7,366
130152,159,271,364,-379,-30,222,-11,432,78,-130,-5,56,194,-183,125,139,-162,-272,-7,210,-44,-55,55,-30,96,49,28,210,27,-109,21,438
130153,182,341,452,-447,-20,250,23,402,84,-129,60,136,195,-173,140,141,-120,-238,4,215,-45,-56,148,0,88,19,1,214,-6,-211,-132,158
130154,288,467,553,-411,12,274,76,422,85,-102,97,185,221,-152,157,38,-63,-181,24,222,-48,-7,122,12,79,7,-12,135,-18,-272,-205,-200
130155,256,440,519,-361,5,243,56,402,98,-104,94,123,206,-161,155,-60,-80,-218,21,214,-65,45,24,7,83,15,-22,132,-19,-225,-166,-115
130156,193,392,517,-413,-11,227,50,356,88,-111,103,167,210,-166,143,-94,-102,-183,13,245,-72,-29,57,25,90,16,-39,213,2,-168,-98,43
130157,173,307,520,-461,-19,230,8,373,100,-102,60,218,255,-146,139,0,-88,-121,22,265,-85,-44,195,68,105,28,-77,223,43,-141,-88,61
130158,170,257,514,-436,-24,284,-20,398,111,-109,54,163,227,-157,153,28,-68,-192,31,234,-46,-19,196,70,101,41,-38,251,60,-118,-90,90
130159,191,270,522,-441,-25,280,-41,349,102,-119,34,147,217,-170,146,-46,-104,-210,21,206,-47,-5,147,69,99,44,13,252,69,-104,-56,110
130160,207,303,552,-431,1,232,-68,363,112,-124,2,148,220,-160,101,-36,-95,-184,53,213,-94,36,154,111,116,50,-15,284,142,-56,-22,146
130161,169,338,583,-431,-2,168,-75,393,120,-153,13,165,215,-145,119,52,-73,-158,46,192,-67,82,233,85,123,56,0,453,177,-11,10,203
130162,107,305,561,-471,-15,163,-116,379,96,-146,25,202,222,-140,136,58,-82,-92,44,147,-60,45,449,108,117,39,-10,248,137,-56,-19,169
130163,143,338,508,-428,-21,135,-116,356,97,-161,8,114,204,-152,123,83,-97,-154,54,132,-43,8,284,133,115,25,-5,104,131,-75,-43,153
130164,156,347,458,-382,3,245,-44,367,130,-116,30,74,207,-117,155,106,-97,-219,67,160,-20,107,57,87,116,67,29,297,161,13,70,237
130165,128,363,490,-389,-19,217,8,373,118,-116,35,-39,184,-139,151,44,-85,-250,18,150,-63,111,81,15,71,29,-4,267,115,-22,14,197
130166,116,330,493,-381,-36,211,-69,300,65,-138,15,-235,146,-172,83,-70,-119,-288,-19,121,-118,45,119,-2,47,-17,-33,136,71,-95,-67,164
130167,110,348,506,-374,3,253,-57,402,135,-130,12,288,210,-156,90,-101,-75,-137,12,114,-106,1,257,66,48,-3,-25,127,95,-100,-93,178
130168,67,332,497,-387,7,258,-14,423,129,-105,28,165,190,-149,110,5,-62,-157,-16,113,-85,2,255,26,43,-3,11,323,80,-81,-32,228
130169,-24,221,492,-399,-20,236,-56,383,101,-128,37,177,161,-171,64,-12,-77,-124,-32,129,-82,-69,387,18,20,-30,-14,196,61,-106,-50,152
130170,-40,181,363,-389,-7,232,-51,408,98,-132,23,69,171,-159,98,-101,-119,-183,-13,129,-66,-84,290,21,22,-18,3,142,74,-95,-53,49
130171,1,207,243,-394,-13,244,-5,425,109,-131,3,-85,151,-157,115,-160,-158,-274,-44,106,-63,-78,44,-7,19,-34,-54,240,75,-93,-73,83
130172,-44,119,152,-396,-19,297,-35,365,108,-148,36,-58,141,-171,118,-142,-133,-295,-59,105,-68,-114,-18,-31,1,-51,-107,232,38,-119,-83,119
130173,-39,185,186,-381,-14,329,-39,359,123,-143,48,97,158,-142,118,-69,-57,-240,-32,96,-60,-68,155,30,18,-13,-36,148,36,-122,-67,197
130174,4,320,285,-404,-1,325,-1,422,102,-113,63,147,144,-158,137,12,-52,-264,-33,80,-10,2,78,-15,22,26,39,231,65,-52,9,435
130175,40,324,312,-425,-17,199,67,352,111,-100,68,57,137,-163,145,-19,-133,-248,-28,103,-40,35,49,-19,41,52,81,250,89,-15,89,619
130176,165,360,445,-418,-3,36,97,357,115,-122,57,16,138,-166,133,6,-151,-247,-41,87,-62,27,70,-3,40,28,13,272,103,-52,7,317
130177,213,376,540,-384,19,169,80,367,126,-101,111,77,154,-164,166,97,-138,-243,-11,77,-44,1,78,4,40,21,-43,260,96,-90,-141,-269
130178,215,370,530,-386,11,192,73,327,110,-96,48,186,162,-172,178,-83,-125,-217,-3,107,-8,-18,89,17,76,47,-3,227,107,-51,-64,-128
130179,197,308,491,-410,6,226,-25,325,84,-137,27,164,159,-196,123,-219,-137,-180,-18,99,-73,-55,106,26,40,3,-93,87,77,-114,-95,13
130180,203,289,517,-385,14,280,-53,396,123,-107,62,83,170,-181,143,-182,-98,-222,-23,127,-85,-32,108,20,49,-3,-105,133,51,-173,-177,-39
130181,150,273,444,-414,9,264,-87,373,106,-97,102,94,150,-165,180,-48,-139,-272,-31,105,-10,-63,85,-12,64,44,23,327,73,-65,-12,136
130182,51,235,417,-466,-22,224,-109,371,55,-143,21,85,145,-210,116,-47,-207,-254,-38,36,-32,-169,134,-16,48,30,4,108,69,-60,-12,167
130183,111,241,455,-445,1,264,-78,375,83,-105,48,94,177,-182,155,86,-213,-228,3,83,-3,-144,163,22,69,61,12,82,86,-75,-29,166
130184,173,245,510,-448,14,270,-53,394,92,-81,87,142,164,-160,159,75,-265,-230,-4,106,-28,-130,65,-16,39,-3,-44,262,10,-203,-191,66
130185,109,263,531,-451,0,245,-74,431,90,-98,60,186,178,-177,130,-21,-327,-185,-3,95,-84,-179,142,-36,19,-48,-159,106,-72,-310,-320,-87
130186,63,329,517,-457,-9,165,-78,408,111,-128,39,170,203,-166,118,-43,-222,-190,15,124,-86,-174,156,16,37,-48,-202,107,-5,-257,-274,-359
130187,115,323,483,-445,8,279,-69,409,126,-89,45,131,231,-144,148,-34,-98,-182,44,139,-67,-151,217,54,63,-32,-154,148,5,-221,-236,-209
130188,130,319,465,-380,4,262,-101,471,152,-117,11,179,264,-140,137,-168,-75,-138,54,139,-110,-174,292,66,82,-32,-168,43,-27,-266,-266,-143
130189,77,291,465,-364,-19,219,-147,426,153,-151,13,195,257,-147,124,-288,-143,-164,68,166,-128,-224,184,87,98,-29,-193,4,-15,-295,-267,-136
130190,-22,245,428,-406,-24,219,-144,458,143,-127,-3,183,254,-127,132,-144,-140,-160,96,195,-101,-213,201,96,110,7,-191,-32,8,-298,-235,-121
130191,-57,172,345,-391,-38,231,-138,468,112,-128,0,146,248,-142,126,-86,-183,-187,73,169,-117,-245,56,61,103,12,-166,82,-3,-285,-230,-146
130192,-15,194,266,-401,-21,213,-103,376,114,-136,9,53,219,-141,130,37,-193,-218,74,173,-83,-172,-83,40,99,38,-85,201,-16,-253,-176,-212
130193,60,284,344,-406,3,244,-71,367,126,-123,17,131,262,-130,145,98,-148,-125,122,187,-53,-140,96,101,126,57,-65,84,17,-217,-114,-119
130194,167,309,408,-405,18,252,-89,480,155,-123,24,233,333,-120,136,58,-82,-48,130,188,-59,-116,254,162,162,54,-76,82,49,-170,-114,101
130195,188,318,412,-423,4,286,-113,482,144,-114,43,98,306,-123,147,50,-100,-118,136,223,-47,-61,116,121,175,69,-57,238,97,-133,-87,146
130196,122,297,458,-344,-12,278,-108,435,144,-110,73,-67,285,-136,160,-1,-99,-163,131,186,-31,-65,85,83,164,81,-62,309,89,-152,-114,50
130197,11,160,391,-357,6,250,-63,533,154,-103,74,359,370,-126,177,-109,-63,-20,151,178,4,-56,307,166,178,88,-47,112,89,-159,-89,34
130198,-25,258,434,-370,33,307,64,504,169,-91,84,189,334,-121,176,-175,-90,-30,166,209,16,-15,350,178,182,118,-33,85,92,-122,-65,115
130199,-31,351,396,-378,-7,317,96,450,134,-114,54,113,298,-165,132,-186,-138,-66,113,223,-93,39,239,137,123,75,-42,177,84,-105,0,252
130200,46,305,456,-377,30,286,74,451,164,-98,92,158,313,-135,173,-84,-92,-69,153,329,-59,96,264,173,205,139,82,253,192,52,205,597
130201,177,307,503,-442,5,220,69,397,156,-90,69,142,308,-137,197,9,-74,-99,162,310,31,17,187,171,212,197,183,418,253,140,304,780
130202,228,351,439,-399,-3,131,73,387,144,-83,98,138,270,-153,195,29,-46,-111,135,279,28,6,146,133,174,142,96,372,161,-26,82,352
130203,268,408,433,-400,1,93,77,436,132,-114,129,247,277,-146,181,5,14,-101,129,248,-9,40,160,131,125,61,-41,331,97,-174,-188,-286
130204,202,354,442,-387,1,202,80,442,132,-121,97,321,307,-120,195,10,39,-34,145,268,38,41,226,154,170,121,42,366,117,-151,-98,-168
130205,131,316,391,-386,-12,185,27,452,154,-132,59,198,322,-102,175,-101,2,-8,155,257,45,27,384,186,190,128,82,349,163,-72,-3,31
130206,159,278,385,-381,-6,218,31,483,154,-135,49,158,315,-95,155,-45,25,-59,139,260,4,22,431,171,177,94,14,373,178,-34,-9,154
130207,173,220,422,-420,-12,283,19,416,149,-135,89,191,283,-101,172,68,19,-144,115,244,-25,52,308,129,150,104,26,402,163,-37,2,171
130208,170,262,448,-464,-25,279,-14,361,142,-128,66,150,247,-115,174,143,3,-169,100,211,11,17,213,112,130,116,114,391,162,-42,-8,151
130209,163,264,472,-459,-24,258,-33,366,146,-123,63,144,264,-122,176,219,-21,-124,99,245,58,-30,265,126,140,131,166,378,179,-19,28,187
130210,150,229,459,-454,-29,236,-76,338,121,-135,67,176,276,-127,171,73,-7,-106,97,269,19,-8,335,170,156,130,153,328,247,15,55,194
130211,138,263,442,-417,-3,221,-70,372,140,-125,98,189,298,-104,182,95,15,-83,124,317,25,49,289,175,174,121,138,477,231,15,27,205
130212,5,242,446,-421,-30,144,-67,406,153,-122,64,179,294,-137,178,114,23,-88,126,297,32,69,310,143,163,112,96,622,247,-2,10,244
130213,-37,209,450,-396,-16,186,-33,381,151,-104,62,193,283,-127,199,129,46,-60,136,324,51,88,361,153,164,126,86,567,240,0,35,295
130214,72,205,436,-377,0,266,1,395,138,-92,103,203,291,-125,223,59,22,-71,114,332,94,141,301,134,170,154,137,424,184,-7,81,361
130215,141,247,418,-349,0,281,20,413,154,-64,119,236,296,-127,234,-73,15,-72,122,332,87,176,304,143,186,194,193,210,161,21,144,432
130216,160,301,437,-355,-8,224,43,452,139,-70,124,268,321,-118,238,-88,51,37,151,336,103,171,529,183,208,201,230,116,169,15,193,510
130217,98,329,436,-320,-12,189,55,489,133,-73,142,296,360,-119,226,60,83,71,163,331,135,112,631,204,221,222,252,179,211,47,231,630
130218,80,297,409,-270,-10,289,-7,478,160,-62,123,225,334,-116,227,96,40,1,167,329,106,91,417,180,197,205,239,264,200,16,164,603
130219,64,251,406,-272,-25,277,-80,477,130,-79,102,161,309,-165,186,129,-56,-61,109,273,58,46,250,155,150,130,142,58,139,-105,10,252
130220,12,198,435,-340,-23,319,-148,455,121,-66,103,155,284,-165,194,121,-66,-95,88,254,44,34,183,94,133,96,69,234,94,-152,-52,44
130221,-68,95,383,-376,-21,321,-251,427,148,-44,95,222,276,-143,223,31,10,-96,92,285,53,29,194,59,152,105,80,470,111,-123,-63,-41
130222,-116,12,385,-396,-43,241,-279,398,124,-72,27,6,276,-138,204,-45,7,-104,120,314,71,51,250,94,184,144,142,379,177,-33,51,87
130223,-34,112,391,-374,-41,209,-174,441,132,-99,32,158,307,-130,210,-33,53,-55,151,335,70,114,285,137,219,192,201,408,245,82,200,329
130224,161,298,412,-297,7,227,13,561,165,-96,88,349,352,-135,203,64,33,-28,156,276,35,101,304,153,191,145,147,318,169,-3,86,205
130225,356,369,507,-293,40,277,198,489,147,-88,175,153,299,-170,202,151,-69,-126,81,228,36,90,183,60,121,72,89,311,68,-134,-96,87
130226,302,330,487,-336,56,241,220,447,149,-105,184,204,294,-179,173,164,-224,-100,72,217,2,6,143,39,93,42,36,187,7,-206,-153,0
130227,201,449,432,-330,54,194,147,418,154,-65,124,99,302,-153,169,62,-267,-79,93,240,10,-3,106,76,126,60,81,36,30,-134,-84,19
130228,223,475,373,-357,33,277,71,375,133,-78,84,47,274,-161,162,-119,-201,-106,110,253,10,-48,101,58,128,71,97,55,35,-137,-60,95
130229,258,460,366,-346,23,298,21,354,99,-96,41,46,238,-168,151,-128,-170,-237,95,261,-9,-95,74,37,109,62,26,91,0,-175,-93,192
130230,270,405,370,-350,28,244,-26,370,106,-99,3,111,221,-153,137,-199,-235,-325,91,277,-21,-107,-12,26,136,49,-21,93,5,-174,-67,269
130231,226,374,374,-373,35,176,-75,406,129,-95,-34,114,254,-140,132,-280,-241,-245,112,283,-47,-157,19,29,119,15,-124,86,-30,-256,-216,-67
130232,201,308,384,-399,-14,176,-88,419,92,-105,-47,55,254,-170,99,-214,-255,-264,83,245,-134,-194,4,26,84,-45,-184,-3,-88,-300,-304,-406
130233,238,313,379,-438,9,257,-65,366,118,-95,-11,7,255,-158,114,-72,-295,-254,85,263,-116,-228,-5,20,86,-31,-166,-51,-75,-284,-240,-197
130234,288,435,412,-451,28,253,-64,355,117,-90,-16,51,277,-144,121,30,-293,-221,104,276,-88,-228,24,34,102,-9,-190,-46,-81,-279,-236,-130
130235,255,497,378,-338,23,223,-52,403,124,-101,-8,37,301,-153,129,-88,-282,-210,120,245,-94,-259,31,46,124,-11,-178,-19,-66,-248,-226,-176
130236,262,506,294,-351,21,224,-51,408,133,-102,-13,37,299,-149,142,-213,-310,-196,124,222,-95,-280,37,70,138,2,-145,0,-24,-229,-184,-101
130237,234,394,184,-388,19,256,-79,377,130,-99,-23,32,305,-131,147,-147,-324,-184,126,239,-85,-272,31,78,132,18,-127,-3,-9,-203,-133,29
130238,217,374,206,-375,8,241,-96,369,131,-101,-30,17,311,-144,148,-54,-293,-168,137,252,-99,-235,44,103,160,49,-105,20,9,-164,-91,158
130239,234,402,282,-365,-2,236,-59,337,122,-106,-28,-2,291,-142,119,-66,-284,-179,121,238,-141,-225,45,91,144,22,-150,36,-1,-207,-186,-21
130240,259,379,347,-407,2,270,-55,341,124,-90,-16,6,291,-132,126,-56,-274,-170,117,250,-137,-242,101,90,118,-8,-198,51,0,-231,-266,-372
130241,190,360,355,-383,6,289,-50,381,127,-93,-6,30,310,-122,138,-46,-270,-143,124,289,-91,-227,243,120,135,17,-178,46,27,-206,-206,-290
130242,205,386,335,-428,5,315,-8,366,137,-95,-22,70,302,-130,147,-23,-230,-138,140,303,-80,-186,239,151,149,50,-122,4,66,-175,-164,-126
130243,276,415,335,-356,13,304,19,328,117,-70,38,50,304,-116,176,-58,-220,-122,138,286,-68,-162,235,152,152,60,-85,-37,115,-143,-136,-108
130244,300,420,361,-287,5,307,-5,378,120,-55,49,57,319,-122,190,-121,-155,-92,136,321,-20,-142,319,126,153,56,4,206,111,-116,-75,-17
130245,297,425,323,-336,4,250,-38,407,124,-80,52,87,311,-120,190,-163,-179,-91,121,313,7,-139,319,120,144,91,25,229,128,-91,-45,13
130246,259,366,287,-360,-13,267,-21,377,108,-72,65,81,293,-131,191,-115,-185,-130,129,340,13,-108,222,119,148,95,-14,232,130,-113,-83,-40
130247,218,353,232,-335,-11,279,12,360,123,-56,49,46,300,-124,195,-57,-171,-143,119,365,-38,-80,207,118,152,69,-91,301,138,-117,-112,-57
130248,240,373,240,-370,-22,323,1,359,111,-63,61,-25,300,-126,166,0,-191,-109,115,364,-35,-106,349,136,132,82,-88,189,120,-122,-74,-78
130249,194,329,281,-399,-31,302,-4,318,114,-74,55,-207,255,-147,159,86,-233,-156,92,286,-30,-146,354,86,94,62,-64,181,70,-180,-114,-115
130250,164,309,279,-358,-21,285,-55,401,134,-82,69,333,330,-137,120,32,-178,28,137,230,-80,-165,617,123,93,0,-128,102,62,-217,-199,0
130251,185,357,308,-376,-18,235,-51,388,134,-95,60,95,290,-149,131,16,-223,-93,97,185,-77,-114,311,86,80,10,-118,187,57,-203,-162,57
130252,137,330,320,-422,-42,245,-50,339,110,-96,43,-58,227,-162,126,-20,-235,-274,50,180,-78,-113,18,27,60,13,-76,279,95,-192,-151,33
130253,129,381,325,-392,-28,267,-41,366,119,-78,80,16,255,-137,133,-68,-205,-198,82,223,-71,-104,63,45,79,29,-54,262,98,-169,-121,60
130254,170,329,309,-398,-27,224,-25,343,132,-79,62,-68,256,-136,139,-132,-181,-161,82,238,-50,-68,132,62,79,57,-25,240,68,-147,-71,129
130255,135,111,244,-370,-45,201,-39,343,125,-94,40,-140,238,-156,158,-169,-250,-150,63,252,-33,-74,148,85,73,54,-4,2,44,-170,-37,251
130256,57,123,207,-336,-15,272,-29,290,143,-82,108,-64,226,-133,186,-52,-248,-151,69,272,10,-54,79,46,88,58,21,34,51,-195,-63,234
130257,26,261,164,-337,-15,351,-48,368,155,-81,124,11,238,-154,168,-40,-217,-219,53,277,-14,-54,50,0,64,49,1,185,-10,-223,-164,-4
130258,96,287,114,-379,-27,342,10,426,123,-68,112,56,228,-156,184,13,-219,-278,39,305,12,-11,42,-17,52,81,63,299,0,-185,-81,30
130259,135,367,157,-404,-24,254,8,435,137,-75,120,82,213,-151,204,70,-157,-252,63,317,58,23,95,11,75,125,163,260,19,-160,7,21
130260,45,401,234,-403,-6,318,-12,387,148,-98,83,105,224,-144,217,105,-164,-218,80,306,71,30,131,31,91,144,144,280,66,-133,33,150
130261,23,387,239,-423,-3,337,-7,330,147,-101,88,107,218,-160,226,3,-246,-198,56,306,88,41,144,27,89,128,111,245,71,-100,41,351
130262,93,289,296,-378,0,312,-79,386,147,-90,93,144,237,-169,217,-154,-371,-179,57,297,105,7,149,28,70,112,68,101,26,-145,-12,242
130263,153,218,324,-334,-14,275,-87,386,125,-100,88,124,225,-180,216,-114,-265,-167,36,316,90,32,195,45,48,118,44,77,29,-148,-24,154
