,Fp1,Fp2,F7,F3,Fz,F4,F8,FC5,FC1,FC2,FC6,T7,C3,Cz,C4,T8,TP9,CP5,CP1,CP2,CP6,TP10,P7,P3,Pz,P4,P8,PO9,O1,Oz,O2,PO10
62818,195,195,432,11,341,352,188,345,158,127,38,28,185,221,277,-295,-55,-249,-85,-110,-226,-562,50,55,258,-65,193,-205,57,-135,-239,-183
62819,167,200,403,9,351,357,179,354,172,139,49,30,181,227,293,-55,-40,-239,-63,-71,-209,-564,91,86,291,-36,191,-66,134,-53,-191,-177
62820,136,176,390,3,336,326,174,356,169,138,59,35,197,242,301,217,-20,-221,-52,-60,-165,-560,117,117,308,-18,251,13,217,-24,-149,-174
62821,133,166,377,-9,338,314,196,339,165,142,60,31,187,253,319,311,-75,-225,-52,-59,-182,-558,104,102,301,-26,259,-52,178,-40,-155,-140
62822,163,192,401,15,346,318,201,349,194,134,63,12,189,264,318,367,-107,-238,-70,-28,-180,-541,70,80,306,-14,296,-162,115,-78,-169,-168
62823,149,170,390,2,336,310,179,343,190,148,60,18,192,262,328,363,-133,-243,-43,-27,-170,-591,78,97,338,18,311,-85,148,-38,-137,-198
62824,122,154,377,-18,329,301,169,330,170,138,38,16,181,248,331,311,-165,-263,-40,-37,-176,-622,44,81,325,15,252,-103,120,-55,-143,-191
62825,102,158,399,-6,324,302,156,333,176,140,54,9,183,258,314,237,-176,-262,-52,-9,-145,-634,36,84,347,17,221,-93,161,-9,-109,-135
62826,121,147,405,8,326,307,157,335,175,154,41,4,173,269,321,183,-171,-274,-62,-17,-174,-602,34,90,373,16,258,-134,144,1,-103,-114
62827,170,147,414,-11,330,312,174,337,181,149,39,3,171,255,320,242,-115,-264,-47,-17,-153,-581,52,90,391,28,258,-110,162,13,-90,-114
62828,182,143,410,20,343,316,181,342,179,151,47,5,204,259,302,217,-93,-252,-38,0,-166,-636,74,103,393,28,239,-81,182,28,-76,-134
62829,198,197,436,38,367,337,212,360,196,149,62,13,213,275,320,206,-46,-227,-32,-12,-154,-635,117,116,395,32,267,-71,183,24,-62,-147
62830,181,171,421,35,344,304,178,343,192,126,35,13,183,257,298,173,-77,-246,-26,-41,-163,-672,112,96,370,16,269,-123,172,16,-90,-189
62831,181,166,431,63,351,311,176,356,197,131,49,34,202,266,291,168,-139,-239,-10,-39,-144,-794,128,120,391,23,257,-80,176,15,-78,-156
62832,182,173,446,73,355,324,178,366,197,132,74,22,217,256,285,203,-125,-225,-17,-61,-121,-780,119,120,396,33,255,-58,174,15,-86,-134
62833,165,156,405,89,343,308,174,368,197,124,49,-12,216,257,260,178,-137,-246,-28,-66,-164,-665,99,112,392,1,261,-94,143,-19,-117,-175
62834,172,147,422,77,340,293,181,388,222,103,27,9,209,255,258,91,-127,-253,-25,-68,-188,-638,94,91,363,-18,254,-116,108,-52,-153,-254
62835,184,150,424,64,336,274,147,373,207,89,13,-6,192,238,241,-148,-160,-271,-40,-84,-211,-693,54,73,351,-23,273,-123,80,-75,-153,-244
62836,156,145,411,54,341,268,113,347,189,96,-11,-6,180,247,244,-316,-149,-264,-39,-73,-214,-782,81,98,362,-16,243,-95,99,-61,-152,-230
62837,158,175,411,45,327,278,155,350,190,111,19,-30,188,234,270,-183,-212,-275,-37,-66,-146,-719,67,86,377,-2,275,-110,93,-70,-177,-308
62838,170,177,408,42,329,308,155,336,201,107,31,-40,189,240,282,40,-171,-283,-46,-52,-146,-698,49,87,379,2,238,-156,85,-93,-183,-337
62839,175,163,381,55,348,302,137,320,199,125,6,-34,194,238,281,33,-186,-271,-19,-31,-188,-697,85,126,408,20,147,-81,156,-37,-129,-247
62840,181,165,400,64,359,299,141,337,203,107,-6,-6,191,245,266,29,-139,-237,-13,-23,-220,-738,139,134,438,9,219,-38,176,-18,-115,-196
62841,203,199,424,79,356,316,164,391,230,122,15,0,214,259,274,-114,-112,-213,6,-25,-199,-736,171,139,438,40,254,-115,139,-38,-99,-235
62842,199,204,444,89,360,319,184,394,225,138,27,16,234,272,293,-194,-85,-200,20,-23,-194,-666,178,160,431,50,196,-71,138,-33,-82,-247
62843,202,211,420,73,346,312,185,391,216,129,13,28,215,268,284,157,-109,-192,24,-15,-185,-691,164,179,457,71,161,16,195,-4,-72,-159
62844,190,202,414,60,334,310,161,381,221,127,-12,37,244,293,292,346,-120,-175,49,3,-146,-700,184,197,472,78,191,-2,183,12,-54,-135
62845,176,186,430,47,318,296,161,382,230,131,0,10,229,296,306,263,-144,-159,49,15,-137,-798,162,197,485,80,225,-92,153,-4,-68,-186
62846,156,193,430,36,311,286,190,388,229,128,13,-15,224,280,309,150,-153,-172,52,11,-167,-810,153,172,487,79,241,-106,142,-14,-92,-184
62847,196,211,468,76,331,297,194,397,214,113,24,9,226,288,295,130,-145,-180,44,9,-192,-690,153,186,482,87,258,-76,156,-9,-65,-202
62848,217,207,462,88,332,322,201,405,222,126,36,78,237,285,323,135,-86,-148,36,26,-153,-590,221,228,501,125,278,20,226,40,-33,-188
62849,226,220,465,114,346,328,208,416,234,119,40,96,248,292,317,65,-30,-109,65,58,-126,-590,285,249,528,135,310,31,262,62,-31,-140
62850,214,209,480,118,340,313,163,419,231,106,4,83,236,286,302,73,-27,-106,57,42,-134,-610,276,241,516,122,287,-5,259,52,-51,-191
62851,213,219,494,91,343,296,158,426,229,117,16,113,233,265,293,182,9,-93,64,35,-167,-648,304,255,492,127,228,40,270,60,-32,-169
62852,200,211,485,86,335,282,172,421,228,116,34,140,241,260,286,263,55,-69,45,7,-203,-614,335,264,487,90,221,57,295,70,-40,-82
62853,194,194,483,96,346,296,146,415,233,111,11,141,256,255,275,267,26,-63,47,-19,-194,-620,361,264,485,75,249,67,306,75,-40,-87
62854,180,161,459,100,342,280,125,415,230,107,-12,116,258,249,255,194,42,-77,33,-19,-203,-721,339,267,470,56,231,109,292,63,-49,-139
62855,154,125,427,69,320,274,75,403,206,103,-42,95,230,249,227,101,-6,-113,14,-61,-254,-777,294,210,432,18,183,52,269,15,-97,-172
62856,125,95,398,47,305,249,37,368,193,106,-53,66,215,231,212,47,-44,-144,-14,-82,-273,-781,269,179,381,-26,146,32,235,-28,-130,-210
62857,114,109,384,39,289,264,48,350,206,103,-64,22,218,216,220,34,-83,-144,-28,-85,-289,-762,238,148,350,-61,143,-11,187,-71,-158,-221
62858,149,136,417,67,311,279,85,365,206,101,-44,27,224,213,214,32,-150,-163,-46,-97,-285,-757,184,112,333,-76,146,-99,113,-119,-192,-264
62859,151,118,439,74,335,282,79,368,202,104,-29,17,208,213,212,44,-169,-175,-44,-121,-284,-755,183,110,321,-92,133,-78,110,-127,-223,-290
62860,163,107,445,67,331,282,65,382,208,124,-22,46,218,213,234,76,-141,-143,-47,-97,-263,-717,192,128,321,-82,169,-39,137,-104,-215,-205
62861,151,98,420,55,327,267,31,377,192,99,-41,26,227,197,210,0,-149,-152,-67,-130,-279,-767,169,126,314,-108,188,-49,106,-132,-235,-259
62862,133,80,419,60,313,282,29,379,208,101,-46,33,235,204,209,-256,-127,-164,-57,-134,-282,-750,186,116,310,-112,185,-59,105,-128,-238,-282
62863,151,116,446,68,336,307,67,413,220,122,-3,72,231,218,241,-668,-162,-140,-41,-120,-259,-741,213,127,315,-89,163,6,159,-116,-224,-285
62864,135,125,445,53,341,294,68,403,220,123,30,66,243,219,271,-538,-122,-138,-42,-104,-228,-880,244,145,305,-74,167,88,182,-95,-198,-271
62865,143,137,445,65,352,304,107,417,241,145,47,87,263,217,294,86,-45,-111,-44,-84,-144,-834,294,176,338,-38,208,113,173,-91,-198,-271
62866,149,107,434,67,344,286,125,439,219,112,19,86,241,217,255,496,-25,-137,-40,-106,-167,-673,272,142,316,-45,155,-31,103,-138,-238,-286
62867,146,124,462,69,328,280,141,427,208,101,24,82,239,223,242,339,-14,-147,-36,-108,-206,-625,221,127,301,-43,158,-200,17,-183,-240,-242
62868,167,157,511,97,336,288,129,442,239,109,22,117,252,211,248,77,-14,-138,-31,-81,-212,-663,296,165,319,-20,205,-58,83,-149,-219,-261
62869,199,176,507,90,340,290,139,442,221,117,25,121,248,201,250,108,17,-117,-51,-77,-187,-650,344,180,338,-7,274,22,135,-114,-222,-311
62870,233,179,500,112,360,295,159,454,237,123,34,148,257,205,266,170,24,-113,-36,-85,-175,-619,289,177,333,7,270,-10,118,-128,-221,-243
62871,203,185,439,109,356,287,144,427,235,105,32,103,256,210,264,134,-27,-127,-36,-95,-186,-622,276,180,326,-3,166,85,163,-92,-203,-230
62872,187,184,477,123,373,295,150,443,250,116,29,111,252,216,266,250,1,-133,-38,-96,-209,-634,254,177,326,-35,68,29,114,-126,-254,-176
62873,209,199,530,140,364,293,184,474,261,112,35,111,257,225,253,348,26,-130,-24,-95,-213,-629,194,138,335,-53,92,-63,40,-186,-268,-166
62874,246,227,552,148,354,308,195,474,248,114,45,102,254,213,254,275,6,-117,-24,-97,-230,-671,189,131,343,-45,143,-130,31,-196,-262,-187
62875,247,217,562,134,382,314,204,481,244,131,63,113,249,209,273,222,61,-116,-18,-83,-208,-638,224,175,343,-33,169,-65,83,-143,-251,-188
62876,252,199,556,129,361,337,202,475,225,137,71,142,260,216,290,132,77,-121,-8,-50,-166,-626,253,198,373,-4,213,-5,129,-111,-223,-157
62877,212,180,525,91,350,308,178,448,198,117,51,149,236,200,293,79,-15,-129,-9,-46,-146,-612,246,205,394,23,280,3,162,-79,-210,-146
62878,194,163,533,86,356,305,172,455,205,117,49,146,252,211,302,145,10,-93,17,-28,-110,-580,260,221,422,49,292,23,204,-47,-204,-208
62879,246,174,546,101,363,330,214,475,219,139,87,171,274,223,313,216,27,-98,23,-3,-87,-573,260,225,436,69,296,17,217,-33,-158,-179
62880,225,184,513,97,336,329,219,458,217,128,91,152,267,232,307,301,23,-90,26,-9,-107,-571,267,233,426,61,278,53,235,-2,-116,-95
62881,214,149,503,82,330,337,203,440,215,139,100,134,272,234,332,303,-12,-101,24,7,-96,-553,278,250,449,85,286,61,256,15,-79,-77
62882,188,125,507,76,336,327,190,439,217,133,87,139,264,232,318,239,-8,-121,23,6,-97,-563,265,227,445,72,294,60,270,29,-69,-79
62883,163,131,518,70,306,296,166,446,216,119,74,121,253,233,301,213,-21,-129,20,-5,-116,-587,241,219,426,59,284,16,252,16,-76,-102
62884,153,125,509,79,307,277,161,437,205,125,63,122,261,262,301,133,38,-101,50,13,-121,-583,261,252,463,89,324,61,298,53,-24,-47
62885,178,116,512,76,313,283,182,440,201,134,72,123,272,271,325,10,-40,-121,41,33,-100,-533,249,250,491,123,375,50,302,62,-7,-20
62886,166,99,505,49,304,289,189,432,204,138,88,124,273,265,335,29,-79,-127,40,43,-77,-605,265,254,509,123,408,83,333,107,25,15
62887,160,95,475,36,299,276,162,422,199,122,65,110,242,254,325,149,-63,-147,43,8,-85,-720,255,228,491,107,411,81,314,117,41,27
62888,154,88,462,46,299,261,170,415,209,121,56,97,244,249,311,-6,-57,-172,37,8,-104,-647,239,237,474,88,392,54,263,98,44,-3
62889,151,90,466,52,299,243,151,421,214,116,32,74,230,238,298,-158,-29,-147,38,-13,-138,-525,267,243,487,65,325,63,282,77,31,-52
62890,166,98,471,70,318,254,157,427,219,151,36,103,253,259,317,148,14,-124,33,14,-96,-529,311,259,506,96,370,92,316,94,33,-20
62891,161,103,471,66,309,266,182,423,214,139,56,121,263,257,332,284,-1,-109,41,31,-43,-621,330,274,510,119,455,169,357,106,49,-73
62892,177,97,490,82,323,257,169,456,203,131,58,136,255,259,326,73,0,-78,59,28,-62,-683,356,293,523,131,459,243,379,131,51,-114
62893,164,111,475,62,290,249,166,442,185,116,48,110,250,242,327,160,-16,-91,48,9,-87,-683,329,276,510,111,306,133,337,89,16,-173
62894,183,127,497,65,311,276,170,433,200,129,60,102,247,276,343,328,-5,-84,58,23,-78,-671,342,284,513,111,175,46,302,70,18,-196
62895,219,128,513,98,328,278,149,456,208,134,34,120,257,268,321,296,26,-81,59,2,-146,-677,360,305,520,109,175,77,308,94,34,-109
62896,215,152,512,105,336,280,149,450,207,124,32,128,272,256,293,204,45,-83,57,9,-219,-722,307,294,523,86,196,85,308,90,28,-27
62897,212,154,517,100,331,292,147,436,210,129,18,137,271,254,300,164,56,-88,69,43,-212,-748,317,286,531,104,291,137,332,103,48,-4
62898,210,157,479,89,325,266,119,429,215,143,9,117,261,264,304,142,32,-85,60,50,-183,-676,278,284,539,129,313,114,295,79,31,-41
62899,193,156,469,64,344,264,112,425,203,143,33,120,258,282,340,143,15,-67,69,58,-124,-641,288,296,555,138,329,177,314,99,37,-68
62900,178,174,469,96,350,273,121,429,200,144,23,133,263,309,341,137,7,-61,98,78,-121,-667,331,309,591,144,274,222,355,117,63,-11
62901,189,179,469,73,347,308,134,441,196,157,43,145,264,315,340,89,27,-50,111,96,-146,-671,333,323,608,152,267,236,329,119,64,-38
62902,186,181,460,56,344,317,142,430,190,160,51,105,251,308,364,64,71,-60,115,80,-141,-645,306,303,580,169,303,158,257,87,21,-32
62903,161,165,433,55,344,302,135,404,174,161,36,72,237,296,340,35,84,-65,93,73,-157,-649,286,265,565,160,299,118,254,57,-1,-40
62904,165,170,425,49,355,317,158,398,174,162,78,68,238,278,356,-31,67,-92,81,70,-123,-633,282,252,556,161,315,134,278,78,4,-56
62905,149,160,436,53,357,321,135,390,178,157,74,86,242,269,350,-88,28,-104,64,57,-128,-690,280,246,564,152,330,148,289,73,16,-91
62906,142,163,437,57,346,312,131,394,169,149,67,63,216,253,336,107,42,-107,51,49,-147,-722,273,227,533,122,299,143,266,46,-26,-125
62907,184,184,431,49,360,309,168,371,174,161,73,56,191,258,341,232,-20,-141,27,34,-156,-639,214,201,508,97,267,-65,147,-12,-61,-78
62908,173,170,439,61,362,316,160,388,194,167,60,42,207,267,350,151,-33,-121,36,32,-144,-647,221,201,518,81,251,-45,148,-20,-70,-74
62909,194,178,431,76,346,323,159,381,187,149,70,26,202,247,351,-7,-15,-130,26,27,-143,-588,221,192,516,76,225,-73,126,-69,-109,-81
62910,212,184,458,83,348,329,176,405,184,141,83,65,224,239,334,-186,29,-93,31,26,-147,-552,252,225,496,56,273,21,185,-17,-92,-62
62911,182,144,443,59,337,301,173,403,182,126,63,73,212,239,338,-117,-28,-118,15,18,-134,-620,256,195,475,49,294,59,189,-21,-97,-105
62912,205,167,458,56,333,311,166,409,188,130,66,99,223,253,331,40,-46,-150,10,-2,-116,-615,231,190,464,59,353,-14,139,-50,-109,-112
62913,189,135,427,53,346,283,160,420,191,131,46,105,249,255,314,-183,-38,-126,11,0,-157,-600,239,198,462,61,361,17,161,-50,-117,-198
62914,162,126,437,57,313,254,140,398,200,95,21,82,228,233,284,-294,-139,-124,9,-19,-236,-658,256,204,456,7,228,76,186,-54,-135,-194
62915,195,139,464,82,339,273,154,409,199,120,29,101,234,239,282,-5,-177,-120,14,-24,-226,-786,234,196,438,-1,157,-35,153,-80,-157,-152
62916,166,112,452,50,336,244,126,424,191,132,3,96,239,235,261,235,-83,-129,9,-52,-227,-823,242,182,415,-26,186,-104,118,-86,-183,-177
62917,167,127,437,59,351,238,113,414,194,137,-6,74,237,242,268,303,-78,-141,12,-62,-217,-695,248,167,405,-45,151,-124,107,-119,-194,-218
62918,176,113,432,57,333,234,99,405,205,129,-19,71,244,273,263,233,-38,-141,6,-36,-205,-665,227,180,397,-27,101,-86,128,-115,-198,-220
62919,155,91,411,41,324,222,102,387,202,141,-34,69,249,267,258,180,-29,-155,34,-30,-202,-750,229,209,401,-13,72,-47,160,-75,-171,-276
62920,131,37,337,24,320,176,76,362,190,117,-71,35,244,239,238,209,-49,-171,12,-46,-222,-713,233,191,373,-35,49,-89,141,-108,-213,-301
62921,120,62,357,26,317,173,65,371,201,105,-71,39,247,265,229,197,-46,-160,5,-64,-249,-663,270,192,392,-28,78,-108,123,-119,-203,-209
62922,121,68,351,7,315,152,37,369,170,104,-109,40,229,249,225,141,-64,-148,-1,-54,-271,-677,277,201,403,-36,127,-86,148,-102,-179,-229
62923,116,65,355,13,300,159,41,373,179,99,-113,67,237,252,228,88,-43,-133,19,-25,-261,-687,257,236,389,-21,182,-22,173,-80,-193,-226
62924,86,58,375,3,301,148,45,377,189,113,-123,66,235,263,229,46,-82,-144,25,-39,-271,-704,256,238,394,-23,195,-58,158,-88,-201,-249
62925,82,49,361,-17,313,160,49,359,192,117,-79,50,253,257,230,78,-92,-154,32,-53,-260,-663,247,235,388,-21,181,-34,164,-97,-206,-253
62926,79,43,360,-2,315,158,26,364,191,111,-80,75,236,247,239,64,-75,-131,27,-41,-244,-668,273,236,376,-22,103,55,235,-72,-203,-247
62927,57,15,336,-15,297,147,17,344,179,97,-98,36,212,232,230,66,-108,-162,-3,-48,-253,-715,245,218,365,-30,93,11,217,-87,-224,-295
62928,87,46,357,0,322,135,45,367,198,102,-71,55,239,256,253,59,-38,-127,25,-3,-209,-731,267,236,390,1,159,55,221,-71,-187,-239
62929,97,64,369,24,335,152,79,387,214,108,-59,97,267,284,283,-9,-33,-107,34,7,-169,-700,276,227,397,8,232,9,160,-102,-207,-199
62930,67,9,311,-12,324,139,45,344,182,100,-48,55,239,270,278,-132,-106,-169,1,-14,-145,-787,209,173,373,13,285,-52,107,-115,-240,-185
62931,42,4,290,-35,304,141,30,348,171,87,-33,28,198,268,296,-189,-150,-211,-16,0,-115,-771,170,138,346,17,308,-125,65,-139,-238,-250
62932,49,15,300,-24,303,148,68,325,173,108,-9,20,184,275,339,-194,-119,-213,-14,7,-64,-622,167,154,352,25,290,-95,96,-118,-207,-233
62933,25,12,289,-43,285,160,48,294,196,108,-3,-20,179,261,337,-64,-200,-234,-22,8,-68,-650,151,134,367,67,206,-74,86,-84,-208,-182
62934,21,15,279,-48,271,153,42,294,198,99,-13,-34,167,261,329,128,-183,-249,-44,2,-100,-693,97,132,356,61,191,-84,88,-99,-201,-199
62935,39,-8,275,-43,282,140,32,287,167,105,-42,-42,168,249,298,198,-151,-244,-36,-5,-138,-712,104,109,360,44,220,-75,89,-90,-176,-159
62936,28,-2,281,-50,273,139,23,305,181,111,-54,-26,172,247,299,168,-128,-256,-44,-13,-198,-694,139,97,361,49,234,-46,111,-83,-170,-130
62937,8,-5,254,-59,271,131,31,294,185,110,-45,-57,158,245,314,-24,-155,-266,-63,-9,-200,-662,81,84,341,53,288,-134,59,-92,-176,-187
62938,15,-7,251,-46,280,143,29,277,183,99,-30,-66,166,261,310,-81,-170,-281,-56,-10,-203,-672,30,80,372,56,270,-212,23,-99,-173,-178
62939,29,-9,288,-26,277,157,53,297,191,109,-33,-40,192,262,307,221,-180,-261,-22,12,-180,-671,74,98,391,54,240,-151,72,-59,-131,-122
62940,29,1,282,-30,275,157,77,318,185,140,-43,-15,194,272,317,287,-144,-241,-13,0,-162,-718,90,129,405,71,244,-159,88,-44,-121,-143
62941,29,28,294,-48,280,171,76,312,174,132,-26,-30,188,269,322,133,-153,-238,-12,18,-154,-731,105,143,429,104,243,-120,129,-34,-78,-154
62942,20,35,289,-46,265,176,88,300,174,141,-5,-36,200,284,326,44,-151,-257,-17,48,-124,-712,103,118,428,93,248,-134,112,-25,-75,-165
62943,9,12,268,-62,255,161,83,303,178,139,-7,-27,197,292,324,-6,-110,-238,-1,55,-103,-729,124,136,447,108,318,-94,113,-21,-72,-166
62944,11,25,284,-73,255,167,110,311,184,155,19,-1,194,303,361,-91,-117,-218,12,67,-93,-719,148,147,465,127,346,-92,124,-14,-69,-236
62945,-1,21,290,-81,245,170,104,310,169,159,7,-4,200,302,389,79,-141,-197,13,72,-95,-717,164,176,473,131,322,-109,132,-6,-56,-258
62946,-29,6,261,-111,244,141,60,295,157,131,-21,1,215,310,344,208,-114,-180,15,66,-109,-706,186,178,483,129,306,-57,158,6,-21,-105
62947,-48,2,254,-101,236,123,52,280,149,137,-45,-11,208,307,322,79,-150,-190,5,59,-129,-821,181,176,482,121,274,-47,159,2,-24,-106
62948,-35,-6,242,-85,250,135,70,292,170,163,-39,-41,188,304,341,58,-205,-161,25,78,-123,-906,220,197,506,143,238,-38,183,10,-43,-210
62949,-10,6,237,-91,246,138,59,300,176,169,-30,-35,210,312,339,77,-243,-129,42,89,-143,-756,238,205,518,146,215,0,214,27,-36,-154
62950,10,14,236,-91,259,159,42,288,172,140,-44,-18,207,289,330,46,-221,-162,14,55,-187,-634,169,163,498,103,185,-115,142,-44,-98,-176
62951,14,31,278,-60,262,170,62,295,167,145,-10,-3,204,291,339,-12,-177,-191,34,64,-158,-675,161,166,500,125,256,-155,130,-39,-75,-139
62952,24,34,304,-48,275,175,59,316,182,167,-1,23,237,305,358,-31,-230,-187,47,95,-112,-700,156,190,512,144,341,-62,178,12,-21,-103
62953,36,24,305,-55,287,186,30,319,188,172,-25,27,258,301,367,-113,-225,-180,27,87,-118,-683,125,190,513,135,302,-3,182,3,-35,-142
62954,5,7,281,-51,259,171,45,302,173,161,-26,-27,236,319,355,-191,-232,-200,22,75,-112,-710,118,182,498,97,211,-11,163,-32,-99,-155
62955,-6,16,287,-73,249,193,61,307,165,153,9,-28,240,310,368,-26,-193,-201,16,70,-88,-732,121,156,492,107,226,-94,116,-64,-120,-167
62956,-6,17,284,-88,257,185,64,294,181,169,7,-15,238,317,365,162,-184,-201,22,67,-151,-806,115,147,481,94,208,-159,72,-104,-129,-235
62957,-32,-4,255,-80,244,149,19,288,170,144,-41,-40,229,296,310,179,-235,-230,-1,27,-223,-816,66,138,453,58,159,-273,27,-145,-156,-196
62958,-24,-2,261,-71,245,176,45,319,171,150,-13,-32,221,304,314,202,-218,-223,0,38,-178,-765,91,142,446,70,222,-232,65,-119,-129,-198
62959,-23,-2,270,-68,251,187,66,317,185,154,-12,-11,222,318,313,156,-222,-216,0,37,-167,-788,103,142,432,55,223,-167,94,-98,-142,-295
62960,-18,-31,280,-68,248,171,40,320,180,147,-20,-6,228,323,315,-116,-236,-204,6,18,-175,-845,93,139,436,46,207,-135,89,-117,-191,-346
62961,-4,-29,295,-36,242,194,44,335,187,165,0,-24,240,330,351,-168,-246,-199,23,40,-172,-901,89,125,442,55,177,-169,47,-126,-193,-320
62962,-32,-12,299,-52,248,178,33,334,171,160,-6,-44,218,299,313,36,-232,-215,19,13,-192,-874,73,109,439,67,174,-154,25,-138,-163,-202
62963,-16,5,298,-36,248,189,46,353,184,143,-6,-16,230,322,315,-25,-177,-203,12,17,-202,-835,123,123,452,64,158,-145,30,-119,-151,-227
62964,8,25,295,-33,255,198,76,350,188,157,31,-9,247,315,345,132,-164,-199,22,19,-170,-807,106,123,456,65,120,-210,-12,-125,-174,-245
62965,16,53,352,-17,265,190,64,352,208,159,20,2,248,305,334,226,-147,-188,33,9,-193,-853,133,142,460,60,131,-199,17,-109,-154,-241
62966,19,53,367,-11,269,204,78,362,200,169,19,1,241,289,322,215,-173,-188,29,22,-210,-905,159,154,455,60,141,-143,80,-89,-131,-214
62967,56,66,354,5,271,219,115,387,191,173,46,26,270,312,333,197,-143,-171,59,26,-178,-847,184,179,470,84,154,-96,111,-63,-140,-236
