,Fp1,Fp2,F7,F3,Fz,F4,F8,FC5,FC1,FC2,FC6,T7,C3,Cz,C4,T8,TP9,CP5,CP1,CP2,CP6,TP10,P7,P3,Pz,P4,P8,PO9,O1,Oz,O2,PO10
202110,-84,265,320,-254,20,263,166,525,-69,-185,19,310,324,-53,233,19,26,-62,-207,-10,65,199,58,253,398,371,255,268,289,134,122,60
202111,-139,252,318,-290,5,274,183,503,-68,-180,85,284,354,-40,255,93,27,87,-186,-29,97,206,166,315,405,381,277,163,327,191,142,64
202112,-132,267,402,-251,26,298,222,535,-53,-174,46,234,367,-45,225,124,21,88,-173,-39,62,242,152,312,406,386,319,227,347,251,243,196
202113,-218,260,462,-229,60,328,260,581,-31,-166,32,267,354,-39,230,199,15,58,-158,-11,75,292,75,288,410,403,352,334,362,281,290,255
202114,-293,226,461,-240,54,344,284,557,-42,-156,108,264,331,-40,249,317,10,38,-159,-15,64,265,75,301,394,364,276,281,336,203,150,133
202115,-184,227,506,-248,56,369,320,530,-64,-141,126,259,360,-32,278,364,12,81,-186,-6,124,261,150,312,395,414,293,245,352,241,182,188
202116,-81,279,550,-247,55,385,360,557,-17,-140,178,261,359,-36,316,421,13,98,-168,54,197,326,191,311,420,468,330,237,395,309,337,348
202117,-55,293,488,-278,17,371,320,505,-47,-158,181,197,320,-53,313,391,-5,78,-183,44,176,363,157,270,400,403,308,187,338,293,340,310
202118,-21,300,526,-258,22,384,324,530,-66,-136,172,196,329,-55,322,323,50,73,-190,-10,143,386,133,257,378,397,278,244,289,193,161,254
202119,-40,351,544,-227,51,394,373,529,-53,-117,153,203,327,-64,329,312,51,66,-212,-31,198,412,70,243,338,351,283,271,263,104,70,194
202120,-29,354,536,-222,49,402,356,547,-61,-111,166,227,299,-47,320,379,25,56,-223,-5,208,442,33,232,337,395,313,219,254,167,181,352
202121,-57,283,511,-230,46,477,353,534,-61,-115,185,243,283,-81,319,359,-15,22,-274,-18,185,436,32,199,313,384,327,159,217,146,196,429
202122,-154,328,465,-179,66,424,378,588,-67,-107,177,307,301,-70,322,343,12,29,-275,0,196,429,79,191,331,380,363,165,225,113,178,509
202123,-99,400,473,-206,72,393,383,643,-29,-124,168,338,313,-88,313,412,18,20,-263,-2,185,403,178,178,294,360,348,151,207,50,113,384
202124,-71,407,460,-156,80,363,385,675,-1,-128,186,318,315,-79,306,411,21,53,-263,-34,159,366,255,177,244,318,263,14,171,-3,2,35
202125,-47,391,438,-165,96,321,336,599,-22,-123,132,227,297,-76,295,393,-39,34,-297,-34,180,334,78,186,254,290,255,-14,169,12,35,39
202126,10,351,474,-216,82,366,319,510,-37,-124,131,178,242,-82,300,379,-77,-45,-314,-35,152,360,-108,133,263,283,286,94,166,73,106,218
202127,-32,294,387,-238,63,349,295,437,-51,-151,99,132,243,-104,256,331,-135,-70,-310,-119,73,330,-158,71,199,259,240,87,121,32,68,211
202128,-9,274,375,-190,81,323,250,460,-40,-163,73,122,256,-106,219,285,-146,-34,-302,-122,51,296,-133,78,195,183,215,84,97,-84,-63,184
202129,64,312,311,-204,86,344,256,496,1,-141,109,156,306,-91,237,189,-114,33,-292,-81,54,292,61,129,207,194,237,79,118,-68,-52,212
202130,-6,243,283,-218,47,324,238,504,0,-197,6,121,282,-111,195,67,-168,4,-301,-132,4,271,-6,102,178,190,214,-74,89,-51,-18,166
202131,-107,246,262,-239,43,295,243,508,-43,-205,8,105,275,-102,180,122,-212,-51,-320,-127,13,253,0,112,185,180,242,-242,76,-8,80,294
202132,-181,245,273,-284,48,295,174,502,-9,-171,46,109,284,-80,209,177,-206,-67,-277,-101,7,259,-17,139,198,236,286,-78,134,80,189,526
202133,-259,159,277,-263,46,280,124,486,-4,-181,45,95,280,-93,182,197,-258,-80,-261,-136,-26,235,-176,127,175,173,229,-2,139,1,61,346
202134,-322,87,297,-208,57,297,200,511,-28,-187,76,116,294,-93,181,248,-216,-135,-284,-170,-46,228,-277,49,133,107,102,175,50,-118,-169,3
202135,-374,172,312,-157,87,274,221,511,-4,-182,58,150,329,-78,198,267,-175,-57,-260,-129,-75,287,-147,95,170,117,162,102,69,-79,-66,285
202136,-288,307,278,-209,73,255,252,526,6,-182,92,177,342,-74,183,253,-156,0,-233,-153,-73,225,-53,130,142,88,149,-96,34,-145,-150,131
202137,-199,280,284,-243,77,303,240,460,-31,-178,112,176,307,-96,172,136,-159,-1,-260,-184,-54,164,-71,126,116,80,83,28,63,-157,-241,-195
202138,-119,265,324,-185,64,315,280,447,-27,-189,93,175,323,-105,152,30,-147,-17,-263,-200,-55,197,-124,136,133,71,148,151,120,-104,-119,19
202139,-79,293,432,-242,70,258,345,486,-2,-192,77,158,311,-107,153,135,-143,-39,-278,-208,-82,244,-169,116,122,45,180,63,70,-148,-139,1
202140,-74,312,481,-275,73,191,323,455,-21,-174,59,128,302,-95,147,196,-146,-48,-275,-192,-103,237,-165,98,131,78,188,-30,90,-96,-83,137
202141,-101,287,450,-219,61,282,263,439,-9,-183,32,108,291,-83,135,186,-181,-45,-302,-162,-97,185,-145,106,113,89,165,-53,102,-75,-40,254
202142,-56,290,473,-205,69,407,239,500,-13,-177,49,103,292,-75,138,127,-170,-35,-288,-177,-108,188,-84,127,116,67,96,18,101,-135,-131,29
202143,-25,257,451,-190,68,386,248,477,-21,-169,77,106,313,-83,143,109,-135,-14,-275,-180,-117,209,-77,142,136,96,118,15,117,-85,-72,42
202144,-49,245,408,-204,68,373,255,462,-19,-159,86,78,315,-87,151,137,-166,3,-293,-149,-100,192,-74,134,158,86,124,0,112,-69,-10,160
202145,-55,236,443,-267,60,393,230,469,-50,-163,86,124,301,-92,131,42,-157,-4,-310,-196,-114,154,-28,123,140,40,83,12,88,-138,-86,79
202146,-46,179,453,-242,78,433,228,495,-32,-134,95,177,292,-94,145,27,-139,-18,-310,-209,-138,146,-41,114,133,6,77,75,75,-192,-196,34
202147,-19,198,389,-248,75,362,232,504,-9,-151,59,174,281,-97,115,107,-169,-39,-300,-202,-140,174,-81,103,166,49,103,70,99,-113,-83,211
202148,-22,263,382,-232,83,298,205,506,-30,-163,8,192,283,-84,80,182,-137,-21,-263,-187,-175,150,4,134,190,62,118,84,128,-74,-90,129
202149,-69,261,385,-182,86,321,212,560,-15,-153,45,223,308,-81,85,108,-90,-2,-250,-184,-189,48,49,161,192,40,79,84,149,-99,-167,-35
202150,-94,239,348,-135,119,356,239,582,-9,-147,42,250,333,-62,107,113,-87,12,-244,-185,-175,31,11,192,253,105,119,103,183,-15,-18,219
202151,-138,253,312,-163,108,310,216,548,-54,-164,19,229,323,-82,71,-5,-83,12,-239,-182,-236,70,-3,172,246,107,54,109,173,-36,16,289
202152,-124,343,347,-185,72,353,250,590,-35,-152,-26,177,327,-68,98,-89,-85,-2,-195,-167,-195,134,-4,188,273,118,1,121,189,-2,12,290
202153,-85,400,401,-222,93,387,306,565,9,-138,53,198,352,-64,142,-92,-51,64,-178,-142,-191,140,120,231,309,132,-9,154,217,27,-35,20
202154,-61,358,469,-233,77,349,299,542,-24,-160,46,153,367,-69,133,-52,-33,143,-167,-155,-213,72,296,284,302,128,-59,47,224,-11,-63,-149
202155,-71,342,483,-222,72,285,240,558,-26,-172,38,112,359,-50,153,76,-52,184,-176,-129,-155,38,246,281,340,170,-41,39,244,6,-45,-155
202156,-73,293,486,-212,76,315,199,545,-21,-156,45,236,351,-31,204,126,-40,185,-198,-49,-104,53,124,277,352,224,8,141,289,69,51,-56
202157,-186,257,478,-236,65,275,208,555,-9,-169,17,341,335,-24,209,84,17,63,-190,-22,-76,60,128,253,361,286,58,297,305,124,114,87
202158,-339,202,424,-221,62,307,222,560,-25,-172,22,302,303,-38,201,78,0,-47,-219,-23,-69,82,117,240,391,305,72,209,324,129,137,143
202159,-273,219,404,-250,61,389,190,518,-55,-149,22,233,295,-58,222,123,-29,10,-207,1,-53,94,83,252,370,300,86,169,304,121,154,180
202160,-132,312,424,-249,81,414,243,539,-34,-136,66,238,283,-35,267,168,20,13,-191,21,-10,111,73,232,371,316,114,257,291,121,156,177
202161,-95,350,412,-198,64,396,244,539,-22,-151,111,227,290,-46,253,153,4,17,-210,0,-40,113,85,236,364,309,83,232,287,101,127,130
202162,-44,371,457,-210,69,377,251,543,-21,-158,118,256,295,-51,235,38,26,90,-224,2,-40,141,233,219,347,305,50,217,255,63,54,66
202163,-103,270,462,-194,59,307,240,539,-8,-147,157,347,337,-35,272,-27,79,222,-175,37,17,123,525,270,365,323,108,129,271,77,107,105
202164,-190,159,468,-198,47,307,316,503,-17,-146,193,278,317,-29,294,94,22,169,-157,38,46,143,356,265,391,365,186,110,297,160,216,347
202165,-176,295,458,-265,64,310,428,450,-42,-146,152,128,266,-25,295,273,-69,27,-172,60,48,197,-50,237,396,419,284,141,339,281,374,673
202166,-184,396,385,-199,58,320,329,459,-43,-132,132,130,263,-26,288,306,-71,-44,-193,59,84,224,-164,225,400,405,342,164,337,275,411,748
202167,-139,441,379,-190,56,329,339,516,-34,-155,170,204,241,-39,281,312,13,-88,-220,14,43,232,-79,163,323,311,198,311,226,46,60,151
202168,-43,425,409,-190,64,382,353,568,-57,-145,177,206,262,-56,248,277,3,-22,-266,-51,8,241,0,147,276,257,87,309,183,-71,-134,-300
202169,25,414,391,-160,84,428,391,601,-23,-111,156,196,297,-25,272,215,9,34,-221,-10,34,304,11,205,345,310,177,322,280,68,54,43
202170,27,454,379,-196,86,326,411,593,-10,-137,142,195,299,-32,271,165,-27,41,-185,-4,31,309,29,233,352,331,197,386,312,95,87,94
202171,-50,393,339,-240,52,354,407,551,-59,-144,156,236,274,-57,272,114,-67,-3,-204,-28,28,300,14,228,345,319,241,332,328,125,143,177
202172,-91,336,339,-227,36,427,413,456,-62,-127,197,254,270,-56,272,154,-31,13,-182,-16,58,295,67,227,348,334,270,250,323,187,196,266
202173,-84,330,402,-262,63,458,425,450,-41,-113,207,253,298,-39,300,183,-31,30,-177,-33,83,317,60,224,343,324,278,117,237,139,157,292
202174,-120,328,443,-260,58,437,389,484,-66,-137,189,246,254,-60,292,180,-58,-6,-239,-79,49,252,17,187,314,256,247,68,146,-16,-25,109
202175,-97,339,425,-302,58,426,397,492,-54,-137,206,271,260,-61,285,217,-25,0,-224,-68,69,235,41,179,320,262,270,89,155,-68,-61,68
202176,-50,362,402,-216,62,414,389,549,-25,-126,211,268,313,-46,313,332,-25,26,-205,-23,106,257,50,216,326,293,283,77,209,23,36,149
202177,-136,400,448,-165,64,373,365,583,-10,-124,189,254,324,-48,307,263,-24,42,-198,-21,100,251,68,257,318,315,248,34,241,25,60,212
202178,-180,432,428,-211,89,447,347,547,-11,-127,172,242,325,-47,288,232,-21,36,-185,-36,81,254,90,252,320,299,213,54,261,42,50,231
202179,-150,422,461,-265,60,365,344,491,-26,-141,138,240,305,-48,258,286,-24,17,-220,-52,66,259,43,216,303,262,206,355,277,96,70,221
202180,-130,333,457,-288,56,283,348,462,-21,-144,152,228,306,-41,275,286,-28,50,-191,-62,48,245,125,237,312,282,210,408,324,113,102,206
202181,-117,178,357,-283,47,319,295,442,-49,-157,127,176,293,-51,263,215,-54,36,-209,-124,24,200,133,225,293,254,184,378,349,135,136,268
202182,-56,165,366,-264,35,398,254,466,-41,-136,129,195,299,-36,250,252,-91,19,-215,-113,5,217,142,215,293,246,225,165,283,164,233,467
202183,-16,178,374,-297,48,459,264,481,-17,-99,118,209,296,-33,262,193,-104,14,-213,-114,42,195,153,193,280,247,283,-140,202,121,244,557
202184,-101,252,350,-327,47,428,265,475,-45,-125,54,153,283,-42,231,180,-117,-14,-237,-101,35,164,14,151,257,190,236,-98,125,-13,41,450
202185,-110,343,356,-289,67,358,267,478,-34,-140,108,131,289,-47,210,129,-118,-54,-231,-121,-79,167,-47,120,216,92,59,12,54,-219,-249,-3
202186,-208,298,342,-232,53,340,258,526,-20,-153,83,140,317,-51,167,145,-118,-46,-237,-155,-156,195,16,135,174,45,-25,5,61,-195,-241,-221
202187,-225,295,306,-191,42,313,277,527,-18,-177,82,152,317,-46,145,160,-117,-25,-260,-192,-118,132,-8,111,177,68,-27,28,82,-132,-169,-56
202188,-122,337,282,-158,68,411,282,510,-17,-157,109,136,312,-37,159,96,-104,-30,-247,-190,-116,121,-48,143,204,122,31,46,127,-58,-81,54
202189,-90,359,270,-187,59,401,311,462,-27,-158,118,117,314,-66,164,43,-89,86,-216,-204,-114,171,112,185,188,86,40,-34,132,-82,-86,56
202190,-139,347,239,-254,73,359,315,501,-35,-144,129,38,366,-73,166,60,-61,229,-180,-184,-74,161,378,233,209,82,67,-173,161,-94,-83,146
202191,-168,355,268,-235,66,285,285,542,-60,-152,99,46,361,-61,161,131,-87,211,-212,-165,-75,121,277,211,214,100,128,-69,137,-41,1,264
202192,-201,281,374,-195,54,361,191,526,-58,-175,72,163,309,-61,155,153,-155,62,-244,-144,-102,132,-5,151,221,139,163,48,192,45,149,422
202193,-127,125,451,-200,64,414,72,516,-42,-158,106,266,279,-57,169,111,-141,-108,-241,-174,-90,160,-2,132,227,161,158,6,174,42,150,486
202194,-87,166,457,-218,72,462,92,458,-39,-155,136,238,281,-74,168,-11,-100,-63,-267,-197,-160,180,-58,124,206,121,120,170,161,-2,56,424
202195,-113,314,382,-205,74,486,204,470,-39,-164,88,186,282,-69,130,-125,-31,-25,-300,-192,-183,139,-43,127,199,68,50,248,180,-74,-135,96
202196,-109,349,352,-210,64,453,257,452,-36,-158,90,223,290,-56,147,-14,14,34,-248,-179,-160,115,91,169,211,91,53,248,229,-18,-129,41
202197,-169,359,353,-279,71,424,177,484,-51,-167,104,243,303,-82,139,70,10,34,-242,-183,-169,75,77,175,228,86,73,274,236,3,-53,101
202198,-219,321,387,-279,63,399,213,480,-42,-135,78,256,304,-89,116,39,27,-1,-260,-209,-172,77,42,184,226,76,44,182,233,-23,-65,40
202199,-270,356,419,-222,86,327,271,496,-34,-134,12,268,301,-75,108,12,-19,24,-264,-200,-151,109,32,197,240,104,74,121,218,-2,-2,127
202200,-300,373,406,-237,78,309,235,486,-23,-163,7,283,297,-68,123,80,0,-37,-253,-192,-131,104,24,152,239,105,64,211,182,-12,-74,-29
202201,-156,376,429,-230,57,236,214,486,-58,-178,13,265,297,-72,109,76,-18,-67,-283,-194,-167,72,32,143,211,69,1,128,149,-58,-123,-163
202202,-124,272,433,-249,57,355,236,497,-52,-173,4,253,294,-72,98,58,-12,-7,-260,-183,-177,61,56,155,209,66,0,105,170,-32,-96,-71
202203,-36,246,377,-252,62,439,247,500,-27,-162,60,250,305,-60,142,-33,-10,19,-239,-161,-192,83,62,160,233,98,-11,133,196,-25,-64,-26
202204,-76,253,358,-157,48,356,221,531,-36,-148,-2,281,344,-46,127,-75,-23,25,-210,-163,-209,131,73,205,253,102,-6,114,180,10,-53,12
202205,-54,176,383,-176,56,262,174,588,-36,-141,8,258,340,-46,117,-22,-24,37,-200,-154,-202,152,22,222,279,137,23,165,211,65,6,83
202206,-17,161,422,-231,77,331,165,594,-52,-152,1,225,343,-31,139,16,-32,54,-189,-123,-169,118,12,219,311,147,43,175,241,82,1,106
202207,-105,204,391,-171,62,380,204,585,-40,-134,34,213,356,-26,185,117,-3,70,-162,-103,-77,133,61,245,327,188,125,177,261,115,26,165
202208,-169,242,303,-156,29,380,204,542,-41,-159,45,236,344,-36,183,173,-21,72,-185,-109,-39,134,48,241,296,186,177,173,233,103,28,195
202209,-156,247,230,-152,36,339,230,558,-9,-127,36,310,364,-5,202,194,-17,89,-195,-109,-31,189,66,243,327,197,196,159,242,97,77,206
202210,-128,230,277,-165,14,276,241,537,-31,-145,19,312,345,-5,220,237,-6,53,-209,-143,-31,155,69,247,332,177,121,120,238,94,45,125
202211,-160,247,361,-199,9,308,218,496,-67,-156,25,278,329,-20,216,205,-27,57,-196,-138,-40,201,60,232,324,187,46,102,237,74,40,107
202212,-155,257,411,-249,6,293,256,488,-69,-146,45,252,330,-3,236,127,-34,66,-193,-67,-9,231,84,246,368,219,93,133,246,100,85,196
202213,-108,294,513,-237,30,315,251,585,-30,-119,101,271,359,33,263,132,6,109,-176,-52,11,265,108,268,371,260,131,211,243,107,60,215
202214,-154,327,495,-259,26,331,275,579,-39,-140,92,227,352,4,266,226,7,115,-173,-29,-8,271,94,263,375,271,162,213,239,132,88,205
202215,-198,340,494,-217,29,292,309,576,-24,-157,76,255,389,16,247,287,38,142,-152,10,-19,262,260,304,393,291,193,229,312,168,126,245
202216,-136,344,498,-110,46,306,281,611,17,-135,148,323,446,40,274,298,90,213,-108,50,29,322,346,341,411,349,223,235,346,189,146,271
202217,-120,211,439,-80,35,324,235,557,6,-146,121,250,403,15,268,219,16,158,-109,43,0,365,170,312,408,332,205,274,327,163,165,285
202218,-154,113,416,-195,9,353,256,529,-38,-142,118,199,369,16,269,95,-21,86,-157,-9,14,351,80,290,400,311,243,137,300,143,138,275
202219,-226,278,401,-252,8,335,270,558,-12,-136,171,330,391,17,283,107,14,167,-147,3,53,273,314,306,389,313,250,-164,262,97,111,202
202220,-273,349,400,-218,7,275,226,558,-28,-155,168,394,381,17,309,202,41,138,-130,36,119,266,319,295,395,369,317,2,274,131,148,247
202221,-180,333,466,-146,27,348,272,521,-26,-140,194,306,355,28,317,204,4,10,-154,35,93,394,-37,248,394,362,311,191,300,188,176,351
202222,-114,323,489,-191,18,324,325,496,-38,-157,214,237,310,-3,292,215,-1,-23,-189,13,61,377,-36,265,360,319,253,52,301,145,176,336
202223,-104,290,489,-219,26,323,308,510,-42,-143,224,209,327,-5,320,365,-10,33,-169,37,94,321,117,272,366,335,252,55,305,147,178,365
202224,-82,298,479,-235,30,460,321,502,-46,-117,177,93,314,-14,310,351,-63,76,-181,20,133,284,46,234,358,326,278,135,290,165,194,406
202225,-62,273,367,-282,21,431,267,469,-75,-141,159,117,284,-46,294,249,-93,59,-222,-18,119,283,-46,195,319,293,289,158,263,152,190,367
202226,-97,269,158,-271,45,423,281,480,-78,-104,161,343,303,-27,301,233,-66,87,-202,-4,107,331,-19,189,319,284,275,138,242,127,147,310
202227,-206,263,113,-324,42,356,273,529,-95,-105,143,314,277,-56,296,292,-72,-87,-268,-28,64,296,-7,162,255,231,210,0,157,1,12,190
202228,-209,220,122,-262,30,322,218,529,-86,-129,184,194,254,-52,313,292,-127,-104,-315,-38,71,228,-80,109,226,213,172,41,132,-20,1,157
202229,-131,250,197,-288,25,373,261,396,-67,-95,178,150,247,-24,336,378,-116,-110,-293,-37,99,226,-129,96,235,211,205,152,162,34,9,122
202230,-127,281,291,-274,8,451,341,361,-81,-85,247,159,248,-27,353,426,-148,-114,-245,-20,107,255,-114,120,222,219,220,106,178,28,24,210
202231,-202,304,267,-288,6,398,354,372,-66,-115,217,150,223,-45,304,357,-156,-86,-274,-87,98,215,-129,107,204,201,196,73,158,8,22,193
202232,-209,302,308,-299,27,430,373,402,-60,-102,206,99,229,-31,293,364,-138,-91,-292,-99,94,205,-119,120,221,215,220,82,178,43,44,225
202233,-251,307,333,-256,31,441,413,407,-62,-85,222,96,256,-21,304,395,-151,-77,-264,-103,128,272,-96,137,225,259,259,116,200,103,126,289
202234,-251,267,278,-244,6,421,407,408,-94,-108,222,84,252,-38,300,315,-172,-74,-265,-134,118,239,-75,145,222,255,258,78,216,129,176,320
202235,-231,333,279,-192,34,402,447,462,-68,-103,245,146,280,-25,317,167,-150,-20,-255,-96,121,248,31,172,243,274,271,48,216,108,139,367
202236,-240,295,313,-200,46,415,467,514,-22,-97,299,199,305,-4,335,119,-129,49,-234,-70,134,265,178,230,262,281,288,24,217,37,28,291
202237,-405,205,307,-293,34,442,382,463,-68,-104,235,120,279,-32,310,180,-124,69,-231,-76,150,257,171,230,270,285,302,15,226,-1,-21,255
202238,-465,213,330,-244,51,370,317,466,-79,-96,283,124,272,-26,318,170,-145,-13,-248,-70,133,244,3,170,276,286,278,234,220,82,115,291
202239,-314,203,255,-189,30,297,272,469,-68,-99,316,195,294,-17,337,115,-73,-23,-217,-67,132,260,75,204,294,301,244,254,258,112,157,283
202240,-157,185,141,-215,18,374,247,510,-82,-122,278,210,293,-17,327,225,-64,33,-204,-85,109,242,113,227,304,316,248,193,299,137,144,445
202241,-79,349,146,-248,22,412,239,527,-67,-113,245,184,298,-35,316,401,-66,39,-217,-62,129,220,24,223,295,302,236,238,290,102,71,352
202242,-94,393,210,-240,25,397,259,459,-53,-111,245,209,308,-37,317,427,-39,53,-227,-49,110,246,81,277,329,334,277,245,315,128,107,354
202243,-109,343,282,-232,20,327,218,479,-21,-116,167,285,340,-15,310,343,7,153,-176,-36,110,233,405,314,374,372,281,193,344,173,172,436
202244,-128,275,412,-266,4,401,216,495,-49,-140,205,280,311,-23,302,192,-12,100,-226,-76,58,177,349,249,332,262,141,126,262,40,-26,-15
202245,-103,243,479,-250,23,452,271,492,-60,-120,211,227,291,-33,301,180,-36,21,-234,-89,50,164,106,233,337,246,107,117,246,7,-51,-114
202246,-158,179,392,-248,26,413,205,498,-44,-129,174,243,291,-5,307,226,-49,-3,-222,-22,50,203,45,295,375,307,180,138,358,155,162,165
202247,-179,208,337,-224,30,350,142,511,-36,-130,165,238,279,-1,308,182,-24,9,-221,-18,85,187,39,290,384,324,219,232,355,217,238,238
202248,-195,254,338,-265,1,434,167,461,-58,-135,154,156,258,-6,305,176,-72,-2,-228,-49,83,113,-3,233,366,346,243,188,326,220,248,426
202249,-209,311,354,-269,-4,272,211,448,-74,-151,141,122,260,1,294,148,-90,4,-215,-7,79,166,-7,234,375,358,291,143,293,180,286,684
202250,-203,329,368,-296,-20,77,217,385,-72,-158,90,126,284,3,283,184,-58,35,-200,47,103,202,17,264,427,405,382,134,338,280,419,1007
202251,-220,291,347,-331,-42,302,250,354,-116,-154,117,115,267,-13,282,107,-59,55,-250,37,52,94,64,249,387,344,224,94,282,164,230,528
202252,-179,325,312,-313,-3,347,289,358,-73,-148,92,161,279,-8,245,50,-57,71,-203,13,-66,79,59,227,334,211,3,216,214,-54,-176,-326
202253,-170,271,316,-283,19,345,299,387,-36,-147,73,172,276,-12,232,136,-36,45,-203,9,-71,123,30,236,334,201,-19,302,248,-63,-218,-409
202254,-223,223,267,-333,0,278,235,367,-62,-158,48,151,278,-13,245,162,-74,49,-200,26,-31,127,38,277,370,289,112,301,340,82,57,147
202255,-305,252,242,-308,7,281,212,346,-69,-148,53,129,290,6,245,191,-46,66,-192,47,10,142,54,281,413,323,190,329,359,158,172,347
202256,-290,288,198,-279,-1,311,114,418,-69,-127,37,140,309,-4,252,176,-40,66,-155,55,8,180,53,294,404,288,171,264,334,156,95,183
202257,-343,184,189,-245,24,267,102,467,-62,-143,15,205,306,-9,212,15,-77,54,-175,26,-80,153,157,321,386,219,54,-20,261,68,-77,-90
202258,-549,46,111,-163,2,259,25,415,-84,-171,-1,322,295,-32,190,-63,-76,42,-214,-46,-137,108,178,265,341,184,-22,-127,207,-45,-148,-261
202259,-627,122,58,-279,-6,261,4,411,-82,-133,72,257,299,0,232,72,-66,-9,-222,-28,-27,107,45,232,362,225,108,224,224,15,-74,-137
