,Fp1,Fp2,F7,F3,Fz,F4,F8,FC5,FC1,FC2,FC6,T7,C3,Cz,C4,T8,TP9,CP5,CP1,CP2,CP6,TP10,P7,P3,Pz,P4,P8,PO9,O1,Oz,O2,PO10
19194,-196,81,398,-195,-69,148,-118,442,151,58,139,282,319,48,208,296,101,-139,-130,121,-22,51,176,116,284,267,108,98,293,-7,126,369
19195,-227,40,404,-152,-80,152,-154,450,136,49,150,305,332,48,209,257,98,-76,-102,147,4,80,231,186,314,317,163,-67,361,98,253,564
19196,-191,97,504,-177,-50,234,-133,471,167,92,164,297,375,58,240,154,129,-7,-63,163,27,104,384,258,359,346,192,-130,456,189,351,617
19197,-160,63,619,-233,-46,285,-200,445,159,71,132,295,346,61,219,17,81,-90,-103,114,-37,114,190,159,319,285,119,94,311,52,238,466
19198,-130,-22,597,-265,-69,264,-216,443,131,46,180,282,317,51,217,5,93,-145,-129,53,-100,31,113,100,267,201,46,50,189,-183,-88,100
19199,-188,-36,563,-321,-53,276,-137,421,147,77,177,299,322,60,230,105,109,-141,-103,94,-48,0,171,132,280,227,63,64,248,-155,-64,20
19200,-295,-120,518,-331,-63,244,-105,427,157,78,122,298,318,56,199,251,125,-108,-89,74,-43,64,203,155,292,269,114,36,263,-88,103,252
19201,-357,-45,498,-285,-62,203,-108,452,151,63,105,323,318,52,213,297,101,-105,-123,54,-43,28,196,109,263,235,109,-48,203,-149,19,212
19202,-301,134,519,-291,-28,206,-43,436,145,75,141,390,309,71,235,251,121,-86,-112,59,-26,31,243,149,280,238,98,-57,236,-138,31,180
19203,-280,130,480,-300,-54,159,-16,418,122,92,150,306,322,45,228,138,126,-89,-134,83,2,88,216,118,286,269,143,92,264,-62,90,279
19204,-229,99,466,-321,-86,133,-49,405,106,67,131,227,338,34,237,148,150,-66,-129,101,14,86,215,128,286,294,180,118,289,-21,116,337
19205,-177,36,436,-333,-74,234,-16,380,122,88,172,194,335,35,254,242,134,-16,-123,144,24,106,245,131,264,257,187,22,270,-58,83,341
19206,-127,98,360,-267,-33,154,24,446,175,97,191,248,375,62,273,230,98,37,-103,155,53,104,368,160,276,272,170,10,289,-53,94,331
19207,-144,127,295,-286,-38,219,0,457,164,97,180,297,357,51,262,141,52,20,-127,115,41,77,427,146,266,260,158,-26,274,-72,78,312
19208,-193,-9,339,-264,-60,302,-41,418,143,97,163,301,299,35,249,201,10,-111,-173,72,9,54,227,89,222,228,157,0,239,-85,40,329
19209,-172,-92,469,-274,-35,309,-18,409,146,85,147,310,317,33,254,179,47,-167,-178,121,0,50,157,75,217,213,152,32,230,-107,13,299
19210,-207,64,518,-250,-19,226,45,450,162,98,145,362,358,45,233,66,110,-26,-143,145,-35,60,463,154,242,212,135,-125,290,-65,26,296
19211,-278,143,418,-239,-51,234,-21,472,140,70,102,327,345,27,192,31,92,3,-157,107,-83,74,449,117,226,190,93,0,300,-54,7,281
19212,-338,145,343,-235,-45,294,-96,487,170,69,135,320,365,56,226,59,109,-63,-152,132,-76,29,252,96,223,196,70,77,229,-165,-40,181
19213,-444,-9,305,-242,-54,276,-170,469,163,95,171,290,357,75,272,144,96,-109,-136,173,-9,19,203,113,242,224,112,136,223,-161,-26,129
19214,-530,-164,297,-288,-74,189,-239,404,146,88,157,161,342,54,256,184,36,-105,-128,168,7,-38,147,114,253,232,108,51,201,-147,-13,114
19215,-506,-120,284,-315,-102,180,-196,384,144,73,156,171,361,53,265,75,18,-83,-119,198,27,-55,114,103,259,234,106,-107,172,-170,-27,143
19216,-381,-40,291,-314,-82,159,-177,367,153,78,177,234,362,53,265,6,34,-89,-93,242,36,57,77,100,285,265,125,-104,194,-109,14,238
19217,-229,94,359,-281,-46,169,-113,403,176,71,159,309,353,66,236,115,82,-75,-100,229,-4,53,138,117,268,229,73,-68,214,-160,-36,143
19218,-111,130,433,-271,-73,244,-25,427,151,70,121,315,352,38,239,203,16,-106,-110,192,21,-42,134,115,270,238,99,-111,171,-183,-74,138
19219,-51,146,441,-302,-55,308,-20,390,151,111,180,340,352,41,280,203,-159,-82,-103,188,62,-59,166,117,249,269,166,-188,139,-183,9,249
19220,-133,195,428,-294,-43,298,-33,347,157,103,188,270,355,47,282,190,-98,-75,-89,247,52,-3,229,148,295,282,196,-165,203,-70,148,437
19221,-172,181,377,-285,-43,239,-66,321,144,79,165,204,344,60,253,118,3,-102,-93,227,-20,6,155,148,309,322,207,-162,263,30,260,691
19222,-183,179,312,-318,-40,240,-60,285,127,87,177,155,328,52,244,197,-2,-125,-105,205,11,-86,105,164,302,338,169,-236,287,46,306,740
19223,-190,166,353,-281,-45,327,38,311,124,86,219,164,329,33,262,254,14,-142,-118,222,17,-77,93,123,280,289,130,31,251,-67,101,418
19224,-112,174,396,-295,-24,353,44,351,133,89,200,203,333,4,261,274,12,-123,-123,201,-21,-76,123,102,238,244,38,61,210,-187,-104,90
19225,-123,328,403,-265,-36,300,26,381,177,90,186,222,337,29,242,249,3,-113,-111,179,9,-71,115,103,256,269,85,-37,195,-149,-29,117
19226,-115,301,379,-233,-24,258,5,387,188,86,186,239,353,54,273,244,26,-83,-89,213,50,-49,177,155,301,313,159,51,263,-86,8,232
19227,-76,234,370,-244,-37,283,26,370,160,72,196,189,336,44,265,257,46,-90,-116,207,17,-30,170,154,267,280,105,-37,227,-119,3,96
19228,-25,303,419,-273,-10,339,98,388,136,98,235,175,306,43,245,257,10,-143,-131,193,-15,-46,113,97,248,249,44,-100,174,-166,-79,-158
19229,2,403,411,-267,0,328,115,367,135,88,220,147,283,38,232,171,-55,-199,-166,188,-35,-138,60,54,243,231,-16,-190,132,-210,-90,-157
19230,25,461,388,-219,-9,341,130,352,127,93,254,127,289,32,241,78,-79,-212,-193,208,-20,-127,23,45,237,234,13,-333,40,-274,-122,-67
19231,26,398,328,-248,-33,325,70,331,113,85,209,116,290,21,213,-30,-95,-197,-134,219,-39,-133,19,60,244,243,41,-280,103,-195,-38,39
19232,2,348,242,-268,-51,277,-1,316,126,67,180,109,296,35,214,61,-116,-186,-125,219,-51,-131,35,68,268,250,68,-257,133,-165,-8,26
19233,20,333,159,-215,-47,251,-7,356,153,75,164,119,334,44,205,151,-47,-126,-104,214,-67,-100,96,108,299,288,90,-170,162,-116,34,78
19234,49,338,211,-187,-19,337,-10,393,163,96,174,111,374,56,178,162,-15,-67,-95,198,-81,-71,155,147,312,289,80,-221,210,-110,50,98
19235,1,305,318,-224,-19,361,-10,378,115,82,171,66,352,18,194,136,-15,-85,-132,195,-78,-28,120,146,298,279,95,-120,250,-58,93,203
19236,30,317,395,-226,-14,239,-21,410,140,80,163,105,352,55,230,119,3,-90,-110,205,-37,-17,121,150,331,314,132,35,271,0,136,273
19237,-26,320,384,-213,-33,117,-53,372,130,55,152,165,355,51,210,83,-106,-104,-98,187,-91,-33,190,139,312,270,52,-346,169,-142,44,99
19238,-50,303,398,-200,-34,196,-5,427,154,74,170,291,368,52,226,146,5,-99,-68,212,-67,34,363,173,331,323,132,-112,255,-46,155,257
19239,-50,226,431,-258,-28,270,15,448,163,103,169,263,356,64,245,64,21,-117,-90,250,-4,29,291,159,324,329,169,-10,272,-23,166,286
19240,-104,183,409,-285,-42,276,21,425,161,112,181,208,383,64,265,-16,27,-98,-63,264,34,17,244,191,363,350,190,-21,319,2,163,280
19241,-161,149,357,-303,-82,262,-19,404,132,108,160,164,354,50,260,-98,21,-110,-52,285,34,-16,163,184,361,346,199,-48,295,-28,150,180
19242,-111,117,387,-347,-70,289,-45,416,137,92,205,235,365,75,280,-98,36,-50,-37,294,52,-16,344,236,365,360,234,-154,309,-45,161,35
19243,-59,114,384,-402,-61,295,4,315,115,78,217,344,330,51,283,38,71,-44,-62,245,38,-19,355,221,359,351,224,25,330,17,157,214
19244,-92,95,347,-335,-68,282,38,288,117,93,187,273,330,49,261,159,68,-98,-93,232,-9,-18,183,155,325,281,174,69,288,-42,91,229
19245,-158,116,336,-320,-64,321,41,340,153,118,247,214,340,42,276,259,64,-80,-92,246,1,-11,184,165,339,289,167,39,315,-35,115,252
19246,-261,211,393,-283,-51,301,48,372,184,110,247,290,364,51,287,259,86,-4,-58,206,11,7,283,209,333,302,195,39,367,46,149,357
19247,-251,193,440,-289,-68,294,-14,388,167,127,221,303,368,52,285,284,102,-13,-64,224,25,34,265,205,332,308,273,42,373,51,193,389
19248,-134,148,483,-277,-77,231,15,411,175,100,219,274,386,34,277,183,142,-21,-74,220,34,32,252,208,348,302,251,85,362,30,198,359
19249,-57,189,546,-228,-59,183,57,442,198,83,203,343,411,39,273,119,161,50,-39,255,51,43,416,273,343,291,170,-9,371,0,118,335
19250,25,52,567,-222,-60,230,-16,461,201,95,216,422,447,44,265,121,177,123,-40,264,-20,31,625,292,345,257,69,-32,369,-38,40,260
19251,-39,-70,485,-282,-62,237,-39,436,151,107,217,338,389,49,259,26,126,-3,-89,252,-23,-34,336,204,326,266,57,90,304,-34,61,283
19252,-115,120,425,-306,-80,269,22,447,153,97,230,278,366,57,276,83,56,-70,-69,249,40,-9,155,184,334,290,124,129,365,42,168,438
19253,-136,230,394,-292,-100,248,114,423,196,102,182,315,394,81,255,184,-36,-31,-67,233,-3,60,205,204,351,298,137,132,389,81,218,489
19254,-172,216,337,-317,-84,229,97,425,160,89,107,319,387,68,236,194,-16,7,-80,235,-55,-25,260,208,341,273,68,78,319,-6,117,345
19255,-191,240,377,-300,-38,255,60,407,151,84,158,276,365,77,264,220,113,-40,-87,255,-2,-76,213,174,338,295,106,-14,310,14,158,517
19256,-204,198,411,-310,-65,230,11,377,151,98,187,218,352,79,281,270,124,-76,-76,278,58,-57,168,172,346,318,174,-43,309,58,258,644
19257,-210,114,344,-303,-90,207,9,345,149,77,199,133,343,71,279,205,70,-51,-77,262,24,-41,167,173,327,299,159,-29,301,61,206,593
19258,-231,-19,347,-290,-89,235,-21,383,121,68,159,103,345,39,221,113,30,-23,-104,230,-73,-87,255,160,295,203,-7,-148,240,-106,-18,192
19259,-360,-145,343,-247,-77,244,-95,430,152,104,136,130,347,66,248,28,73,5,-72,241,-62,-103,408,187,283,218,-2,-202,284,-105,-3,-2
19260,-286,-63,366,-270,-61,290,-100,388,141,112,199,110,335,74,288,-50,13,-95,-92,298,4,-83,195,116,317,309,104,101,298,14,123,234
19261,-184,118,403,-277,-69,292,-134,364,120,92,210,128,314,68,267,-72,11,-113,-75,339,34,-56,111,156,352,329,132,146,396,153,243,317
19262,-117,251,395,-298,-70,252,-77,346,121,102,196,188,286,47,237,-103,-12,-139,-100,283,-27,-17,143,145,315,284,92,-198,248,-38,122,252
19263,-56,243,417,-300,-68,193,-12,353,137,120,211,314,325,49,243,-1,61,-57,-97,293,-37,-44,395,175,300,264,61,-295,225,-136,-31,64
19264,-122,185,284,-270,-52,190,-36,408,151,98,211,300,347,44,257,110,58,-84,-105,263,0,-49,339,169,303,263,107,-140,254,-114,-44,149
19265,-225,227,225,-282,-55,243,-42,329,143,111,258,196,309,37,266,162,39,-129,-107,242,-3,-62,122,145,298,253,56,-106,269,-116,-77,27
19266,-300,238,312,-236,-48,305,-62,311,157,132,283,164,318,48,278,247,53,-111,-85,275,-2,-65,151,156,299,256,-12,-53,295,-99,-65,-89
19267,-281,261,331,-174,-55,356,-32,297,186,120,235,187,347,43,267,325,36,-110,-101,299,-6,-77,161,121,309,271,53,83,279,-51,21,46
19268,-238,180,350,-211,-79,321,-56,285,178,116,213,192,345,54,257,288,1,-123,-80,291,0,-66,214,150,308,281,119,-49,248,-88,6,59
19269,-150,206,336,-248,-73,236,-10,326,183,105,249,178,351,57,276,251,6,-129,-83,247,28,-63,169,144,325,318,131,-69,209,-131,-6,114
19270,-145,256,249,-262,-35,264,21,324,178,104,236,172,358,47,262,242,-15,-131,-92,241,31,-98,123,125,316,323,122,-31,250,-74,65,130
19271,-139,257,204,-271,-57,247,-18,279,152,78,193,123,319,28,244,210,-63,-180,-133,214,30,-135,89,105,293,309,114,-81,212,-95,48,-70
19272,-60,204,244,-280,-83,265,-25,288,167,104,165,135,347,41,270,111,-40,-123,-132,231,57,-76,201,119,314,340,133,-123,243,-45,127,109
19273,-54,161,255,-286,-48,245,-4,312,180,104,171,139,372,42,250,-24,-5,-63,-93,185,-51,-4,256,159,311,281,4,-167,257,-28,89,275
19274,-36,127,301,-300,-44,235,-14,305,164,77,160,95,354,47,246,74,-15,-112,-87,204,-49,-33,43,133,309,268,3,-53,280,-37,97,206
19275,-84,76,368,-302,-38,269,46,323,164,97,162,89,352,54,242,156,-45,-151,-103,263,-4,-16,-9,115,310,311,98,-1,276,-19,104,277
19276,-78,210,387,-286,-37,303,86,346,178,107,177,199,366,56,225,157,-22,-139,-87,253,-29,-17,98,138,332,303,92,-15,269,-64,43,202
19277,-72,258,339,-268,-53,299,26,308,177,128,176,232,375,59,254,237,-17,-130,-78,279,0,9,181,171,353,330,142,-12,327,32,171,314
19278,-196,216,308,-289,-53,253,-74,331,193,115,170,181,394,85,251,198,-4,-51,-52,305,27,23,366,202,400,369,208,2,381,117,271,482
19279,-392,161,274,-288,-62,195,-140,300,181,88,135,124,398,67,240,140,22,-45,-43,315,0,25,298,235,414,357,193,124,475,189,329,537
19280,-428,157,245,-259,-50,200,-116,308,178,85,101,66,418,86,230,61,26,-64,-23,321,-17,25,157,262,411,363,177,189,508,204,326,471
19281,-287,136,284,-252,-45,234,-143,387,166,67,100,123,404,75,196,10,18,-58,-42,295,-53,-18,180,239,408,333,154,76,431,90,246,328
19282,-197,151,311,-278,-39,293,-112,446,156,95,133,164,423,51,212,5,36,-44,-30,306,-28,-15,240,226,408,336,135,30,398,50,166,163
19283,-261,184,274,-304,-31,328,-93,425,159,87,135,141,424,57,213,-38,19,-33,-12,304,-7,10,243,246,420,349,184,-34,402,76,181,253
19284,-257,130,262,-307,-40,345,-79,435,151,76,93,207,450,78,225,23,41,27,-13,277,9,49,359,291,442,380,210,-55,464,106,258,366
19285,-222,81,257,-284,-33,351,-119,396,160,100,178,313,434,79,255,85,49,-12,-13,274,15,-17,382,286,461,376,208,28,460,131,278,305
19286,-147,97,381,-238,-37,299,-121,386,176,118,243,292,419,85,277,183,74,-47,-13,277,48,-13,299,287,481,404,243,100,494,172,322,418
19287,-86,78,460,-256,-50,278,-85,388,196,119,266,205,417,76,281,279,81,-57,-15,279,79,19,278,288,475,425,307,115,515,207,382,529
19288,-46,107,464,-281,-56,262,-50,393,188,96,216,186,411,60,261,206,34,-43,-22,249,72,2,332,298,448,399,278,-25,471,139,301,447
19289,-42,130,452,-248,-22,261,-90,387,183,105,210,225,415,67,251,133,62,21,-5,249,44,-20,489,335,441,393,273,-91,494,106,306,349
19290,-106,101,403,-346,-35,247,-72,343,154,88,176,202,382,52,242,146,76,-65,-40,279,38,28,301,268,428,405,339,285,563,222,386,520
19291,-166,94,392,-331,-66,255,-33,330,134,48,165,203,357,26,237,184,27,-88,-60,229,39,24,250,260,413,390,337,237,534,199,343,498
19292,-191,92,378,-285,-45,253,0,385,136,53,170,267,380,27,237,217,-132,-27,-49,217,33,-5,370,249,389,358,318,13,486,104,282,346
19293,-216,91,391,-237,-39,243,-2,377,142,43,138,241,393,28,252,241,-86,-21,-44,251,51,9,417,235,368,355,307,-67,429,40,214,323
19294,-281,52,362,-243,-68,284,-39,357,155,55,177,217,366,35,257,232,50,-55,-72,269,66,78,353,237,369,363,287,-18,418,39,224,392
19295,-243,55,329,-250,-76,273,-13,368,151,48,169,188,386,34,244,69,75,-56,-55,256,78,69,384,253,373,371,242,-109,433,52,251,362
19296,-175,105,313,-214,-57,219,-37,379,191,93,175,224,429,61,260,13,78,8,-11,292,76,64,439,278,401,387,237,-14,452,67,233,327
19297,-194,12,302,-252,-54,80,-107,376,196,72,162,210,432,75,221,114,100,-30,-4,303,-33,138,262,274,398,337,228,91,497,110,234,407
19298,-284,-24,270,-232,-70,122,-153,392,202,40,122,217,415,63,180,96,119,-23,-12,271,-47,153,193,272,406,333,251,142,466,129,273,431
19299,-298,60,206,-213,-62,205,-193,405,193,52,158,228,424,68,217,138,99,21,-19,258,5,71,268,255,401,353,274,159,430,74,252,402
19300,-405,83,109,-254,-47,178,-210,429,162,58,142,200,410,62,226,40,69,2,-37,263,14,29,267,237,394,348,265,31,411,68,259,415
19301,-454,41,150,-288,-69,150,-228,369,127,25,77,174,373,52,196,52,18,-60,-52,246,0,19,174,202,378,331,236,-49,355,4,210,359
19302,-294,57,251,-315,-90,177,-209,330,144,25,60,165,360,65,199,104,16,-65,-44,264,-3,1,146,207,369,324,281,-167,313,-4,184,338
19303,-169,114,325,-308,-88,195,-160,330,138,20,69,216,377,64,197,27,12,-23,-36,297,-31,6,232,234,370,313,254,-167,361,31,174,364
19304,-274,31,418,-282,-67,169,-154,343,134,34,58,239,363,55,181,5,-3,-39,-62,257,-35,18,230,191,346,288,199,-42,296,-46,159,326
19305,-407,-14,396,-262,-58,167,-175,406,141,42,71,251,397,55,189,95,58,31,-38,223,8,-57,386,217,345,303,237,-96,289,-45,166,213
19306,-337,15,386,-194,-62,245,-188,423,144,42,106,231,379,48,215,110,-16,-33,-65,187,1,-65,212,173,333,294,205,-117,263,-72,117,161
19307,-187,72,411,-227,-46,199,-168,343,140,47,129,195,349,37,218,230,-11,-122,-102,178,15,-41,60,129,304,264,158,-38,215,-85,52,253
19308,-159,7,414,-241,-43,188,-176,386,111,55,130,189,349,25,210,223,-12,-107,-92,202,-13,-13,132,140,287,262,160,-139,199,-66,53,294
19309,-218,11,417,-272,-42,245,-152,411,144,69,148,295,354,45,230,208,22,-65,-74,237,3,0,119,129,300,268,181,-208,200,-70,95,313
19310,-212,102,397,-262,-36,264,-140,357,150,84,215,255,383,48,228,176,14,-64,-68,220,-21,-37,101,134,290,243,103,-229,163,-147,9,154
19311,-266,117,314,-319,-78,233,-133,320,107,51,184,134,355,7,205,148,-52,-140,-107,188,-70,-54,40,94,251,216,29,-133,119,-186,-51,91
19312,-249,83,294,-335,-81,239,-84,310,121,41,216,178,338,24,221,179,-72,-141,-87,194,-8,19,66,66,261,226,104,-126,129,-113,31,255
19313,-213,3,268,-278,-72,215,-131,337,124,33,216,189,328,30,203,125,-63,-118,-103,165,-37,-23,117,96,267,223,70,-164,170,-107,78,239
19314,-210,-25,292,-268,-81,174,-140,337,127,14,55,170,332,1,151,105,-72,-115,-117,131,-83,-100,72,81,248,201,31,-190,150,-145,-18,176
19315,-203,38,225,-251,-74,264,-133,322,116,26,105,188,357,10,166,28,-63,-85,-117,108,-64,-104,101,91,249,203,13,-224,147,-123,21,163
19316,-240,75,171,-221,-60,246,-187,361,149,45,116,214,386,23,177,-131,-55,-52,-95,123,-96,-119,215,123,266,173,-29,-321,131,-148,-34,127
19317,-226,70,245,-221,-54,204,-214,377,157,23,101,221,380,18,168,-143,-72,-44,-102,107,-137,-122,272,142,247,148,-52,-317,93,-255,-177,-9
19318,-277,102,309,-274,-65,97,-221,342,131,20,69,218,366,26,128,-86,-230,-100,-111,150,-136,-121,31,93,255,175,39,-131,107,-187,-64,199
19319,-271,99,361,-292,-77,94,-174,332,135,9,19,214,375,58,132,59,-203,-81,-80,146,-97,-124,16,105,288,207,112,-221,149,-138,28,350
19320,-261,102,389,-303,-69,146,-141,338,155,35,34,153,388,64,149,102,-43,-55,-80,114,-132,-146,141,147,288,211,57,-315,181,-129,-12,187
19321,-342,40,366,-293,-73,163,-186,322,164,25,50,64,348,46,128,68,-19,-123,-103,113,-107,-121,39,108,268,217,55,-167,178,-136,6,93
19322,-407,-81,409,-267,-48,138,-151,376,184,24,78,135,385,51,151,79,-9,-62,-88,139,-118,-119,162,145,303,207,32,-272,205,-140,-27,-20
19323,-402,-79,361,-257,-57,145,-109,367,183,49,103,186,404,50,157,112,-10,-30,-78,133,-144,-95,206,159,317,221,61,-200,222,-107,-33,5
19324,-313,69,271,-290,-80,133,-164,341,165,23,103,169,379,51,162,141,-56,-94,-85,167,-100,-91,22,134,317,247,98,-6,206,-91,-6,160
19325,-206,128,283,-339,-90,122,-172,308,135,-3,97,168,382,61,157,118,-42,-121,-64,128,-81,-86,19,154,326,239,92,-12,263,-71,34,149
19326,-170,154,350,-269,-71,63,-145,340,155,40,98,211,407,71,170,29,-5,-110,-53,163,-54,-71,74,170,373,277,121,18,320,1,82,186
19327,-189,133,342,-264,-56,64,-122,386,181,42,70,247,414,76,173,-20,-14,-79,-21,204,-24,-25,91,186,377,278,138,5,328,12,92,225
19328,-199,99,315,-208,-47,224,-78,374,179,57,135,247,406,58,193,-8,-19,-80,-23,218,-27,-16,91,166,353,266,111,-83,266,-63,44,180
19329,-232,125,299,-238,-24,135,-122,372,174,61,171,203,396,45,198,-26,-46,-101,-63,178,-35,-38,114,159,347,270,125,-92,268,-47,53,185
19330,-122,107,286,-250,-39,258,-133,436,192,60,200,205,429,62,227,71,-4,-73,-35,220,12,0,137,197,369,291,186,-60,311,22,118,268
19331,-71,109,283,-246,-44,337,-170,427,174,79,187,159,397,29,233,177,12,-45,-53,277,22,11,134,178,362,292,208,-24,310,40,153,325
19332,-103,69,214,-269,-26,400,-233,418,158,92,199,137,410,54,257,164,-30,-21,-59,281,58,31,195,214,380,323,263,17,368,110,218,477
19333,-146,45,187,-268,-36,355,-232,414,194,93,208,194,443,56,258,141,-60,44,-34,275,38,-20,373,279,393,323,249,-294,328,47,200,466
19334,-174,84,337,-236,-21,271,-189,390,210,77,229,197,432,33,252,201,-136,-3,-55,290,25,-27,242,273,371,319,253,-508,292,16,238,563
19335,-176,100,407,-193,-24,255,-136,389,196,52,226,174,399,36,252,233,-27,-119,-96,245,39,-12,75,138,339,303,249,48,293,42,217,489
19336,-172,131,411,-181,-9,243,-109,506,218,66,200,255,415,34,240,135,11,-59,-81,226,9,-13,154,159,334,256,191,100,323,-12,71,133
19337,-182,124,370,-182,-2,222,-116,556,217,42,135,225,414,29,203,40,-7,-47,-83,194,-51,-6,183,173,305,213,166,-88,264,-74,-10,23
19338,-109,80,359,-253,-25,200,-79,453,184,29,97,142,397,40,205,-77,23,-27,-70,176,-43,1,181,179,307,239,148,-32,290,-41,36,156
19339,-107,-20,359,-276,-31,189,-70,379,141,68,121,142,383,34,230,-72,17,-34,-87,212,-23,18,157,173,317,250,138,8,307,-19,46,191
19340,-97,59,402,-285,-29,251,-81,362,151,75,181,147,384,47,266,85,-40,-67,-80,241,-3,5,107,163,327,270,137,-54,278,-56,43,202
19341,-62,126,393,-374,-55,202,-117,323,140,51,168,124,357,46,247,228,-25,-57,-91,233,-6,-40,162,176,316,288,160,-6,341,1,105,287
19342,-158,154,367,-240,-44,158,-144,358,166,56,81,171,405,62,231,273,21,-3,-86,253,-46,-77,306,181,317,274,153,-60,295,-24,61,211
19343,-391,76,274,-208,-64,170,-191,353,152,67,84,249,383,58,226,195,-22,-6,-88,255,-54,-100,281,183,328,266,110,-114,255,-80,13,210
