,Fp1,Fp2,F7,F3,Fz,F4,F8,FC5,FC1,FC2,FC6,T7,C3,Cz,C4,T8,TP9,CP5,CP1,CP2,CP6,TP10,P7,P3,Pz,P4,P8,PO9,O1,Oz,O2,PO10
58370,70,159,296,193,436,527,118,548,391,243,233,-260,291,528,371,93,-230,75,481,272,13,338,138,41,-28,290,328,-22,699,281,251,-15
58371,83,153,355,201,435,522,87,524,387,241,207,-240,278,537,358,98,-205,26,489,279,22,310,96,58,-24,302,301,23,726,311,288,-36
58372,43,112,315,196,409,527,67,476,396,257,195,-255,296,541,387,105,-213,44,511,289,34,311,174,63,0,316,328,42,780,364,355,55
58373,38,127,311,168,414,509,34,466,397,253,209,-300,301,555,369,103,-268,70,515,288,44,370,198,74,3,332,393,59,797,413,379,62
58374,28,119,306,177,405,508,64,464,363,236,239,-273,306,530,368,5,-242,53,505,266,29,325,207,68,3,310,360,77,819,430,391,53
58375,49,118,322,218,412,554,100,543,366,259,356,-216,336,549,416,-142,-202,141,531,286,37,317,295,122,22,344,324,124,828,406,373,-9
58376,82,126,324,212,436,529,126,540,391,249,285,-181,382,554,403,-23,-133,192,540,307,39,380,362,152,16,359,328,132,858,359,320,50
58377,52,111,285,200,427,526,103,474,387,208,199,-204,362,532,392,67,-109,121,524,301,72,355,298,136,17,338,391,114,855,352,323,-16
58378,37,118,248,176,412,526,111,437,384,200,248,-263,350,521,407,49,-187,90,516,288,76,330,223,105,5,347,395,37,804,329,317,-14
58379,84,171,315,173,435,561,196,419,367,222,316,-192,314,547,426,225,-219,112,545,326,106,429,281,158,47,408,517,97,861,377,392,115
58380,98,162,347,204,440,555,204,489,374,245,317,-176,333,569,403,314,-215,106,557,335,107,459,308,167,54,415,500,138,885,422,430,132
58381,61,140,348,193,434,558,162,497,379,256,280,-238,332,566,424,186,-178,98,544,328,74,441,272,162,64,411,387,117,882,425,443,159
58382,47,104,356,164,400,539,116,478,371,275,266,-234,296,554,423,28,-181,51,530,347,112,394,248,154,81,427,425,70,849,454,482,187
58383,32,103,323,164,393,537,105,487,371,251,262,-250,292,536,410,-13,-142,-1,517,332,91,342,236,140,50,428,417,74,849,453,482,157
58384,48,134,307,161,413,544,158,483,372,232,275,-281,289,515,400,62,-144,5,516,325,88,408,244,143,26,425,428,87,859,434,468,89
58385,75,133,368,198,422,562,145,521,400,245,269,-244,314,508,419,127,-149,83,528,324,123,448,270,148,31,410,485,93,860,472,449,114
58386,51,130,331,201,411,543,151,511,398,227,259,-214,308,482,403,174,-178,79,528,306,105,453,231,143,20,373,450,146,895,462,407,100
58387,75,140,340,207,422,562,196,474,400,242,304,-183,324,506,417,184,-181,108,521,315,93,437,317,181,23,380,417,173,941,482,415,100
58388,78,121,362,219,442,584,210,481,408,255,329,-240,324,501,413,158,-163,88,516,305,86,389,267,164,11,362,401,140,891,441,380,45
58389,56,136,375,215,428,545,174,492,387,234,304,-259,304,490,387,144,-174,31,467,283,70,387,229,103,3,323,392,107,819,346,319,45
58390,36,121,339,174,415,535,132,438,373,232,282,-275,277,500,388,149,-207,-19,457,286,85,427,94,55,-4,319,436,72,798,335,346,83
58391,-4,93,254,138,382,522,123,422,363,220,261,-295,259,492,398,99,-253,-34,463,278,69,385,170,70,-19,312,381,17,766,341,324,-14
58392,-65,67,147,115,373,518,77,419,357,231,316,-292,270,502,416,52,-266,18,483,266,69,343,221,86,-24,323,359,9,758,335,306,-14
58393,-71,66,180,121,387,479,80,407,370,220,189,-239,275,518,415,86,-204,44,492,275,92,397,236,92,-4,334,399,13,734,320,334,16
58394,-47,73,275,129,393,469,83,443,360,178,200,-267,263,498,354,99,-260,9,466,251,50,347,133,55,-46,296,269,9,716,271,272,-3
58395,-5,74,329,151,391,482,93,491,382,171,243,-278,285,492,319,128,-272,30,450,232,56,314,174,67,-39,282,294,11,711,290,255,-6
58396,30,112,378,184,398,517,121,526,407,231,180,-249,302,512,378,86,-251,56,467,253,23,389,262,97,-9,294,318,45,768,323,315,52
58397,40,118,363,185,399,550,139,509,394,229,222,-239,317,516,383,88,-238,51,481,264,33,412,232,109,-20,311,367,36,791,328,359,81
58398,50,148,355,197,412,545,161,541,409,201,237,-226,339,497,301,130,-231,57,472,244,37,413,173,92,-37,292,377,35,783,320,321,30
58399,45,138,374,221,424,545,154,580,422,194,247,-201,346,500,334,-10,-269,75,489,251,26,367,216,106,-33,291,335,89,823,360,307,24
58400,36,175,321,193,417,545,150,474,406,197,250,-242,293,484,346,-20,-283,30,476,249,36,405,169,82,-47,280,318,79,793,329,328,100
58401,34,117,242,187,414,519,148,494,386,193,219,-237,289,495,336,86,-233,15,464,244,38,382,198,78,-54,288,340,43,779,335,353,138
58402,42,90,334,221,412,506,138,566,394,194,216,-264,319,506,328,86,-264,39,451,211,6,278,213,65,-66,250,311,-90,686,269,292,8
58403,19,90,378,175,418,510,151,473,376,186,209,-255,308,486,335,98,-281,31,422,215,1,269,162,41,-81,212,310,-127,625,201,229,-100
58404,55,116,423,168,425,500,111,377,388,208,171,-212,321,475,345,11,-230,47,456,208,28,285,196,38,-95,228,249,6,697,190,175,-107
58405,27,128,342,177,408,507,122,489,399,197,182,-218,315,473,338,-68,-242,50,437,180,0,296,266,51,-103,209,165,-28,696,208,139,-155
58406,43,103,368,157,393,525,131,547,387,192,213,-207,304,487,337,-35,-270,56,454,203,34,328,238,64,-85,246,246,4,736,244,190,-103
58407,34,102,368,159,403,560,133,489,382,203,236,-225,281,479,368,36,-287,49,436,207,77,291,246,52,-95,254,286,14,722,244,223,-76
58408,13,120,309,153,404,558,168,504,387,195,252,-225,289,459,357,68,-213,37,422,200,33,273,277,45,-73,225,239,-15,735,272,245,-61
58409,30,129,301,166,427,547,175,488,388,223,274,-282,290,499,330,55,-244,45,460,206,3,322,219,47,-56,243,268,124,805,325,272,-18
58410,27,134,288,160,425,581,190,464,372,246,279,-322,296,509,352,131,-307,19,472,219,22,299,224,68,-55,272,288,71,813,325,268,-35
58411,-23,107,247,132,405,563,172,466,372,220,219,-327,288,482,329,192,-315,20,449,209,12,292,274,88,-81,259,290,69,789,329,269,-50
58412,-36,73,245,142,415,540,132,505,365,231,211,-297,308,509,337,41,-349,59,465,226,20,290,296,115,-60,278,291,130,801,347,286,-29
58413,-29,61,297,156,410,525,101,485,376,235,213,-308,327,509,350,-2,-307,83,514,241,42,283,336,141,-44,283,282,134,843,409,320,-33
58414,-5,90,295,159,406,532,125,459,396,227,247,-251,316,521,380,64,-264,85,519,257,81,315,322,176,-26,325,346,206,926,504,401,39
58415,-11,100,259,119,408,557,142,416,395,226,326,-265,270,513,413,128,-294,6,495,280,123,272,141,154,-13,362,444,215,911,486,412,29
58416,-23,100,297,131,421,571,120,425,403,245,334,-288,278,520,401,156,-293,36,501,278,92,256,196,135,-37,361,345,109,886,435,388,41
58417,1,85,314,143,427,530,131,478,393,208,216,-243,276,503,344,154,-246,52,488,249,72,279,210,111,-50,338,281,8,773,305,293,26
58418,12,105,327,152,434,523,169,472,384,205,238,-230,271,486,371,179,-296,-5,471,244,91,312,156,78,-42,308,320,-25,744,276,286,14
58419,-1,114,278,127,415,542,138,413,397,216,260,-279,272,512,382,158,-213,-28,490,262,97,331,246,97,-43,315,361,62,769,294,284,-24
58420,-11,105,269,146,399,516,74,413,388,211,235,-308,285,524,359,121,-172,1,516,268,84,402,246,122,-57,291,334,83,778,296,262,-43
58421,-39,90,243,133,402,482,84,402,381,201,237,-332,288,517,373,12,-265,13,501,256,60,337,136,98,-49,275,308,-20,752,279,263,-23
58422,-50,45,264,138,390,482,80,430,397,191,240,-279,320,529,367,7,-314,101,510,266,80,271,286,118,-6,315,323,15,789,330,326,7
58423,-68,43,250,135,369,497,110,438,391,209,240,-293,327,539,355,95,-299,92,518,258,63,357,296,131,-10,325,341,58,828,372,371,10
58424,-63,40,241,139,387,496,133,442,375,219,259,-295,317,527,378,106,-260,74,519,276,88,421,166,109,-13,315,324,46,787,338,354,39
58425,-29,72,260,169,392,496,130,473,379,222,261,-256,323,529,381,149,-269,93,522,289,115,420,165,130,-19,342,367,1,751,326,341,30
58426,-25,73,269,185,398,484,101,514,406,216,238,-222,346,538,370,130,-274,129,524,282,130,413,218,137,-2,315,381,-1,762,315,343,53
58427,-14,77,234,165,409,482,85,489,409,211,224,-236,352,545,365,64,-251,115,544,290,92,426,253,157,3,339,357,65,813,360,370,25
58428,-34,99,242,174,418,508,117,455,414,200,234,-279,321,522,369,32,-197,70,541,291,102,406,236,147,15,342,341,129,839,322,304,10
58429,-30,63,294,172,400,482,86,504,402,185,211,-307,308,466,351,69,-239,62,512,282,82,353,190,126,-13,309,325,145,831,339,325,17
58430,-38,74,282,186,410,503,99,498,402,203,241,-282,316,482,340,142,-244,73,514,262,79,397,249,133,-4,321,342,148,850,378,357,35
58431,0,85,252,192,439,539,140,511,419,222,245,-268,321,498,355,128,-192,88,517,281,74,409,285,141,-10,329,359,148,859,397,353,36
58432,-5,67,234,201,443,506,122,531,416,201,235,-263,300,456,336,125,-232,63,475,245,59,406,245,120,-64,279,346,68,798,334,298,-4
58433,7,88,277,204,428,507,127,498,412,216,221,-264,273,454,331,150,-268,20,458,225,80,432,191,78,-93,257,346,29,737,295,297,34
58434,37,109,323,209,432,524,153,482,416,231,259,-231,278,470,375,172,-302,47,456,251,141,445,203,64,-96,300,391,32,746,336,342,93
58435,27,114,344,190,444,524,127,451,399,215,263,-212,287,471,384,171,-260,100,473,260,140,468,306,102,-87,318,422,86,815,395,408,151
58436,1,86,353,221,449,498,104,488,409,211,245,-204,310,486,369,143,-240,106,489,259,96,388,258,105,-81,316,422,32,807,431,405,65
58437,0,98,331,227,447,513,119,468,418,218,263,-240,286,475,381,142,-270,52,473,248,95,425,125,59,-76,308,373,-4,748,382,371,77
58438,3,101,300,223,430,540,150,461,388,240,267,-252,286,465,389,136,-294,16,446,236,109,434,93,9,-114,305,438,56,697,341,371,115
58439,18,109,318,242,434,527,138,479,416,227,275,-268,274,477,405,152,-220,34,443,233,107,423,182,13,-126,306,407,9,681,329,342,62
58440,44,128,337,239,422,547,146,503,429,221,322,-287,302,462,387,196,-231,36,444,228,112,437,141,30,-111,308,345,-15,725,350,372,71
58441,29,122,303,239,428,549,89,440,438,228,319,-284,348,480,374,237,-216,54,482,264,155,460,130,55,-67,353,400,85,783,346,346,68
58442,27,117,320,219,421,566,191,349,411,236,286,-169,289,495,406,197,-166,70,504,290,192,473,257,95,-34,402,511,91,793,372,391,112
58443,69,156,367,261,431,578,192,544,443,241,299,-141,327,502,433,249,-103,104,537,321,185,539,306,151,9,452,542,157,848,444,481,247
58444,87,197,396,224,445,577,218,576,425,234,352,-171,339,507,446,68,-151,146,533,318,148,511,282,146,9,409,427,201,867,429,430,145
58445,81,190,409,252,439,597,211,505,428,236,337,-140,335,506,425,70,-85,98,516,320,153,513,318,155,-7,374,418,219,879,394,399,68
58446,48,154,409,250,450,577,169,493,413,220,309,-175,326,461,410,108,-89,94,493,278,138,473,312,120,-32,366,437,123,835,322,360,32
58447,64,168,407,242,485,600,175,542,414,251,316,-195,335,462,420,139,-103,98,498,285,146,469,216,98,-58,359,383,134,828,337,371,65
58448,43,135,391,247,465,554,135,577,399,219,286,-217,335,449,381,157,-109,77,476,245,125,457,261,84,-77,314,369,126,843,359,365,56
58449,34,144,388,241,457,573,165,609,421,215,300,-162,364,459,383,152,-127,142,496,245,128,456,298,104,-88,335,423,145,865,363,356,42
58450,86,198,407,240,470,592,200,532,427,239,334,-152,339,479,439,179,-119,136,492,270,185,434,232,96,-79,342,423,123,825,355,353,31
58451,56,159,376,224,464,572,160,510,425,214,280,-152,317,461,441,124,-149,111,464,244,129,438,247,78,-99,290,308,53,769,321,326,60
58452,21,134,352,230,449,556,155,517,416,244,263,-169,324,460,431,85,-152,100,437,232,74,413,246,53,-109,268,315,76,777,314,285,30
58453,20,137,362,231,446,539,113,497,416,222,246,-197,322,460,367,112,-154,90,435,217,53,408,214,34,-138,283,296,74,770,324,315,36
58454,-6,68,317,212,410,507,107,493,391,174,244,-191,310,447,298,16,-191,73,453,205,35,337,246,52,-124,252,264,84,780,347,328,38
58455,-2,98,301,219,434,548,146,502,403,191,275,-158,315,467,334,51,-209,112,475,214,25,348,285,72,-104,255,266,123,784,313,293,-47
58456,46,123,350,205,445,561,147,505,426,190,259,-181,338,461,314,78,-275,113,479,216,1,383,200,73,-100,270,282,165,793,316,294,-20
58457,56,128,348,204,444,555,170,499,409,194,244,-191,347,456,311,72,-210,103,478,203,-11,313,239,83,-122,245,280,137,778,262,236,-77
58458,21,111,316,195,461,578,149,513,402,196,297,-130,352,467,334,83,-211,115,500,176,-7,262,289,100,-114,244,301,88,768,247,226,-150
58459,17,94,296,192,461,589,116,512,407,191,315,-148,343,444,365,62,-228,121,499,188,0,294,285,109,-109,251,235,53,757,276,246,-77
58460,13,136,309,186,452,573,189,458,401,193,242,-185,307,439,349,36,-184,104,487,205,5,275,292,101,-113,258,238,109,787,276,259,-77
58461,15,135,228,204,458,550,154,472,395,203,233,-169,325,462,364,79,-170,116,507,235,61,300,237,142,-81,287,343,269,867,325,296,-7
58462,9,129,251,220,440,520,82,536,397,195,235,-190,320,455,377,55,-212,86,491,219,47,260,241,120,-90,273,353,122,792,297,275,-23
58463,-15,114,325,176,412,524,111,478,375,183,258,-188,286,452,378,10,-264,32,465,201,29,218,244,93,-113,254,312,-50,740,265,250,-80
58464,10,143,373,149,422,556,132,409,355,192,263,-170,298,456,388,43,-172,53,482,215,54,323,214,118,-66,271,310,17,783,338,325,22
58465,14,156,328,187,428,568,146,477,377,201,278,-164,323,455,393,-12,-193,107,504,234,49,392,263,124,-24,278,279,-10,755,329,340,65
58466,6,170,336,198,437,559,176,491,391,220,282,-187,322,471,430,-130,-193,69,498,243,54,393,175,108,-24,277,289,16,745,278,266,52
58467,-9,138,371,215,421,533,138,543,405,200,240,-167,330,459,406,-33,-144,88,492,213,1,346,217,90,-32,233,253,38,779,250,198,-88
58468,-37,83,323,190,408,522,98,512,394,180,230,-174,330,464,370,49,-160,103,482,213,-20,332,289,102,-49,230,283,83,752,205,152,-83
58469,-54,70,307,186,417,488,101,500,390,158,213,-204,288,470,363,31,-238,72,440,195,-17,317,237,58,-53,208,310,56,720,190,137,-93
58470,-73,24,283,165,376,470,32,513,366,180,215,-235,285,461,381,40,-203,40,442,208,4,304,224,53,-86,242,300,82,749,248,217,-72
58471,-30,67,305,189,381,493,90,555,354,180,264,-223,298,466,347,126,-144,28,446,214,37,333,239,59,-81,257,254,79,734,249,236,-14
58472,8,128,357,221,399,495,186,564,385,181,272,-165,317,500,312,173,-75,77,458,218,23,369,245,65,-67,250,277,-17,712,247,263,-25
58473,-17,121,348,195,395,513,140,542,375,201,251,-166,318,481,358,58,-43,97,454,209,36,393,217,87,-78,263,314,-18,723,244,252,-3
58474,-13,102,295,189,387,556,134,517,390,217,275,-128,341,502,394,14,-90,156,475,224,90,433,313,123,-39,282,321,68,770,279,277,19
58475,-23,113,314,194,393,571,135,534,403,251,300,-124,326,515,444,90,-143,159,489,249,115,466,262,139,-27,299,394,73,753,279,327,53
58476,-16,113,331,196,391,585,153,533,382,229,293,-180,315,505,450,120,-153,150,483,261,134,443,272,122,-26,336,412,49,744,301,362,30
58477,-11,121,336,178,395,594,194,492,365,241,331,-156,321,501,475,139,-142,142,519,264,158,456,328,148,17,371,406,53,796,338,394,108
58478,-18,134,273,178,406,571,229,493,355,221,339,-119,334,499,483,195,-186,132,509,280,145,472,290,142,15,367,420,100,826,356,389,91
58479,-29,126,277,174,406,541,167,490,372,216,288,-116,344,533,465,163,-158,164,509,303,164,479,333,157,34,381,433,130,854,371,386,80
58480,-46,111,236,158,404,551,140,384,371,225,295,-193,321,516,459,89,-136,115,478,299,156,482,314,150,24,385,459,90,833,343,390,20
58481,-54,102,210,161,394,540,141,454,370,220,304,-259,302,511,426,144,-141,22,459,263,122,462,177,102,-19,359,448,77,787,300,355,55
58482,11,122,311,189,424,564,182,632,400,227,282,-129,325,525,433,192,-139,113,466,256,150,369,235,91,-3,359,425,69,766,300,374,46
58483,34,126,383,179,420,530,119,547,357,222,250,-98,289,486,404,128,-126,127,456,224,105,347,319,110,-21,325,322,110,785,309,403,51
58484,-4,101,344,164,410,519,106,477,354,204,247,-199,278,460,375,109,-120,91,438,189,53,407,248,81,-51,274,315,80,760,294,372,39
58485,-4,115,333,156,389,545,183,470,365,187,285,-197,277,464,410,132,-130,134,419,186,79,442,239,57,-57,289,382,76,731,277,318,77
58486,-6,131,339,170,402,535,172,478,389,219,324,-183,303,483,432,193,-132,169,444,224,130,457,307,88,-61,313,423,105,772,318,392,169
58487,0,119,339,190,386,540,114,524,380,236,332,-83,342,469,415,128,-174,183,467,223,82,364,341,88,-73,283,350,147,779,289,342,105
58488,12,131,349,226,407,557,150,536,401,217,283,-57,320,453,399,121,-87,161,475,205,53,393,372,100,-59,266,277,119,755,268,251,-51
58489,25,141,341,230,413,552,196,501,394,238,260,-74,318,425,405,158,-53,158,482,225,85,391,305,110,-68,273,282,171,753,266,241,-98
58490,29,177,340,242,439,578,214,531,406,242,310,-82,357,447,444,15,-51,159,485,227,103,385,280,123,-35,295,331,237,783,317,317,-52
58491,-3,178,317,234,426,597,211,509,410,212,340,-152,308,466,434,68,-77,127,459,217,92,415,272,96,-45,301,358,206,811,319,373,17
58492,-15,146,332,232,423,565,182,522,397,193,329,-164,308,456,396,164,-75,121,461,197,81,394,279,102,-69,295,374,211,803,286,361,57
58493,10,167,327,249,421,544,187,564,412,193,299,-158,336,442,392,122,-90,138,450,181,84,400,324,104,-85,274,368,182,782,253,286,19
58494,4,151,327,229,397,541,182,559,413,190,327,-176,311,413,401,175,-129,86,425,170,76,473,266,82,-115,245,378,125,734,240,251,15
58495,5,165,354,221,432,571,212,548,406,203,324,-158,315,448,418,213,-102,107,441,203,110,504,275,73,-61,278,391,223,816,317,318,97
58496,2,156,365,239,453,579,206,530,409,234,292,-145,328,476,458,179,-113,106,470,227,136,502,342,121,-24,329,383,250,859,388,416,189
58497,-33,124,312,227,416,556,183,523,396,235,254,-166,312,458,472,156,-183,95,471,238,155,521,318,107,-55,334,431,237,780,317,379,153
58498,6,162,295,224,413,557,216,488,401,217,286,-175,282,432,461,126,-182,39,446,207,152,493,200,59,-106,293,417,96,692,237,335,81
58499,49,190,397,269,421,542,197,552,422,207,325,-130,316,436,336,154,-116,41,475,204,143,527,195,62,-112,269,402,13,680,225,319,108
58500,25,153,380,261,414,523,156,593,416,188,296,-143,350,455,353,151,-93,99,486,207,108,513,256,113,-67,273,414,80,739,258,298,92
58501,11,144,373,289,410,525,127,659,436,167,273,-91,387,476,402,221,-104,199,529,234,136,474,356,179,-33,299,421,189,834,325,353,70
58502,41,164,367,276,411,546,177,660,437,167,297,-65,401,472,385,255,-112,206,558,251,134,507,352,185,-5,289,392,205,861,361,364,89
58503,83,187,419,251,427,547,249,555,413,204,341,-75,380,484,411,188,-50,189,542,257,162,508,295,176,-9,320,405,166,811,354,341,98
58504,31,153,416,251,408,503,173,580,419,163,299,-107,386,482,389,188,-68,184,528,244,140,461,362,160,-50,303,398,60,769,296,291,-6
58505,10,164,404,271,394,501,168,646,433,155,268,-68,411,486,370,208,-96,196,524,228,75,443,332,127,-72,272,299,-16,696,250,265,16
58506,-19,150,374,300,409,518,185,689,463,175,308,-99,431,484,385,143,-116,157,514,214,79,401,283,120,-76,293,308,22,700,265,243,5
58507,-7,144,358,255,395,520,192,583,453,188,292,-112,364,485,373,136,-159,95,498,222,75,407,239,96,-82,304,324,72,726,285,294,-3
58508,-5,140,375,238,393,513,139,607,437,175,243,-72,350,487,381,83,-212,159,505,261,63,438,263,120,-56,313,306,52,771,324,334,38
58509,-27,111,347,227,364,466,78,624,428,168,266,-89,360,463,399,76,-196,168,498,245,83,450,279,134,-76,309,337,-10,758,307,324,47
58510,-28,106,358,216,373,480,99,590,409,195,323,-132,329,455,390,128,-210,151,473,219,92,434,335,111,-116,285,324,-49,675,235,255,-29
58511,-19,133,337,227,396,483,140,592,416,169,238,-125,352,457,355,130,-181,135,464,233,68,439,321,83,-132,268,315,-25,667,203,229,-3
58512,5,171,410,248,408,507,141,602,419,175,232,-69,372,491,381,110,-194,145,464,224,75,354,273,80,-122,267,289,5,654,220,248,3
58513,38,175,432,234,421,552,165,553,436,213,324,-49,363,517,424,108,-207,160,480,226,89,342,332,97,-94,279,298,-37,661,217,273,8
58514,41,172,422,248,421,528,173,571,445,199,274,-24,350,520,404,6,-105,180,481,231,92,457,312,77,-78,271,354,0,680,221,227,-102
58515,39,187,417,262,418,530,166,600,417,179,269,-82,360,481,381,111,-168,142,444,210,57,496,206,42,-102,267,366,77,718,254,264,-46
58516,60,201,403,276,436,548,178,512,430,181,293,-132,344,480,359,125,-124,111,446,206,27,447,202,68,-112,252,282,113,768,335,340,97
58517,34,200,410,269,437,554,189,491,451,162,303,-135,330,480,369,133,-147,114,468,218,60,394,244,99,-78,275,300,89,833,387,395,110
58518,23,181,327,274,441,552,169,669,457,173,290,-58,391,503,374,158,-132,183,490,226,82,355,303,120,-48,284,338,102,839,347,333,62
58519,41,196,345,255,433,537,165,687,403,180,297,-30,366,496,380,120,-93,219,517,238,73,414,344,159,-13,280,356,208,848,291,280,-18
