,Fp1,Fp2,F7,F3,Fz,F4,F8,FC5,FC1,FC2,FC6,T7,C3,Cz,C4,T8,TP9,CP5,CP1,CP2,CP6,TP10,P7,P3,Pz,P4,P8,PO9,O1,Oz,O2,PO10
13890,-430,-285,83,-117,-114,393,209,227,-69,125,291,482,460,183,201,176,411,186,172,267,45,515,386,337,229,448,566,211,563,256,276,529
13891,-449,-305,44,-183,-137,366,234,86,-111,111,290,489,407,163,174,124,386,129,125,224,5,441,314,257,173,395,526,69,461,130,204,495
13892,-519,-324,30,-146,-131,329,199,87,-80,97,136,509,434,187,156,123,377,134,141,220,-11,451,326,266,179,377,504,98,460,157,230,551
13893,-493,-401,85,-133,-119,307,176,143,-64,87,61,551,448,179,121,117,367,166,146,213,-21,418,351,272,192,357,499,153,471,199,239,520
13894,-367,-426,154,-144,-104,338,74,109,-72,97,161,514,440,177,138,132,354,175,132,207,-2,402,371,262,190,375,521,107,474,190,246,591
13895,-305,-361,156,-200,-104,377,112,82,-86,107,165,489,406,173,150,147,351,143,133,204,-2,435,340,260,183,379,531,83,485,199,247,589
13896,-372,-306,116,-164,-99,366,233,68,-97,92,178,417,386,178,137,136,319,106,105,197,-44,398,271,221,161,348,482,68,439,135,187,566
13897,-455,-363,78,-170,-99,277,270,85,-92,101,153,369,389,174,134,133,305,92,121,186,-46,412,247,216,159,350,475,57,445,113,178,598
13898,-439,-470,47,-223,-102,262,222,71,-126,87,141,303,356,200,140,118,308,59,111,165,-31,321,254,206,138,313,471,28,417,85,147,562
13899,-495,-455,-1,-256,-111,328,194,22,-152,77,138,297,320,175,116,82,254,-2,72,140,-69,225,193,163,106,284,423,-80,354,21,90,493
13900,-510,-436,-34,-219,-114,293,90,-22,-121,65,123,344,354,187,110,26,216,60,97,168,-84,338,179,178,134,293,443,-60,373,47,101,463
13901,-445,-444,-30,-200,-118,252,23,-13,-94,64,119,359,359,195,140,20,243,47,119,210,-52,399,199,190,152,318,449,-14,390,73,122,444
13902,-432,-416,-15,-173,-118,282,77,76,-90,98,151,411,369,208,162,54,264,42,129,234,-36,392,209,209,169,343,398,27,400,76,116,449
13903,-423,-366,-11,-160,-131,271,136,63,-93,103,176,432,374,218,170,55,216,28,129,235,-35,357,195,219,166,323,370,50,404,74,112,504
13904,-359,-335,65,-174,-121,212,162,73,-89,101,176,418,409,234,178,76,261,77,148,249,-3,389,276,258,180,361,401,123,454,113,133,492
13905,-372,-301,61,-169,-105,227,179,39,-91,95,164,403,390,214,181,63,320,93,150,238,-71,360,303,278,162,339,367,121,458,113,144,485
13906,-431,-326,5,-186,-122,244,134,-1,-86,91,158,385,381,214,167,44,246,94,148,215,-107,342,275,270,154,330,369,70,453,104,112,468
13907,-489,-347,-28,-192,-131,227,102,-8,-95,84,130,343,377,218,132,24,214,67,139,194,-123,303,213,241,156,305,347,76,457,118,108,434
13908,-475,-313,-3,-178,-127,212,168,64,-106,80,106,353,398,231,131,17,262,54,133,219,-100,300,233,251,170,327,372,156,522,182,176,465
13909,-445,-318,38,-164,-134,174,224,112,-98,55,118,387,415,233,150,46,270,92,158,230,-73,290,257,282,189,352,373,151,525,177,175,486
13910,-473,-391,-10,-189,-133,203,128,117,-108,65,146,372,412,231,170,87,216,103,150,235,-61,365,270,286,201,366,409,128,487,136,186,573
13911,-517,-342,-26,-215,-128,261,134,47,-113,93,189,343,393,216,189,90,256,96,146,255,-35,378,296,286,203,392,415,135,466,122,187,603
13912,-531,-315,40,-139,-127,325,181,23,-116,119,212,389,395,230,200,96,323,131,169,260,-20,397,327,323,221,397,404,152,494,147,186,572
13913,-525,-295,20,-118,-108,368,279,41,-113,116,191,340,394,206,211,100,344,129,168,274,-11,419,295,326,224,411,419,101,489,141,202,536
13914,-479,-347,-70,-130,-100,399,307,71,-96,138,192,373,399,199,220,91,366,97,172,280,0,376,302,325,246,415,443,129,525,191,211,499
13915,-522,-437,-132,-180,-108,333,167,-44,-102,125,179,426,422,218,221,112,311,174,187,279,42,438,362,330,276,440,498,170,590,254,291,661
13916,-488,-467,-119,-187,-132,203,49,-53,-79,94,144,490,437,242,206,124,269,191,225,298,33,417,401,359,276,464,486,204,614,274,285,579
13917,-534,-471,-101,-172,-118,224,91,203,-72,77,154,440,420,236,195,102,268,156,212,298,28,409,347,364,292,441,480,189,618,279,282,584
13918,-522,-400,-74,-179,-92,276,140,47,-101,102,176,429,429,234,216,158,290,187,233,303,56,436,368,373,310,486,506,191,651,301,311,608
13919,-487,-367,-57,-169,-83,279,136,-6,-93,95,138,399,412,240,183,191,271,166,200,283,31,387,367,363,299,464,464,154,615,277,241,516
13920,-395,-279,-23,-152,-71,304,160,34,-96,82,113,380,404,227,156,151,248,126,187,264,-6,341,324,344,257,407,447,132,566,182,154,429
13921,-278,-129,46,-146,-40,328,247,30,-95,73,176,379,391,203,167,95,242,106,159,235,-21,316,292,304,221,360,389,105,511,138,136,436
13922,-249,-165,70,-127,-47,344,238,15,-101,61,173,362,393,180,138,-53,226,100,161,205,-44,296,283,289,212,326,371,-34,460,96,154,498
13923,-266,-261,17,-177,-87,320,181,-18,-115,35,115,305,356,172,88,-76,179,78,139,180,-89,258,269,273,161,297,338,-114,416,26,80,351
13924,-245,-199,32,-170,-57,309,183,-1,-102,45,111,318,363,172,106,54,203,81,131,191,-88,263,248,239,152,293,335,24,434,58,69,327
13925,-216,-207,74,-147,-48,292,204,24,-112,48,109,357,388,192,112,16,209,72,136,183,-97,267,240,248,158,288,327,71,461,104,86,388
13926,-171,-235,84,-134,-48,389,207,4,-106,73,142,329,371,186,118,9,183,66,135,185,-87,259,215,249,154,298,310,65,447,69,67,407
13927,-170,-184,52,-138,-51,421,214,-40,-83,71,157,277,352,176,117,30,136,41,118,189,-93,250,191,236,152,280,298,48,426,43,43,361
13928,-144,-90,57,-117,-50,367,197,-20,-97,54,119,273,359,170,100,8,109,7,96,160,-136,234,164,201,133,238,276,-6,394,10,3,316
13929,-131,-57,35,-112,-42,382,256,16,-109,32,128,291,340,168,82,-8,129,7,72,136,-155,243,178,176,96,223,251,-23,367,3,36,410
13930,-181,9,-42,-116,-42,402,227,29,-94,46,155,264,337,154,85,1,133,13,83,162,-120,266,191,170,126,266,291,-10,399,60,99,548
13931,-232,22,-39,-57,-56,397,-30,67,-76,58,166,267,382,160,128,6,146,19,110,199,-118,292,226,221,155,304,348,34,446,120,134,601
13932,-164,32,-16,-94,-58,422,44,85,-80,58,176,286,380,166,156,7,142,36,107,187,-113,178,221,219,147,301,321,64,438,80,99,470
13933,-57,60,6,-74,-56,393,282,26,-84,62,176,262,372,155,139,-6,158,67,89,159,-124,149,185,200,111,244,234,43,408,10,25,328
13934,-5,119,47,-21,-45,350,431,89,-57,67,189,311,408,166,139,29,224,49,95,165,-111,208,172,200,122,263,248,40,400,-13,4,322
13935,-36,127,40,-2,-42,352,442,109,-72,56,199,343,406,157,144,52,231,14,96,154,-118,209,192,178,89,268,249,45,366,-19,7,355
13936,-59,53,50,-22,-60,405,428,108,-83,44,191,365,398,157,133,37,169,38,98,135,-127,102,222,175,92,233,230,57,363,-7,-4,323
13937,-118,69,58,-8,-32,398,336,101,-52,60,152,365,388,173,142,37,195,52,106,167,-112,198,213,171,127,276,292,-1,371,9,41,363
13938,-99,67,70,-4,-44,389,71,92,-62,58,133,344,377,167,129,17,214,69,97,163,-125,287,213,167,106,280,285,-69,347,0,36,316
13939,-74,-7,17,-76,-45,522,231,89,-76,70,192,328,382,194,142,53,217,46,114,167,-102,314,229,173,115,299,284,-18,388,58,105,428
13940,-64,-67,-16,-113,-50,438,300,71,-93,59,184,321,377,184,140,45,275,21,115,189,-82,328,251,193,131,303,323,61,445,86,139,498
13941,-81,-25,-1,-95,-71,352,267,20,-119,53,134,291,355,164,124,28,172,22,96,147,-84,318,244,168,106,280,319,15,425,63,105,469
13942,-146,56,20,-106,-55,397,261,4,-106,82,176,310,345,168,130,36,133,26,79,145,-109,242,239,152,83,237,261,-15,373,-2,9,266
13943,-141,92,39,-150,-64,357,240,18,-105,96,204,271,353,171,142,52,139,3,65,154,-93,277,246,167,100,274,307,42,427,51,60,337
13944,-94,66,55,-158,-55,354,269,-6,-112,94,189,264,341,174,145,59,177,29,68,183,-96,256,320,164,112,298,299,41,427,53,60,311
13945,-115,77,68,-149,-59,393,256,-53,-120,89,187,278,332,173,150,50,189,50,74,171,-97,272,276,158,118,289,325,-10,413,49,72,392
13946,-74,138,82,-130,-59,364,310,11,-124,86,210,258,349,163,139,67,166,-17,71,170,-93,279,209,152,117,283,322,6,419,53,69,429
13947,-26,106,127,-65,-35,389,338,87,-123,86,216,325,355,186,145,72,231,17,99,186,-100,263,218,170,117,270,267,26,432,58,57,406
13948,-40,70,158,-69,-34,431,288,96,-122,90,222,319,358,189,143,66,254,35,90,160,-131,251,191,177,117,270,261,70,436,101,84,465
13949,14,89,159,-119,-24,436,307,156,-111,128,248,324,341,183,156,65,290,-3,93,158,-113,207,187,167,121,272,301,62,437,92,73,403
13950,-39,61,41,-173,-61,434,308,15,-133,123,221,331,329,169,144,58,182,-5,84,143,-133,196,229,154,100,250,281,38,440,60,60,333
13951,-32,76,101,-136,-44,406,365,-12,-115,113,168,321,315,177,137,69,171,-2,77,148,-118,237,252,166,105,256,303,67,473,63,86,336
13952,-92,87,67,-139,-69,364,346,14,-131,73,149,260,287,159,100,95,169,-31,53,108,-183,242,249,149,64,213,270,34,448,58,57,331
13953,-124,122,13,-142,-62,348,262,41,-125,59,124,235,311,136,72,101,134,-37,49,89,-213,215,236,126,35,183,199,21,445,72,51,370
13954,-116,148,36,-125,-54,374,264,60,-106,57,88,193,309,144,81,37,110,-62,49,95,-229,179,168,136,19,185,185,52,442,87,69,325
13955,-137,166,-5,-114,-59,422,374,34,-123,73,182,191,310,148,92,-59,72,-84,34,72,-246,157,117,121,-2,168,188,59,435,57,20,319
13956,-182,150,-41,-129,-54,448,391,-84,-126,84,203,190,275,155,73,-188,67,-77,21,65,-235,182,126,118,0,155,180,5,388,-55,-31,329
13957,-208,19,-120,-155,-70,431,89,-59,-128,65,135,136,270,164,57,-112,52,-86,18,74,-244,185,87,98,15,175,196,-87,379,-25,-4,328
13958,-212,-85,-133,-153,-87,376,9,30,-129,78,79,128,291,155,70,-54,88,-117,23,75,-243,171,66,81,14,182,201,-41,374,16,4,314
13959,-207,-95,-123,-181,-92,440,274,-2,-143,88,81,131,267,146,86,-81,70,-151,17,71,-231,155,26,76,0,193,205,-28,382,1,7,313
13960,-183,-67,-87,-189,-83,429,369,-151,-154,67,125,124,243,153,101,-35,9,-127,18,110,-192,166,67,95,29,232,234,4,420,57,60,336
13961,-188,-55,-60,-189,-82,388,270,-154,-154,61,146,139,260,136,118,-21,0,-100,14,131,-153,161,100,110,64,257,277,0,419,37,43,289
13962,-164,-68,-51,-192,-96,374,277,-148,-149,81,156,154,262,159,129,-16,3,-104,27,148,-134,161,56,96,64,279,282,-25,386,16,53,318
13963,-123,6,-17,-207,-84,363,300,-127,-153,80,151,123,261,139,132,-5,30,-118,20,157,-130,221,41,88,67,267,282,-68,337,-13,83,355
13964,-127,-39,5,-185,-77,412,315,-83,-133,94,195,165,270,147,166,24,54,-98,29,176,-104,208,71,78,86,302,327,-64,344,16,108,463
13965,-127,-126,8,-203,-88,462,243,-202,-135,105,187,166,278,157,170,26,75,-85,18,158,-90,212,66,78,74,319,346,-27,365,60,124,479
13966,-152,-14,0,-199,-93,471,195,-308,-130,100,185,179,266,159,183,41,79,-88,35,171,-64,206,62,72,99,330,371,-6,395,92,190,544
13967,-146,101,-5,-113,-79,435,217,26,-114,97,183,177,293,164,170,25,66,-88,42,196,-55,163,79,84,116,325,378,-54,382,98,175,536
13968,-141,186,47,-100,-75,396,263,117,-102,104,174,221,321,171,169,67,98,-64,50,201,-34,166,124,88,111,336,363,-69,377,104,168,471
13969,-134,212,79,-111,-89,378,331,63,-135,85,199,225,308,147,171,110,69,-38,44,181,-34,71,129,84,105,337,367,-53,380,96,163,463
13970,-102,134,89,-79,-76,393,308,70,-115,89,227,258,338,185,179,97,118,0,70,201,-28,179,181,133,115,353,370,-47,394,68,141,379
13971,-124,108,51,-108,-81,362,247,18,-109,93,186,244,312,187,174,67,156,-84,72,225,-26,287,97,115,132,361,351,-72,387,97,164,397
13972,-112,88,40,-117,-97,347,323,-23,-127,87,155,249,303,183,188,62,96,-78,65,222,-21,326,114,123,149,378,306,-1,409,111,181,387
13973,-81,40,45,-122,-93,376,337,-5,-103,77,195,270,329,193,187,76,57,-43,90,228,-18,293,121,151,156,392,354,13,443,165,256,487
13974,-110,130,59,-147,-90,396,314,-13,-117,84,201,256,319,193,206,101,95,-65,81,229,-3,285,105,130,140,414,444,8,461,222,296,578
13975,-125,221,78,-163,-90,414,342,-2,-121,106,215,246,318,194,238,126,140,-48,81,241,7,294,121,132,148,417,454,8,443,180,259,507
13976,-137,208,19,-130,-77,448,352,24,-115,110,249,243,327,186,233,143,143,-40,73,241,10,320,120,138,136,416,415,-36,433,159,258,491
13977,-152,148,-12,-86,-95,442,353,100,-114,99,249,204,352,189,217,143,189,-26,76,229,19,341,137,128,136,416,426,-30,464,156,283,512
13978,-120,52,-14,-50,-67,461,397,141,-113,117,209,189,346,191,236,156,256,-72,79,239,28,320,120,125,134,430,450,7,471,179,292,504
13979,-59,69,-34,-70,-45,466,433,74,-114,121,235,204,339,194,248,198,227,-13,79,244,30,245,184,147,145,443,477,53,480,196,342,543
13980,-42,81,27,-80,-40,496,356,81,-105,136,288,304,389,214,263,224,159,78,112,263,64,397,263,191,170,468,552,95,531,226,368,631
13981,-65,46,65,-118,-48,521,365,112,-76,124,290,320,376,201,265,227,128,33,116,272,77,458,263,164,177,448,546,113,531,209,331,542
13982,-129,54,99,-64,-53,542,394,108,-86,119,301,364,379,188,269,215,166,3,87,244,65,459,260,147,153,431,533,127,505,195,352,550
13983,-112,90,94,-80,-43,540,395,104,-81,108,317,365,379,187,247,177,258,42,75,216,38,459,280,154,128,410,575,123,505,204,330,631
13984,-38,139,177,-34,-28,551,441,108,-75,109,306,395,386,163,234,194,265,56,81,211,33,436,307,143,118,394,573,46,483,172,280,623
13985,19,158,276,-13,-34,508,412,100,-92,96,296,419,401,149,200,186,270,61,71,188,-4,401,308,128,77,359,510,23,435,123,239,593
13986,43,180,308,-18,-32,487,415,100,-85,99,312,423,399,129,215,248,296,55,74,194,7,416,286,128,89,366,534,179,454,131,261,629
13987,65,248,314,-32,-26,479,465,162,-80,125,300,440,405,135,225,312,318,69,91,212,44,381,291,127,119,387,582,201,466,141,245,642
13988,67,256,272,-33,-5,471,422,185,-76,111,301,397,394,151,234,272,296,55,75,207,54,377,262,104,112,383,615,154,422,77,178,612
13989,39,276,250,-18,-10,473,398,185,-70,108,306,356,363,154,245,161,249,23,82,207,54,434,210,81,89,367,603,68,354,31,145,550
13990,85,305,284,-15,-23,484,446,237,-62,127,317,373,389,145,233,24,204,8,70,199,24,471,186,63,74,340,559,-6,298,-5,158,582
13991,111,293,304,-17,-14,467,422,214,-54,111,275,349,402,167,198,99,214,4,63,182,-32,419,154,40,52,302,468,-26,268,-45,97,609
13992,70,291,246,-36,-5,482,375,78,-56,113,249,323,371,168,180,150,184,-46,53,149,-63,381,123,16,35,267,350,-75,178,-132,16,535
13993,30,300,188,-35,16,481,378,72,-73,113,239,290,361,168,163,124,139,-68,45,126,-71,365,93,20,18,234,324,-94,168,-176,-1,495
13994,11,238,171,-34,7,458,384,106,-99,74,216,265,330,131,138,63,90,-96,-1,82,-136,286,54,-32,-29,157,229,-165,117,-240,-80,377
13995,18,183,161,6,7,472,387,158,-96,74,220,265,322,123,142,46,84,-100,-20,72,-155,258,77,-32,-33,133,193,-183,69,-262,-139,278
13996,2,154,128,52,22,456,378,163,-80,89,195,261,358,136,135,43,114,-69,7,84,-152,252,121,-14,-21,151,207,-150,89,-231,-126,307
13997,-2,167,127,44,20,469,396,153,-60,106,212,258,355,152,135,64,115,-77,7,83,-140,260,76,-28,-39,172,239,-170,75,-252,-115,415
13998,-3,158,137,2,-3,460,367,119,-75,65,198,204,318,113,112,37,59,-109,-24,53,-165,213,5,-62,-78,126,209,-182,38,-256,-134,362
13999,32,201,139,1,3,497,368,-32,-83,73,229,208,303,88,104,10,30,-99,-45,42,-198,187,-1,-76,-97,107,174,-189,34,-267,-180,262
14000,64,257,187,-6,17,540,404,-46,-77,107,280,230,311,93,110,27,58,-55,-31,49,-176,167,-1,-33,-82,104,146,-212,49,-283,-179,223
14001,80,191,227,-15,12,481,397,218,-88,107,287,190,319,101,140,41,94,-67,4,58,-162,161,-2,-13,-74,136,198,-239,77,-279,-155,287
14002,79,151,195,-27,9,421,334,144,-80,101,200,215,343,119,141,81,58,-82,12,89,-114,204,25,-7,-25,167,274,-224,93,-244,-122,326
14003,68,175,185,-41,-9,424,381,87,-82,77,144,272,352,118,125,72,9,-34,28,82,-108,162,91,8,-23,165,280,-144,120,-199,-90,303
14004,45,202,208,-50,7,516,275,105,-80,106,172,296,372,128,132,95,43,-2,44,109,-122,140,88,22,-7,179,264,-120,134,-180,-98,321
14005,38,175,196,-56,12,568,187,102,-88,105,170,260,350,114,140,89,40,-73,27,105,-119,166,40,23,-6,170,287,-130,153,-171,-79,350
14006,83,182,199,-26,20,566,349,118,-66,109,216,262,365,128,160,109,52,-47,56,123,-107,184,51,42,13,205,296,-84,214,-123,-37,365
14007,90,205,181,-37,-3,519,468,70,-86,89,206,238,348,133,138,79,63,-30,44,121,-106,159,62,30,10,200,274,-103,209,-135,-74,300
14008,74,233,189,-42,-7,453,473,65,-63,96,188,241,364,140,149,90,110,-26,49,135,-75,181,118,56,24,237,325,-47,263,-87,-25,355
14009,59,183,205,-35,-2,478,423,84,-77,90,202,249,356,143,151,55,85,-55,40,119,-98,185,141,66,25,216,281,-43,294,-52,-4,370
14010,76,273,154,-26,30,544,490,107,-87,116,250,295,357,133,156,95,97,25,60,146,-90,209,238,92,53,240,293,-108,282,-55,0,373
14011,84,374,124,8,41,576,547,145,-70,143,281,316,383,127,190,112,130,47,59,159,-76,218,252,117,72,270,308,-97,309,-54,17,434
14012,100,406,150,9,42,511,437,180,-65,132,251,306,376,122,204,131,173,-2,63,155,-60,218,131,92,76,259,296,-101,293,-47,14,430
14013,76,390,176,13,39,474,374,216,-75,113,253,324,373,121,193,112,95,12,71,157,-62,243,93,74,60,261,303,-139,246,-108,0,473
14014,69,373,202,43,40,513,413,225,-60,133,271,351,393,142,223,120,74,40,72,183,-63,246,126,113,65,252,302,-108,255,-119,-4,429
14015,94,343,179,3,19,533,417,130,-83,121,288,332,364,127,203,127,108,17,71,179,-49,247,101,112,56,246,296,-80,245,-93,-16,393
14016,128,310,206,-6,22,558,407,191,-71,135,291,354,397,125,200,120,112,33,83,177,-74,269,94,95,69,256,309,-82,259,-80,11,395
14017,142,327,237,18,22,564,372,147,-51,134,300,353,400,147,222,120,139,45,86,184,-73,282,98,109,79,259,329,-60,267,-71,22,379
14018,116,318,163,8,14,534,352,116,-70,123,249,313,387,140,202,84,142,32,82,168,-84,251,97,101,72,261,317,-102,251,-60,34,402
14019,43,281,103,-21,11,565,350,131,-85,128,185,318,356,127,192,92,132,6,64,169,-88,230,81,80,69,276,335,-129,247,-58,44,404
14020,20,266,157,-44,1,514,342,58,-99,104,191,296,316,138,187,74,167,-7,52,152,-85,238,81,67,79,290,330,-98,267,-64,42,434
14021,55,274,191,-19,22,471,402,149,-80,115,247,268,347,151,204,90,163,-33,64,175,-76,255,69,98,81,298,357,-87,274,-28,57,427
14022,30,271,151,21,20,430,408,170,-50,102,233,325,349,127,205,84,168,-12,67,183,-66,243,85,87,59,296,361,-60,273,-40,47,371
14023,6,205,121,4,4,439,364,154,-83,97,220,306,354,135,185,91,106,10,76,192,-59,244,124,87,79,305,377,-49,290,-9,67,360
14024,9,153,126,-31,-9,468,368,130,-103,72,225,266,360,155,184,97,94,-12,84,193,-34,236,116,87,92,329,421,-59,274,-16,107,421
14025,16,205,110,-93,-13,521,442,106,-92,79,245,281,335,162,191,85,80,-29,53,182,-53,195,94,58,68,323,418,-83,256,-17,121,446
14026,21,236,123,-105,-10,596,535,116,-103,119,272,244,319,182,195,115,67,-20,76,189,-53,208,96,61,66,314,384,-91,290,-13,104,434
14027,19,231,188,-100,-22,548,450,103,-118,106,240,257,328,141,170,80,52,-4,59,158,-80,184,77,48,40,269,331,-150,240,-78,27,340
14028,0,205,156,-94,-12,433,299,5,-109,86,204,334,334,157,192,68,109,-3,70,185,-84,235,106,85,54,267,353,-118,248,-85,30,370
14029,21,270,114,-121,-12,505,348,-67,-123,107,247,343,283,149,217,116,143,-29,54,179,-61,233,121,57,62,276,376,-101,262,-69,45,420
14030,-5,311,110,-101,-9,539,371,-5,-114,131,272,330,310,150,207,178,107,1,59,174,-67,227,133,41,55,269,367,-119,245,-66,41,428
14031,42,324,85,-66,9,525,424,42,-88,130,283,334,327,158,223,192,115,29,62,178,-67,243,135,58,60,266,401,-86,253,-28,44,452
14032,57,302,90,-61,14,490,468,45,-100,115,254,325,330,153,237,127,110,-2,46,181,-55,217,144,44,27,276,411,-71,257,-22,45,428
14033,40,311,150,-96,0,512,489,8,-107,111,209,316,310,153,225,-25,76,-25,34,174,-51,221,141,40,28,263,382,-70,263,-20,47,440
14034,40,316,156,-45,-15,495,477,39,-95,96,213,301,311,163,189,-47,78,-8,28,153,-85,251,145,49,23,263,352,-65,273,-20,78,508
14035,-2,279,128,-59,-20,467,403,57,-93,93,217,282,340,169,190,87,97,11,62,152,-89,274,184,67,46,271,387,-48,331,31,138,579
14036,-42,266,128,-37,-15,494,396,49,-84,109,215,276,337,191,205,58,111,7,62,175,-60,200,161,53,48,288,364,-21,335,6,104,447
14037,-53,274,124,-69,-25,504,396,-8,-96,113,212,258,338,183,214,62,107,-9,50,176,-54,173,114,50,38,279,359,-14,316,0,74,430
14038,-30,286,142,-100,-19,532,440,-219,-96,123,249,319,304,179,234,82,140,-45,78,204,-27,239,121,53,66,291,387,-33,300,9,111,484
14039,16,259,138,-102,-11,573,517,28,-97,133,296,310,322,199,248,94,139,-39,77,207,-57,249,119,47,64,256,312,-69,283,-31,83,450
