,Fp1,Fp2,F7,F3,Fz,F4,F8,FC5,FC1,FC2,FC6,T7,C3,Cz,C4,T8,TP9,CP5,CP1,CP2,CP6,TP10,P7,P3,Pz,P4,P8,PO9,O1,Oz,O2,PO10
127392,-37,120,383,-412,-204,124,101,-43,-281,2,134,369,118,10,91,42,341,119,-16,112,-39,442,310,228,-53,191,292,390,374,21,102,-125
127393,-65,110,339,-359,-194,200,90,0,-249,35,142,404,118,48,125,117,342,151,7,147,-7,457,318,258,-24,236,350,450,428,63,122,-138
127394,-104,37,191,-359,-206,109,64,12,-255,15,116,307,101,53,96,217,243,130,-13,129,2,500,229,205,-36,212,354,370,398,36,120,-42
127395,28,-10,105,-305,-211,6,40,53,-252,-4,64,274,104,24,85,262,243,112,-23,119,-2,474,230,189,-35,204,347,290,370,4,85,33
127396,119,131,49,-349,-214,-41,66,71,-223,4,99,316,122,27,91,177,304,118,-2,145,-13,469,227,203,-14,213,317,261,349,14,95,72
127397,-84,183,-5,-388,-225,-2,75,158,-231,12,90,49,135,17,77,183,260,92,-21,130,-34,463,231,196,-48,204,263,202,305,-13,92,-105
127398,-97,209,46,-265,-207,17,68,-165,-254,9,116,73,74,-1,101,231,228,96,-40,150,-11,479,205,188,-60,212,264,164,298,-20,86,-17
127399,105,185,192,-228,-180,12,0,-107,-223,8,56,231,130,30,87,134,248,118,-26,142,-60,505,204,214,-48,197,238,202,298,-3,104,95
127400,11,124,225,-154,-203,-21,-106,-26,-229,-23,-63,312,143,17,38,184,151,108,-60,73,-92,268,202,167,-112,168,209,178,284,-54,59,74
127401,16,107,313,-275,-234,28,-106,9,-244,-24,8,345,134,-23,6,138,108,106,-87,52,-121,251,233,129,-137,124,196,152,263,-80,45,48
127402,-50,149,381,-350,-222,110,-34,6,-266,-9,55,380,110,-1,25,91,181,125,-61,73,-102,251,250,135,-100,134,231,229,291,-43,83,25
127403,80,179,414,-348,-215,-49,1,54,-260,-13,48,350,132,17,46,171,231,140,-51,99,-61,250,216,153,-82,163,291,244,282,-22,109,-5
127404,149,81,354,-394,-220,0,-24,35,-257,-10,60,226,124,17,45,240,276,127,-46,98,-26,327,150,135,-84,167,344,240,285,-28,74,61
127405,140,106,321,-349,-200,93,-37,36,-256,13,97,2,96,26,71,53,307,73,-29,103,-24,312,114,126,-83,189,348,230,305,-31,93,94
127406,100,111,321,-375,-214,81,-73,-24,-283,0,94,236,41,12,73,-75,281,27,-61,92,-72,266,153,115,-97,147,280,231,285,-70,39,-11
127407,-27,58,369,-379,-214,54,-142,-55,-306,17,90,417,46,0,53,-59,237,55,-83,77,-131,264,168,92,-121,115,209,236,279,-86,22,-97
127408,-2,82,319,-378,-226,116,-160,-11,-284,10,76,415,60,7,24,19,219,91,-83,51,-155,269,202,105,-141,85,173,172,265,-72,9,-49
127409,89,116,271,-249,-205,11,-107,29,-251,-21,63,339,69,2,37,77,257,87,-57,60,-138,233,221,131,-129,105,176,161,259,-86,-4,-55
127410,64,66,270,-158,-183,9,-119,64,-244,-3,57,265,104,12,46,52,245,56,-64,69,-144,225,98,95,-135,94,175,151,212,-122,-4,-40
127411,-12,37,213,-161,-213,-14,-108,53,-261,-33,6,308,79,-12,1,18,200,41,-120,24,-198,231,64,48,-182,45,142,40,139,-183,-41,-53
127412,-42,92,213,-195,-224,25,-105,-18,-260,-8,31,363,47,-18,20,13,196,51,-99,29,-183,233,71,29,-163,64,148,90,123,-166,-59,-74
127413,-42,3,263,-288,-174,89,-43,-22,-255,23,99,362,63,9,77,83,258,84,-47,82,-136,285,52,73,-110,111,204,167,156,-134,-19,-125
127414,-181,-62,247,-283,-189,231,-42,38,-256,18,90,60,58,2,74,55,258,55,-75,64,-132,318,9,34,-117,108,229,167,163,-121,-30,-185
127415,-284,116,251,-251,-176,54,-53,116,-231,-5,40,-141,110,-1,36,18,262,14,-79,37,-163,388,-44,10,-137,90,196,91,147,-151,-57,-233
127416,-143,160,276,-249,-150,36,4,195,-210,-1,41,129,120,-4,61,-4,216,54,-61,43,-135,289,27,39,-136,114,206,142,154,-144,-39,-191
127417,64,220,275,-298,-160,2,43,157,-235,-10,-14,238,69,-34,52,-56,138,61,-69,42,-184,243,84,40,-131,107,168,174,173,-127,-19,-130
127418,142,221,271,-317,-184,-90,8,121,-269,-21,-29,266,43,-52,13,34,198,52,-107,39,-194,222,118,39,-136,98,132,103,151,-119,0,-70
127419,242,96,316,-331,-189,3,16,103,-273,0,16,467,35,-51,52,126,212,46,-94,62,-152,318,244,82,-136,129,146,112,204,-77,36,-32
127420,309,13,327,-307,-191,47,-2,93,-267,15,60,576,44,-19,83,158,186,50,-65,82,-76,251,287,78,-109,167,249,116,234,-51,57,-163
127421,249,7,280,-295,-206,46,-34,66,-268,-20,29,539,48,-31,52,163,141,44,-105,89,-78,226,167,53,-97,144,292,137,197,-64,45,-371
127422,103,100,256,-318,-201,55,-26,76,-248,-14,6,385,76,-14,81,115,138,35,-101,109,-55,321,77,52,-99,172,332,144,193,-71,63,-325
127423,-70,138,217,-243,-188,-17,-30,44,-232,-16,68,117,57,18,101,33,197,19,-73,111,-65,286,77,64,-93,171,334,124,187,-59,62,-187
127424,57,131,200,-274,-192,-34,-41,20,-226,-13,2,-16,64,26,72,61,206,-13,-67,104,-72,237,17,46,-95,165,283,78,178,-60,70,-36
127425,80,71,236,-347,-223,90,-100,-322,-276,-27,4,66,19,7,63,-35,158,-36,-71,89,-100,294,-50,43,-105,139,232,105,173,-71,43,52
127426,-183,97,229,-245,-206,-64,-179,-289,-259,-14,-14,184,22,15,24,-112,100,-30,-80,64,-138,333,-46,35,-109,131,213,152,175,-73,42,46
127427,-232,97,238,-272,-205,-42,-199,-87,-261,-13,15,242,43,26,34,-53,82,-4,-79,70,-138,289,6,47,-126,126,165,163,189,-71,51,46
127428,-46,172,246,-286,-210,-46,-207,-48,-271,-28,24,281,31,11,34,47,90,-24,-80,70,-134,236,58,68,-118,118,155,196,211,-73,25,51
127429,196,199,332,-394,-226,-27,-202,-15,-276,-38,7,373,11,21,44,229,172,-30,-80,80,-109,279,134,79,-97,140,217,192,238,-55,49,-8
127430,205,189,366,-418,-174,44,-184,-21,-268,-7,55,474,12,43,66,126,199,-8,-60,98,-69,313,241,109,-81,177,276,148,235,-25,76,-33
127431,100,128,272,-338,-176,53,-159,-83,-286,-10,67,548,-28,10,66,17,198,-9,-71,111,-62,367,297,125,-73,188,290,159,263,4,97,34
127432,89,73,119,-307,-207,41,-84,-135,-289,-3,97,427,-14,22,85,15,151,-27,-60,112,-48,358,271,120,-64,181,294,150,299,42,100,131
127433,7,-39,-15,-274,-193,160,-75,-97,-257,15,84,211,0,50,106,68,124,0,-44,128,-24,309,235,142,-26,210,277,195,307,69,121,142
127434,-162,-43,-78,-336,-222,-66,-143,-115,-262,-13,61,27,27,49,103,83,188,35,-18,150,-43,363,211,165,4,222,291,237,345,89,183,138
127435,-171,-102,-12,-326,-235,-101,-134,-129,-273,-8,46,-269,83,54,96,60,179,67,-11,166,-60,387,150,185,25,232,296,240,360,92,201,155
127436,-144,-161,86,-346,-235,-40,-88,-89,-287,-19,39,-233,67,28,69,67,160,35,-15,134,-84,326,73,149,-5,198,271,264,329,40,138,37
127437,-124,89,270,-321,-215,-12,25,-3,-287,-7,81,-52,69,-3,76,110,152,-7,-29,129,-79,254,66,112,-35,178,240,245,301,10,103,2
127438,-29,296,363,-382,-205,36,152,-49,-316,0,130,61,40,-33,70,168,113,-47,-83,89,-94,296,78,103,-94,145,237,225,239,-42,56,-32
127439,161,314,338,-403,-176,89,141,-28,-315,12,107,7,52,-22,68,228,114,-41,-80,103,-81,335,62,114,-57,141,234,201,233,-50,45,-95
127440,143,222,339,-343,-158,70,64,25,-277,11,76,-11,101,7,110,204,140,-34,-41,137,-35,391,80,134,-34,195,277,202,267,10,84,-128
127441,-168,183,271,-304,-197,46,-90,5,-290,-13,55,-12,65,-25,68,97,115,-76,-73,100,-92,330,68,94,-70,166,241,149,211,-40,24,-173
127442,-150,155,246,-332,-181,131,-102,-85,-307,30,58,157,-2,-19,88,54,117,-39,-71,110,-89,328,152,119,-51,178,236,189,247,-27,67,-122
127443,110,312,294,-347,-172,101,-29,-68,-314,37,95,-4,-25,5,120,24,150,-29,-62,120,-90,331,119,127,-66,170,228,193,280,-32,64,-155
127444,144,269,238,-366,-217,46,-35,-62,-329,5,105,-82,-46,-5,119,90,78,-57,-118,113,-96,338,35,73,-107,135,195,168,202,-71,3,-180
127445,114,122,134,-351,-231,141,-78,-74,-333,16,41,63,-48,-5,93,-3,-14,-84,-128,102,-133,207,0,44,-99,123,181,157,172,-91,-7,-146
127446,34,193,24,-216,-201,171,-32,-107,-299,33,36,217,-19,15,90,-49,47,-47,-91,110,-117,150,38,51,-83,115,180,105,202,-75,5,-118
127447,105,396,25,-276,-170,163,36,-67,-303,35,56,182,-9,17,89,-9,70,-12,-95,100,-101,175,152,64,-97,131,188,25,175,-100,-9,-257
127448,225,533,69,-151,-160,107,18,-121,-301,13,41,-10,-5,10,56,72,-17,-34,-110,80,-136,152,205,53,-126,102,159,28,169,-150,-58,-426
127449,481,681,210,-199,-153,62,77,-358,-327,3,88,5,-20,-4,78,99,-64,-52,-118,71,-128,149,150,50,-124,96,190,121,195,-128,-47,-378
127450,585,654,381,-256,-142,176,126,-142,-302,14,50,107,11,6,106,255,3,-38,-98,102,-74,249,73,45,-121,107,221,119,161,-150,-36,-309
127451,558,556,445,-337,-163,234,19,-100,-296,13,-22,198,9,10,80,415,45,-11,-99,91,-72,318,42,40,-114,111,232,222,189,-137,-37,-314
127452,638,566,547,-452,-146,120,-33,-141,-300,36,125,356,38,33,124,10,69,30,-79,114,-69,386,33,70,-85,136,227,280,243,-75,30,-114
127453,728,589,413,-242,-110,322,-15,-23,-246,68,120,425,49,26,160,-81,140,21,-54,148,-13,442,35,98,-69,167,251,314,255,-39,32,25
127454,466,603,180,-182,-122,227,-66,-19,-239,17,88,214,60,-6,131,-50,169,19,-70,128,-55,346,29,86,-107,143,209,237,200,-94,-3,16
127455,119,386,178,-40,-102,175,-182,113,-212,18,152,-37,102,-17,114,-48,130,16,-80,109,-83,340,60,97,-94,129,230,153,195,-103,-2,55
127456,216,384,242,-69,-124,114,-110,26,-219,27,133,20,130,-12,112,0,166,52,-45,96,-58,343,164,146,-89,147,254,185,247,-69,12,36
127457,370,597,266,-132,-127,93,19,-41,-235,17,131,107,152,6,122,55,232,79,0,131,-49,340,240,210,-72,189,249,254,299,-25,45,-72
127458,384,624,292,-180,-133,108,107,-47,-228,42,144,163,166,23,149,85,252,125,18,163,-18,396,248,219,-31,234,304,334,320,5,108,5
127459,294,529,122,-198,-139,103,95,38,-225,26,132,144,177,13,136,171,147,102,-6,162,-1,338,168,173,-41,227,324,304,282,-30,70,-17
127460,254,451,68,-215,-146,82,69,51,-238,23,104,33,149,5,98,141,132,79,-20,127,-38,326,143,159,-52,187,285,171,217,-65,39,-77
127461,222,419,157,-177,-167,28,74,34,-231,14,108,-72,142,-5,115,148,144,70,-31,124,-33,271,189,167,-58,188,271,62,206,-77,47,-4
127462,257,363,339,-230,-156,19,54,87,-219,36,93,-97,178,-16,117,143,131,87,-21,140,-24,233,196,173,-49,190,228,54,216,-48,62,29
127463,255,332,533,-267,-120,259,92,105,-195,72,133,183,174,15,150,184,238,110,0,161,-23,250,221,178,-29,211,222,99,267,-24,96,23
127464,244,426,515,-216,-119,442,29,45,-227,58,140,286,100,-29,153,155,217,89,-44,138,-20,231,264,156,-58,208,271,69,267,-41,90,-3
127465,450,578,515,-297,-130,248,-52,70,-246,48,130,55,100,-30,127,7,112,81,-36,121,-48,220,253,143,-57,199,278,147,278,-40,45,-48
127466,491,528,455,-134,-108,233,-5,87,-231,61,154,124,105,-37,105,-81,43,50,-68,109,-77,216,130,109,-76,145,265,181,212,-75,36,-81
127467,409,537,263,-10,-109,325,-12,-10,-230,37,113,338,79,-38,92,-25,105,-30,-74,105,-75,257,28,71,-87,144,274,283,186,-69,85,-17
127468,319,508,149,-87,-150,337,-61,-156,-261,-7,10,436,48,-52,44,1,136,-43,-78,76,-113,311,10,73,-102,125,213,340,218,-75,51,-107
127469,302,343,159,-131,-147,354,-123,-66,-238,9,66,433,58,-24,51,68,183,-71,-66,89,-120,374,-8,82,-84,151,175,322,212,-73,19,-195
127470,293,289,262,-108,-149,173,-161,-89,-222,3,59,387,88,-18,74,148,153,-75,-64,107,-80,302,-23,68,-81,169,202,140,165,-91,7,-326
127471,410,424,258,-328,-160,100,-327,-308,-293,-31,44,369,37,-16,62,342,54,-52,-74,94,-59,243,-19,57,-77,174,273,-37,110,-130,-2,-358
127472,403,424,221,-427,-166,104,-364,-291,-311,-13,52,309,38,-6,75,177,0,-26,-67,111,-61,256,-38,80,-72,189,282,-37,95,-128,-3,-407
127473,287,413,284,-331,-133,60,-310,65,-251,-19,24,53,113,-10,66,-11,-46,-35,-55,109,-85,192,-97,68,-73,176,220,-25,74,-156,5,-236
127474,372,489,327,-340,-133,31,-163,-8,-254,-25,62,-130,94,14,75,-59,-70,-47,-67,106,-125,185,-68,66,-79,148,167,0,102,-130,27,-80
127475,454,594,345,-339,-126,-9,20,-154,-273,-7,83,-196,57,0,81,-62,13,-78,-76,94,-153,214,-17,74,-90,129,123,1,155,-113,24,35
127476,442,611,218,-215,-106,-2,69,-87,-231,-9,75,-274,113,9,53,-116,47,-50,-51,86,-151,187,47,68,-89,97,98,-44,133,-144,-23,19
127477,327,477,164,-166,-131,24,8,0,-209,-13,37,-168,148,-19,16,-138,7,-8,-55,36,-172,196,110,89,-132,72,59,-76,29,-227,-100,-86
127478,324,387,232,-391,-151,235,9,-65,-282,-17,24,137,93,-50,8,-49,-84,-3,-98,18,-168,117,77,36,-159,47,68,-59,47,-219,-124,-216
127479,478,440,319,-401,-145,120,10,-68,-283,-27,10,191,82,-16,-10,-86,-106,-27,-96,34,-170,71,-19,35,-144,71,126,53,107,-155,-78,-268
127480,403,473,413,-388,-132,59,35,-66,-283,-20,-5,142,61,-37,-13,-136,-59,-45,-97,10,-191,123,-29,36,-145,99,143,85,93,-154,-52,-201
127481,299,430,380,-426,-153,59,0,-143,-319,-25,-16,227,-30,-70,0,-102,-59,-92,-131,0,-202,142,-36,2,-191,54,119,10,66,-171,-82,-160
127482,142,284,344,-327,-143,96,-69,-117,-312,-13,3,254,-46,-67,28,-26,-88,-127,-125,28,-164,171,-69,-3,-185,74,152,-126,42,-184,-71,-128
127483,291,337,294,-252,-134,203,-123,-46,-258,23,29,219,-5,-23,46,161,-49,-91,-95,70,-82,266,32,40,-122,129,212,-141,102,-133,3,-133
127484,454,462,198,-213,-146,77,-110,-65,-272,22,-26,79,-27,-34,32,331,-56,-108,-109,74,-66,364,6,35,-116,147,274,-38,121,-112,-5,-134
127485,307,546,-8,-125,-143,97,-96,-83,-287,-1,-78,-144,-26,-43,-3,193,-43,-143,-127,47,-135,310,-127,-13,-134,112,190,43,113,-152,-34,-216
127486,208,481,-66,-148,-122,160,-31,-289,-284,17,-15,-87,-45,-52,-10,-163,-10,-150,-134,33,-183,86,-75,-2,-133,102,118,37,169,-139,-31,-142
127487,312,473,-1,-282,-156,130,6,-522,-311,1,15,57,-81,-52,8,-342,46,-122,-126,61,-196,69,7,54,-108,111,111,83,201,-101,-5,-63
127488,345,476,17,-330,-154,69,-48,-358,-317,-31,44,-39,-82,-54,1,-215,67,-135,-118,53,-194,38,35,62,-115,95,61,54,179,-105,6,-92
127489,241,470,139,-239,-155,71,-165,-213,-303,-24,88,-152,-28,-44,36,-35,32,-121,-107,77,-124,102,8,63,-106,126,138,80,184,-71,18,-121
127490,310,418,237,-275,-167,192,-247,-170,-320,-20,94,-172,-46,-52,68,102,-59,-170,-131,89,-77,11,-131,26,-126,161,212,118,180,-67,38,-215
127491,326,262,172,-347,-184,226,-355,-139,-306,-18,54,-64,-47,-66,48,155,-84,-152,-138,77,-106,183,-114,7,-120,145,279,106,159,-97,75,-282
127492,281,326,101,-360,-179,142,-374,-141,-298,-35,-55,-70,-16,-28,27,64,-65,-122,-104,81,-107,298,-64,37,-104,177,350,139,145,-111,73,-304
127493,435,420,144,-388,-169,154,-264,-364,-286,-14,13,-76,-24,-1,47,20,-20,-65,-63,93,-96,255,22,93,-81,201,315,187,197,-50,81,-100
127494,372,455,235,-412,-170,102,-171,-231,-277,-10,43,-146,-6,0,20,21,-23,-74,-63,83,-109,239,31,93,-85,171,199,181,202,-66,54,70
127495,404,519,324,-385,-166,4,-78,-69,-270,-36,29,-16,8,-11,9,-61,0,-67,-66,70,-109,246,36,87,-81,157,175,209,218,-69,75,123
127496,422,541,362,-345,-174,0,-66,-71,-267,-62,6,-38,26,-26,2,-40,41,-40,-44,65,-98,248,59,119,-85,156,217,245,232,-73,96,87
127497,396,490,294,-358,-152,18,-28,-148,-249,-37,-3,-263,69,-22,-17,109,98,-14,-44,74,-69,269,93,125,-82,166,269,269,271,-32,133,14
127498,334,246,201,-472,-145,57,-30,-151,-278,-69,-57,-354,23,-59,-45,32,48,-128,-100,31,-100,230,12,42,-131,140,278,154,173,-117,68,-31
127499,105,278,177,-347,-128,32,10,-106,-247,-75,-65,-162,-28,-73,-47,-11,80,-143,-112,20,-118,247,43,23,-160,120,236,117,130,-193,20,8
127500,-132,300,212,-347,-135,259,-2,-50,-266,-50,-96,-130,-27,-69,-55,61,61,-114,-116,7,-117,323,33,18,-186,110,230,137,169,-156,24,50
127501,-56,270,191,-322,-130,227,-208,-70,-295,-57,8,-61,-36,-93,-58,-54,27,-82,-141,-25,-163,303,14,-7,-215,76,211,77,141,-165,-5,56
127502,84,380,149,-295,-111,32,-282,-76,-307,-49,32,10,-60,-103,-42,-146,56,-91,-160,-43,-190,299,47,-13,-230,37,154,80,112,-235,-57,2
127503,151,325,35,-197,-116,283,-125,-102,-275,-24,8,28,-42,-90,-56,-73,69,-104,-156,-31,-186,265,129,11,-240,24,161,104,141,-205,-54,7
127504,114,420,49,-87,-116,76,-51,-109,-252,-48,-16,18,-31,-88,-62,64,43,-84,-160,-41,-202,109,163,32,-236,11,150,53,126,-208,-92,9
127505,180,509,117,-62,-106,62,-47,-164,-246,-36,-26,187,16,-89,-48,102,38,-3,-123,-35,-210,181,126,47,-214,23,170,216,172,-205,-71,22
127506,409,530,78,-160,-87,120,-67,-305,-253,-8,11,402,29,-86,-15,-53,0,41,-119,-10,-179,258,69,47,-197,34,202,234,159,-230,-81,10
127507,574,518,-54,-241,-85,288,-177,-388,-253,16,76,88,36,-58,36,-50,83,49,-109,33,-139,367,82,50,-164,59,213,242,171,-195,-65,-21
127508,601,300,139,-397,-74,347,-310,-147,-272,16,90,-328,9,-84,39,160,227,-80,-132,26,-117,276,-42,2,-185,71,251,123,130,-230,-91,-141
127509,404,240,218,-368,-77,331,-368,-27,-296,-15,42,-62,-14,-76,33,205,122,-79,-147,34,-99,171,0,-14,-194,73,267,-35,76,-243,-81,-202
127510,364,516,346,-308,-119,150,-266,0,-273,-12,33,175,28,-52,29,118,6,-3,-119,35,-94,182,131,39,-186,78,286,-4,83,-253,-83,-317
127511,363,587,489,-360,-136,31,-138,4,-277,-42,-1,254,39,-59,10,-39,39,45,-95,37,-118,202,199,71,-168,85,270,42,53,-270,-116,-368
127512,349,557,520,-308,-115,0,-13,-39,-256,-49,-5,280,46,-41,0,-77,83,24,-81,52,-107,232,210,73,-154,86,254,116,53,-235,-109,-194
127513,380,393,510,-303,-97,15,55,5,-244,-32,15,202,50,-42,0,-46,41,-14,-93,48,-134,204,170,20,-163,67,185,118,94,-243,-109,-40
127514,435,272,446,-348,-91,26,87,49,-253,-38,-9,116,25,-55,-20,-35,6,-24,-95,33,-163,194,130,33,-183,49,132,110,85,-252,-134,33
127515,478,491,423,-346,-100,-1,50,-41,-265,-32,-62,15,7,-49,-21,-35,62,-27,-92,35,-170,197,101,38,-177,56,74,237,107,-220,-131,70
127516,398,556,375,-377,-115,-45,3,-58,-273,-45,-72,-158,17,-35,-23,-72,32,-75,-114,17,-181,194,24,13,-183,29,24,301,108,-245,-155,23
127517,282,535,326,-388,-113,-11,-34,-50,-252,-26,-10,-60,4,-33,-31,-137,-26,-99,-108,-1,-220,180,-40,-5,-192,0,-26,208,51,-273,-186,-117
127518,256,460,295,-381,-152,11,-91,-212,-299,-59,-109,232,-73,-80,-111,-236,-46,-138,-153,-65,-286,173,-60,-65,-239,-62,-31,1,-6,-334,-225,-311
127519,324,414,301,-394,-146,72,-118,-263,-302,-52,-125,235,-82,-76,-102,-95,-46,-130,-169,-65,-251,151,-12,-90,-254,-49,-5,-92,-34,-351,-229,-351
127520,344,386,216,-361,-147,9,-141,-176,-286,-58,-107,77,-75,-88,-130,-130,-55,-146,-165,-71,-309,127,2,-78,-279,-76,-48,-141,-77,-385,-274,-336
127521,125,294,56,-247,-161,145,-177,-256,-300,-41,-106,-54,-77,-91,-127,-120,-57,-165,-192,-74,-311,-40,-20,-63,-276,-70,-35,-63,-25,-363,-285,-291
127522,-135,354,-8,-166,-164,43,-224,-100,-269,-57,-150,-127,-40,-90,-134,123,-19,-168,-174,-60,-297,48,-88,-95,-268,-61,-24,-26,-8,-341,-231,-266
127523,-193,366,-40,-150,-135,92,-238,-65,-256,-13,-58,-183,-19,-41,-91,-10,-41,-134,-152,-27,-252,136,-124,-76,-229,-32,-3,-14,-5,-332,-209,-257
127524,-143,276,-93,-104,-142,292,-320,-163,-278,-29,-27,-336,-40,-65,-69,-207,-115,-185,-177,-39,-229,93,-112,-98,-242,-25,9,-79,-42,-347,-232,-294
127525,-108,269,-20,-70,-133,157,-450,-268,-290,-40,-11,-186,-55,-55,-43,-28,-106,-200,-174,-3,-177,167,-102,-87,-214,11,91,-71,-16,-304,-176,-218
127526,-127,197,-112,43,-117,211,-417,-285,-255,0,48,-136,-62,-35,9,18,-53,-175,-136,43,-117,270,-64,-43,-185,40,155,-42,0,-265,-129,-193
127527,198,218,-29,-266,-132,126,-272,-477,-312,-15,30,-48,-67,-43,-6,12,6,-101,-135,56,-98,315,-55,-27,-159,80,219,21,42,-211,-96,-160
127528,459,262,120,-362,-156,-15,-229,-363,-323,-50,-18,-122,-56,-71,-42,-60,-65,-102,-143,17,-103,280,-115,-49,-160,71,214,30,43,-226,-101,-147
127529,477,423,262,-312,-125,-35,-105,47,-268,-48,25,-307,15,-54,-31,-45,-92,-166,-128,33,-93,299,-112,-32,-152,99,217,12,67,-220,-86,-55
127530,501,402,250,-415,-129,65,-41,66,-280,-29,74,-278,-11,-72,-16,-43,12,-177,-106,58,-120,358,-92,-21,-142,104,162,-27,68,-180,-102,-10
127531,427,384,176,-469,-158,27,-41,-79,-314,-17,88,-55,-59,-63,-4,89,56,-148,-112,70,-92,371,-67,8,-112,128,162,-17,95,-163,-58,-7
127532,472,507,255,-493,-169,34,8,-230,-322,7,89,133,-72,-28,52,198,14,-144,-98,109,-20,320,-16,48,-70,189,265,-47,118,-146,-5,21
127533,418,543,328,-479,-145,34,116,-272,-323,22,145,185,-22,4,60,181,-122,-94,-51,121,-8,338,34,83,-36,222,309,-66,150,-106,18,-42
127534,354,576,410,-479,-143,-10,170,-188,-304,44,121,181,10,13,62,220,-166,-34,-30,118,-1,275,93,118,-25,222,284,35,166,-103,-6,-166
127535,301,572,415,-466,-159,-1,122,-179,-319,-5,107,145,-29,-6,53,125,-129,-76,-71,86,-29,296,52,56,-63,182,283,45,94,-149,-31,-197
127536,332,548,366,-507,-147,9,123,-184,-334,-15,96,45,-49,-21,50,101,1,-110,-99,78,-47,384,25,1,-80,170,298,-25,52,-166,-21,-106
127537,315,542,280,-433,-132,16,127,-156,-307,-7,95,-220,-25,-1,28,113,13,-130,-95,77,-57,375,28,2,-94,157,301,30,68,-158,-13,-1
127538,238,477,135,-364,-172,70,40,-163,-330,-21,81,-300,-89,-31,-16,30,-177,-209,-161,46,-96,301,-45,-47,-149,109,230,-26,5,-195,-64,-36
127539,128,439,114,-228,-170,161,-50,-140,-300,2,38,-69,-92,-23,7,50,-221,-197,-152,64,-71,241,-57,-51,-128,123,285,-69,26,-197,-41,-206
127540,54,362,80,-188,-138,124,-78,-238,-275,-5,-64,-154,-70,-19,-2,123,-162,-182,-122,83,-32,244,-59,-28,-111,172,330,-28,45,-186,-3,-224
127541,30,252,-60,-188,-155,83,-156,-228,-296,-28,-63,-457,-81,-40,-9,78,-83,-198,-141,50,-78,232,-119,-35,-136,136,259,13,35,-195,-25,-126
