,Fp1,Fp2,F7,F3,Fz,F4,F8,FC5,FC1,FC2,FC6,T7,C3,Cz,C4,T8,TP9,CP5,CP1,CP2,CP6,TP10,P7,P3,Pz,P4,P8,PO9,O1,Oz,O2,PO10
49511,-171,203,724,185,-261,625,632,994,194,226,542,270,583,-74,86,99,428,174,78,46,211,294,141,209,77,141,373,-239,268,11,109,-44
49512,-190,192,728,188,-263,613,625,1012,201,235,541,296,583,-68,91,126,386,183,86,42,213,288,141,218,125,161,408,-223,297,27,123,-85
49513,-162,232,754,223,-237,652,652,1049,234,262,572,325,624,-40,121,281,397,223,121,66,254,554,162,257,145,173,361,-195,333,55,135,-70
49514,-126,244,744,232,-223,663,670,1031,235,274,587,325,649,-38,119,305,413,221,145,84,277,555,171,271,160,199,358,-180,322,64,149,1
49515,-123,255,763,233,-225,657,644,1038,245,274,603,361,649,-22,128,240,524,233,160,91,296,375,191,285,179,214,340,-149,329,53,144,22
49516,-105,261,789,235,-232,677,661,1051,248,272,599,391,661,-8,145,238,631,250,176,102,296,512,222,289,191,206,303,-111,328,39,120,-18
49517,-146,252,769,217,-244,665,673,1034,222,250,591,365,639,-50,125,257,588,249,166,88,273,619,209,263,161,199,326,-86,329,55,126,18
49518,-117,272,798,239,-241,687,699,1065,243,270,608,375,667,-28,142,287,581,289,183,104,238,645,234,298,180,212,350,-49,382,83,141,55
49519,-78,299,840,265,-221,707,712,1101,274,286,636,439,711,-7,148,314,670,325,219,149,278,683,283,358,232,243,391,4,416,121,189,131
49520,-81,299,803,239,-236,709,728,1066,231,286,641,423,683,-35,162,232,680,309,205,122,307,614,286,353,232,247,433,84,409,138,196,117
49521,-72,304,798,225,-234,721,738,1061,224,299,649,400,667,-23,172,199,587,316,194,129,305,528,276,347,217,240,469,121,424,152,178,16
49522,-79,303,803,216,-234,721,747,1085,222,289,670,395,658,-35,169,179,616,339,209,150,310,622,310,368,244,274,493,116,460,179,226,59
49523,-82,293,816,232,-240,697,770,1076,220,271,681,372,664,-36,158,173,622,333,208,162,323,687,273,356,242,267,473,-20,404,164,223,78
49524,-102,299,835,224,-241,690,734,1066,223,279,647,394,659,-10,147,317,655,319,201,150,322,552,281,339,243,273,448,-88,398,171,244,106
49525,-108,279,835,217,-229,688,724,1070,230,282,633,424,645,-22,148,418,673,288,195,140,325,583,292,344,223,275,475,-10,420,167,239,116
49526,-106,271,820,224,-251,673,719,1056,222,271,621,417,636,-20,146,369,592,272,181,135,310,649,210,303,199,238,449,-101,390,153,215,74
49527,-91,298,793,221,-233,690,723,1036,237,275,607,387,630,-39,130,374,546,254,158,124,294,621,184,285,193,233,427,-149,400,162,213,82
49528,-128,279,777,221,-246,659,679,1037,230,259,582,380,621,-48,125,365,471,238,148,111,289,515,165,258,175,195,396,-138,391,142,189,81
49529,-101,304,801,245,-256,677,735,1025,246,265,600,388,627,-39,128,356,457,229,158,94,284,490,168,268,171,193,384,-138,400,141,192,100
49530,-114,298,789,227,-246,670,734,1013,232,257,600,357,611,-57,114,354,443,211,137,85,256,587,171,265,150,165,370,-140,375,125,149,84
49531,-79,298,791,244,-230,702,742,1025,236,275,612,345,625,-43,125,325,518,228,146,107,263,583,195,289,180,150,349,-68,421,120,156,47
49532,-126,255,730,201,-241,669,692,993,218,243,575,292,610,-61,105,253,550,196,161,73,216,525,199,279,154,129,302,-64,418,106,137,0
49533,-153,237,689,184,-262,666,656,986,224,243,555,281,591,-46,84,206,538,200,143,73,191,524,206,258,161,127,311,-74,409,90,111,-14
49534,-128,248,709,229,-247,685,714,1005,232,252,592,302,597,-38,101,120,542,194,139,83,215,450,182,254,170,126,321,-98,379,87,105,-12
49535,-100,271,740,232,-230,692,735,1007,230,263,606,291,594,-64,107,132,543,160,132,59,220,249,144,226,144,117,317,-155,337,61,76,-26
49536,-95,312,740,227,-216,717,754,1003,237,273,620,285,591,-53,118,264,535,164,124,75,262,451,153,229,121,120,287,-151,343,34,66,-63
49537,-107,286,712,215,-200,720,761,979,218,276,622,265,595,-65,131,314,519,149,110,71,281,675,131,215,113,112,284,-151,341,19,66,-74
49538,-113,308,730,230,-203,726,751,990,224,294,626,255,588,-67,131,282,438,139,115,69,254,575,76,194,111,111,281,-258,296,-9,39,-137
49539,-146,295,714,213,-224,716,733,972,206,285,606,233,568,-79,103,234,425,122,103,61,240,475,97,194,91,102,218,-219,281,2,19,-120
49540,-140,312,718,200,-215,725,739,973,219,279,609,237,584,-88,98,233,429,141,109,74,235,364,129,212,132,142,236,-31,359,31,32,-94
49541,-126,322,728,211,-222,718,722,982,221,287,605,236,602,-63,73,190,414,145,112,69,156,317,161,218,141,132,228,59,404,30,11,-116
49542,-144,317,712,202,-220,722,720,958,213,296,599,218,577,-72,102,186,387,126,104,50,139,508,145,214,116,122,240,3,356,10,2,-150
49543,-169,294,682,156,-248,724,717,931,188,269,604,166,562,-89,102,95,392,102,78,47,138,518,114,191,101,89,210,13,343,-9,9,-181
49544,-162,310,645,156,-249,746,746,901,169,278,625,148,544,-92,109,-38,343,91,61,44,166,545,32,139,95,90,241,-288,145,-104,-31,-134
49545,-170,329,621,129,-250,731,725,877,172,283,618,148,522,-77,122,-90,265,74,53,52,145,531,20,119,74,98,198,-465,102,-118,-36,-94
49546,-195,292,639,122,-254,727,670,891,181,311,607,156,533,-69,128,57,272,76,61,61,146,423,31,160,76,105,210,-311,207,-73,-24,-101
49547,-214,280,651,112,-273,728,677,898,181,296,627,179,524,-63,133,227,258,75,86,65,176,373,21,156,109,106,223,-214,243,-57,-23,-176
49548,-175,290,722,137,-247,763,707,935,199,303,615,195,520,-52,125,260,278,67,93,71,164,292,1,150,126,123,169,-314,216,-56,-12,-214
49549,-130,305,736,143,-253,773,672,926,201,306,595,161,510,-63,135,232,306,39,83,75,135,295,-16,160,125,116,138,-318,234,-24,22,-118
49550,-103,351,701,132,-247,785,727,913,196,316,621,103,505,-63,146,215,314,13,68,72,163,438,-62,134,89,110,148,-365,167,-73,-3,-152
49551,-95,364,681,134,-246,794,740,892,184,310,632,97,509,-77,130,182,304,16,57,74,134,437,-51,112,78,113,150,-410,136,-108,-40,-201
49552,-97,350,671,135,-230,796,714,891,196,320,607,110,524,-65,145,181,289,39,82,102,175,306,-16,174,125,161,202,-241,249,-42,6,-200
49553,-125,321,657,128,-232,777,665,869,172,322,609,85,514,-74,137,175,212,46,80,88,177,256,-46,160,123,143,197,-193,257,-33,-4,-193
49554,-144,345,643,128,-215,771,650,870,175,298,611,81,513,-63,151,54,127,40,78,76,170,294,-43,141,100,123,135,-259,219,-70,-37,-198
49555,-131,361,642,154,-193,782,679,854,206,330,609,76,507,-49,152,-20,137,9,68,77,160,212,-97,123,99,126,108,-492,134,-105,-44,-202
49556,-147,330,612,119,-223,753,659,807,180,327,582,45,465,-81,92,27,190,-62,21,33,83,17,-208,67,33,63,66,-675,2,-176,-101,-270
49557,-158,350,572,91,-224,760,666,799,161,301,569,10,438,-83,73,128,141,-81,10,20,65,181,-228,44,13,33,29,-536,36,-171,-147,-351
49558,-173,356,574,101,-228,761,642,794,161,321,566,-7,450,-102,65,121,92,-50,26,0,62,388,-191,65,28,42,-1,-459,101,-160,-134,-351
49559,-182,325,545,107,-231,752,604,796,171,311,538,15,464,-92,59,63,114,-51,29,0,67,316,-143,95,36,61,-1,-453,146,-118,-90,-302
49560,-207,320,524,97,-257,736,579,791,158,299,522,-7,441,-100,44,-56,98,-70,13,-4,87,272,-169,66,24,46,14,-550,91,-133,-107,-315
49561,-193,321,540,87,-246,764,587,797,171,322,545,-18,449,-91,81,-158,78,-88,26,15,87,275,-226,42,14,63,23,-607,32,-159,-101,-313
49562,-201,274,562,88,-242,757,577,808,158,319,554,11,453,-95,85,-124,134,-70,30,21,82,145,-197,61,42,73,-7,-469,112,-123,-92,-340
49563,-226,279,555,68,-250,738,611,792,147,316,576,7,435,-96,96,38,44,-85,35,29,72,174,-192,72,41,76,36,-387,146,-115,-96,-367
49564,-233,317,554,92,-238,759,653,794,162,333,590,9,459,-77,99,119,26,-53,43,47,67,332,-170,86,60,106,82,-392,146,-93,-79,-362
49565,-220,318,541,84,-248,772,657,782,162,328,590,0,455,-72,85,125,11,-71,29,61,52,317,-219,69,82,98,138,-595,47,-146,-92,-346
49566,-224,288,539,73,-242,781,632,784,163,343,604,25,460,-71,93,137,68,-68,46,48,76,234,-253,64,72,97,154,-696,-17,-191,-115,-369
49567,-224,304,537,72,-265,773,634,780,155,349,605,30,463,-84,97,132,115,-35,26,45,92,191,-204,67,75,73,116,-587,39,-171,-130,-371
49568,-236,279,516,51,-280,760,623,765,128,329,593,-2,457,-81,105,90,152,-44,42,55,107,79,-189,88,76,86,102,-484,100,-118,-75,-329
49569,-219,323,555,73,-259,790,671,794,155,376,650,35,485,-66,142,125,162,-32,58,74,122,140,-163,119,100,97,85,-495,112,-110,-56,-352
49570,-231,308,524,54,-283,790,659,794,142,363,651,29,466,-73,129,76,191,-22,54,59,115,270,-133,119,94,89,37,-446,132,-97,-62,-300
49571,-231,309,519,46,-283,805,673,793,130,341,647,16,446,-92,119,5,207,-24,50,51,102,366,-103,114,85,84,-4,-418,146,-101,-70,-311
49572,-196,348,587,69,-249,828,704,818,179,358,677,69,477,-54,169,131,218,11,83,94,163,315,-31,143,134,157,76,-371,176,-56,-12,-273
49573,-201,315,577,68,-274,799,671,813,162,352,681,92,479,-43,166,204,257,17,102,127,187,381,14,172,163,210,155,-267,243,-6,30,-225
49574,-199,291,591,92,-264,800,639,845,147,357,623,137,515,-30,162,105,301,50,122,117,168,370,32,192,191,231,167,-171,292,30,34,-265
49575,-198,311,598,110,-252,794,638,827,176,366,617,125,514,-28,156,13,273,40,120,131,154,249,4,204,193,230,134,-168,338,53,42,-271
49576,-223,280,551,90,-261,769,637,784,161,339,606,60,481,-19,147,87,176,-2,109,133,159,279,-54,166,184,205,63,-254,288,38,37,-247
49577,-247,261,544,69,-284,748,610,764,152,331,594,34,461,-37,150,178,188,-5,107,127,188,166,-86,134,184,207,55,-349,213,2,16,-274
49578,-223,267,562,81,-283,744,607,786,150,335,594,35,474,-39,157,207,227,-28,122,142,204,194,-101,122,180,217,77,-463,139,-55,1,-282
49579,-201,285,580,100,-254,761,591,794,164,335,602,45,459,-27,156,175,150,-31,113,141,218,329,-67,148,178,230,107,-416,164,-31,24,-248
49580,-217,258,568,95,-279,750,570,784,149,332,567,34,462,-48,156,20,175,-4,100,131,212,354,-40,157,167,227,91,-314,221,-18,10,-258
49581,-210,247,570,100,-262,731,590,763,164,318,579,9,473,-45,143,-74,139,-1,106,108,202,295,-57,140,168,218,94,-288,209,-18,6,-248
49582,-213,267,557,94,-263,756,630,751,170,328,605,-23,470,-56,157,93,81,-40,103,110,226,307,-108,124,153,215,96,-388,145,-76,4,-241
49583,-198,262,549,105,-245,776,643,785,175,343,622,0,480,-39,155,241,80,-34,80,105,197,363,-101,116,140,211,126,-528,100,-117,-41,-263
49584,-216,250,528,78,-234,752,632,761,153,310,607,14,455,-44,134,225,72,-42,65,72,121,370,-158,91,119,158,147,-665,13,-161,-36,-212
49585,-197,288,536,94,-245,758,648,763,148,310,630,10,453,-48,118,202,60,-25,56,68,123,321,-138,98,96,154,176,-485,100,-135,-19,-194
49586,-210,289,493,73,-259,753,635,748,138,309,588,-38,446,-51,80,173,5,-24,46,55,133,213,-107,89,83,176,197,-362,152,-118,0,-197
49587,-201,314,442,51,-252,759,649,718,137,297,598,-49,445,-74,110,171,116,-32,39,53,162,192,-110,85,94,173,209,-342,118,-119,1,-188
49588,-210,311,455,46,-262,744,622,718,135,310,614,-47,416,-86,118,183,201,-23,18,54,143,283,-96,72,85,169,176,-486,48,-184,-51,-240
49589,-220,257,457,44,-258,737,576,708,145,308,579,-43,431,-71,112,117,160,-27,31,62,111,307,-114,78,58,144,108,-561,49,-199,-54,-269
49590,-228,256,460,49,-251,742,595,708,162,304,574,-30,451,-76,93,103,96,-20,28,41,87,340,-124,82,49,121,87,-599,87,-176,-72,-275
49591,-226,227,476,39,-250,723,589,733,153,299,580,-43,449,-69,99,112,102,-28,21,33,91,334,-132,89,67,129,117,-508,121,-161,-65,-246
49592,-240,219,475,53,-254,723,606,743,152,310,597,-46,443,-75,121,133,129,-61,25,54,121,333,-166,78,78,147,184,-506,124,-157,-57,-264
49593,-272,214,458,62,-267,734,613,732,159,314,602,-35,441,-79,139,118,156,-42,45,52,146,349,-126,92,96,144,201,-462,159,-137,-54,-332
49594,-247,216,489,87,-248,718,589,756,163,317,589,-4,469,-79,127,8,133,-28,41,45,101,304,-102,133,96,141,100,-424,186,-106,-43,-339
49595,-226,215,513,108,-234,744,594,782,165,338,589,16,488,-60,132,-50,101,-7,62,55,97,277,-96,174,133,162,62,-361,256,-45,23,-304
49596,-218,206,510,98,-242,749,579,782,164,327,593,34,469,-76,117,7,142,-5,67,42,81,234,-91,157,123,132,3,-363,258,-30,48,-217
49597,-185,232,569,106,-232,745,613,794,194,311,600,62,471,-74,92,54,166,-6,47,25,77,192,-117,141,100,132,9,-521,214,-34,61,-220
49598,-200,230,569,112,-252,727,617,794,177,312,571,60,473,-95,85,-16,157,4,32,15,70,229,-128,127,94,128,37,-506,250,-24,70,-265
49599,-215,218,571,121,-248,729,596,827,191,321,574,84,505,-78,91,2,240,71,71,37,80,303,-52,177,131,161,101,-354,355,15,95,-255
49600,-190,229,615,132,-236,710,591,856,190,312,583,99,509,-62,95,75,244,76,89,61,121,239,-32,203,151,192,152,-285,377,57,149,-249
49601,-153,246,642,167,-231,726,624,885,199,336,616,102,531,-44,149,44,230,85,132,117,184,0,-25,238,165,247,219,-212,399,99,191,-198
49602,-130,271,627,160,-248,725,637,889,205,316,625,121,547,-31,172,-21,209,100,131,119,232,-26,8,250,166,251,222,-260,381,99,220,-125
49603,-109,300,675,183,-244,736,657,902,202,302,627,145,557,-42,156,88,261,101,112,113,210,327,23,230,165,235,105,-258,403,105,208,-107
49604,-112,335,715,205,-206,756,673,943,228,315,612,164,582,-31,148,189,266,122,145,86,157,445,39,224,145,202,-11,-242,413,78,150,-230
49605,-94,337,695,205,-214,739,653,932,218,309,611,171,582,-42,117,203,175,134,147,74,141,378,52,234,131,194,52,-206,404,66,158,-198
49606,-110,302,683,195,-223,726,616,916,215,297,578,149,562,-74,92,188,188,104,115,69,82,354,20,214,124,188,106,-271,340,21,130,-132
49607,-92,313,699,195,-219,715,645,909,229,292,563,171,563,-70,86,178,313,99,108,61,89,364,4,195,113,166,106,-414,236,-36,69,-116
49608,-83,309,685,208,-208,711,644,925,227,277,583,168,566,-53,97,184,354,121,102,37,120,362,3,171,111,162,91,-459,208,-68,74,-133
49609,-60,325,691,192,-202,731,666,911,222,283,576,158,566,-43,96,164,317,118,108,47,124,342,14,160,94,153,71,-340,225,-68,79,-168
49610,-102,319,676,145,-239,717,680,895,197,284,573,131,551,-64,88,162,204,121,107,52,114,341,25,186,85,135,63,-316,210,-94,40,-193
49611,-110,326,681,159,-236,738,681,887,193,300,592,154,552,-62,90,193,231,120,93,52,128,340,39,159,91,162,95,-377,163,-157,-7,-197
49612,-98,320,677,150,-231,755,650,891,202,306,595,173,539,-53,119,150,293,109,82,50,119,279,16,126,85,153,139,-410,136,-182,-30,-214
49613,-137,301,653,121,-248,716,607,859,201,292,579,140,498,-67,113,106,281,58,54,35,101,218,-73,98,63,131,111,-390,97,-206,-93,-242
49614,-150,286,633,106,-276,706,588,838,179,264,539,123,486,-74,88,76,184,14,37,10,86,237,-106,67,28,85,35,-430,58,-237,-111,-267
49615,-142,280,615,103,-247,714,624,837,179,266,536,109,496,-73,91,86,221,16,39,0,72,246,-100,82,33,78,17,-422,61,-256,-144,-271
49616,-158,262,613,102,-266,709,610,824,190,282,543,116,502,-53,106,84,208,13,51,3,70,230,-103,88,31,77,12,-390,96,-235,-138,-236
49617,-171,254,605,110,-258,712,601,845,191,283,542,123,502,-51,112,81,205,38,60,32,78,277,-97,101,41,95,12,-347,91,-231,-137,-256
49618,-164,272,595,101,-238,724,608,860,186,293,550,126,521,-58,116,46,233,15,55,27,83,275,-110,91,26,84,21,-367,61,-244,-161,-255
49619,-105,281,632,119,-256,746,653,868,187,308,573,129,538,-67,133,-127,180,15,41,40,83,139,-133,97,38,99,75,-406,45,-279,-182,-259
49620,-123,265,632,112,-285,740,641,853,180,300,584,136,501,-83,140,-173,204,18,47,35,90,96,-118,82,41,110,47,-387,34,-289,-205,-305
49621,-169,253,609,115,-265,727,633,874,181,291,580,135,504,-87,125,56,227,24,39,14,101,210,-127,81,36,76,-8,-361,39,-286,-233,-365
49622,-187,281,583,122,-266,754,686,864,186,291,612,104,522,-78,137,235,174,27,29,18,112,340,-153,78,43,68,10,-381,45,-278,-218,-376
49623,-187,272,567,112,-247,746,643,844,173,291,570,118,520,-85,130,185,168,37,51,18,84,291,-124,96,55,80,12,-361,95,-234,-195,-348
49624,-181,273,568,123,-256,740,613,861,198,285,568,119,523,-75,93,107,152,35,50,-1,73,209,-123,93,54,84,-25,-358,111,-205,-187,-319
49625,-169,311,580,131,-272,755,643,847,195,293,598,103,492,-68,106,-37,80,0,21,-3,103,226,-191,54,31,90,-31,-622,-44,-288,-208,-313
49626,-172,311,588,115,-249,765,647,834,191,291,581,71,487,-63,98,-53,85,-9,39,18,100,127,-196,51,42,102,-45,-623,-53,-305,-196,-320
49627,-151,333,594,131,-239,796,698,843,204,293,604,97,528,-56,126,96,73,-10,48,22,124,260,-185,50,59,133,-26,-683,-27,-290,-187,-310
49628,-129,346,616,150,-231,808,717,863,211,314,633,118,541,-47,148,181,178,34,87,66,158,381,-176,89,90,164,34,-667,-7,-245,-166,-310
49629,-134,358,608,131,-251,767,718,854,203,297,641,112,539,-51,158,218,190,55,83,71,190,307,-165,103,118,178,95,-514,64,-190,-129,-328
49630,-123,342,623,149,-247,778,722,881,204,287,664,137,558,-46,170,250,240,70,127,91,196,249,-78,172,149,218,189,-364,171,-119,-76,-260
49631,-139,339,638,166,-235,774,666,883,200,279,627,143,561,-62,152,215,301,74,134,107,156,198,-9,195,177,225,132,-333,179,-86,-45,-287
49632,-122,354,630,169,-239,810,683,874,194,294,637,134,566,-61,175,199,280,65,127,120,167,238,-6,179,181,233,81,-418,163,-70,-37,-253
49633,-104,371,629,167,-229,835,721,876,216,307,674,129,558,-64,202,236,366,57,130,137,197,342,-34,198,187,245,85,-364,207,-54,-6,-165
49634,-110,360,579,140,-237,820,715,851,198,325,650,107,532,-81,181,210,301,48,118,120,172,255,-39,176,169,242,104,-362,184,-77,-13,-181
49635,-114,359,559,138,-237,807,721,821,177,324,655,108,519,-87,170,175,304,18,113,95,155,109,-57,138,133,221,80,-482,127,-136,-70,-259
49636,-130,365,559,132,-215,834,728,832,180,327,663,115,530,-76,194,183,314,39,108,103,179,313,25,169,163,236,90,-329,209,-86,-57,-219
49637,-126,371,551,120,-221,824,715,837,184,324,644,114,542,-53,186,153,255,69,104,110,172,508,79,182,167,226,97,-286,204,-64,-25,-211
49638,-167,358,550,88,-233,804,677,805,171,317,633,53,518,-74,159,142,185,45,82,103,161,433,-19,138,132,211,124,-348,177,-88,-12,-178
49639,-174,351,527,88,-253,805,675,789,163,310,645,63,498,-87,154,176,269,30,82,78,160,411,-83,128,129,220,140,-380,185,-84,-6,-169
49640,-154,356,541,75,-250,807,700,758,128,312,659,38,486,-95,163,200,297,-34,67,80,164,435,-76,113,111,227,144,-508,147,-97,-23,-196
49641,-122,376,567,99,-230,836,735,781,155,327,671,79,496,-65,167,181,340,2,71,109,156,377,-14,130,115,240,180,-390,211,-46,-12,-189
49642,-114,359,571,97,-227,814,729,806,169,323,663,104,509,-72,164,168,354,28,81,94,149,328,20,153,118,227,145,-262,268,-2,32,-202
49643,-146,310,573,67,-246,794,708,780,153,314,666,81,493,-105,160,172,339,9,51,77,135,386,34,137,91,228,137,-207,291,8,34,-236
49644,-162,282,532,72,-275,767,684,788,152,325,660,82,500,-82,152,30,316,4,46,77,138,380,15,139,97,221,149,-251,298,16,48,-156
49645,-141,243,554,93,-246,775,655,797,158,351,650,90,513,-58,178,-22,318,19,61,89,135,341,2,153,111,249,144,-295,276,42,84,-110
49646,-151,227,544,65,-261,782,697,765,153,318,664,49,477,-60,165,116,156,-33,50,82,132,363,-96,86,92,225,130,-480,183,-23,22,-155
49647,-202,225,501,44,-282,786,727,749,135,319,664,26,446,-84,151,192,151,-63,16,68,129,345,-123,71,68,216,111,-495,176,-45,25,-124
49648,-189,232,516,67,-276,792,729,761,136,331,660,51,463,-66,157,103,275,-25,15,92,140,312,-73,81,77,231,135,-367,243,10,64,-135
49649,-170,253,569,84,-270,821,727,804,150,344,683,86,487,-55,188,75,348,8,47,111,173,364,-6,129,109,256,182,-257,314,58,120,-92
49650,-189,251,576,76,-275,803,707,814,158,341,693,78,489,-55,206,156,344,15,58,100,190,427,12,164,124,258,200,-211,350,83,128,-103
49651,-198,248,571,91,-265,798,676,826,181,337,669,95,521,-54,195,39,349,50,81,114,210,327,25,193,158,265,210,-208,388,121,136,-94
49652,-185,280,577,79,-273,799,711,847,155,327,658,108,527,-74,180,6,363,50,98,107,220,323,52,203,153,250,206,-213,383,119,161,-96
49653,-140,294,588,94,-259,802,766,853,151,342,707,110,527,-84,193,212,367,35,82,101,247,421,19,161,130,241,227,-364,253,55,138,-55
49654,-137,290,609,97,-259,791,767,848,159,328,706,105,549,-82,186,289,373,27,71,84,264,430,18,171,149,235,227,-353,283,64,116,-84
49655,-105,347,665,139,-222,828,787,898,199,359,719,148,594,-55,217,295,393,77,113,114,284,490,51,223,183,282,244,-258,366,115,154,-69
49656,-134,348,639,137,-224,828,768,894,182,349,687,167,592,-40,215,325,304,97,117,131,273,386,72,245,184,286,281,-184,396,138,177,-52
49657,-135,319,666,135,-246,824,766,928,185,313,705,203,576,-25,218,332,245,89,126,152,224,357,42,223,201,314,306,-330,371,136,177,-60
49658,-98,321,696,162,-248,803,764,941,189,318,697,208,597,-23,234,305,277,87,159,157,213,527,7,235,223,329,305,-464,336,131,192,20
49659,-98,333,699,191,-227,820,815,963,207,351,728,224,636,10,256,320,353,125,196,186,255,597,50,264,245,333,328,-365,394,190,227,33
49660,-94,326,725,185,-252,811,775,987,209,327,706,251,646,4,227,315,482,157,197,180,270,584,89,277,246,343,337,-292,440,218,253,-17
