,Fp1,Fp2,F7,F3,Fz,F4,F8,FC5,FC1,FC2,FC6,T7,C3,Cz,C4,T8,TP9,CP5,CP1,CP2,CP6,TP10,P7,P3,Pz,P4,P8,PO9,O1,Oz,O2,PO10
147134,215,419,546,0,139,541,411,431,252,418,444,308,228,136,571,744,456,338,175,380,357,483,420,361,432,474,434,184,711,530,559,448
147135,249,451,581,16,144,542,447,444,246,411,443,322,212,132,544,751,433,328,144,363,324,476,424,335,393,413,304,175,661,421,380,57
147136,272,479,624,41,148,536,456,447,233,404,433,344,189,100,511,739,465,302,91,316,264,474,321,232,304,299,226,-41,420,118,75,-6
147137,263,469,614,48,155,535,485,459,232,405,433,327,189,92,509,732,461,276,88,302,268,485,287,207,295,303,260,-133,362,46,46,142
147138,266,457,605,45,155,529,456,442,244,397,430,294,187,103,504,721,463,285,91,301,266,509,306,240,305,324,261,-58,421,113,77,204
147139,283,463,610,71,147,527,448,460,261,398,426,308,194,118,499,747,480,295,109,313,266,545,321,232,314,322,274,-101,387,99,117,255
147140,275,444,578,68,156,531,440,462,269,414,443,314,207,126,510,724,471,288,116,324,270,549,350,254,335,333,287,-42,430,167,190,263
147141,244,421,540,42,152,522,405,411,253,394,407,269,216,110,483,681,451,299,102,312,243,492,360,286,346,321,278,57,517,267,240,228
147142,266,423,581,42,151,523,406,424,257,378,399,265,203,100,463,656,443,307,105,287,204,429,305,229,319,264,198,-82,431,186,150,123
147143,239,413,550,44,144,520,405,434,252,379,413,257,212,104,461,643,460,301,110,275,222,402,312,245,321,274,197,-28,475,231,204,167
147144,254,416,578,40,129,530,390,454,246,389,406,257,193,113,444,625,459,287,120,255,216,431,290,260,314,272,213,-66,467,207,200,197
147145,258,419,603,24,124,515,416,456,251,389,410,253,209,107,450,633,457,279,107,270,182,402,303,253,297,270,205,-133,419,155,188,271
147146,275,446,629,42,141,539,449,477,245,387,422,280,227,104,478,670,461,314,124,283,212,429,320,297,331,285,227,-98,454,192,200,299
147147,278,424,628,29,164,538,430,462,246,410,438,297,234,113,495,667,481,320,145,286,245,472,340,304,346,314,292,-56,473,218,241,422
147148,239,422,591,36,141,545,433,461,238,406,433,272,223,86,479,649,449,303,154,279,220,439,348,286,326,273,240,12,462,164,156,254
147149,247,446,590,61,135,539,429,463,229,408,433,264,215,75,464,633,431,305,143,261,174,405,351,275,290,215,148,-38,415,70,35,-106
147150,256,417,602,55,148,538,444,473,249,389,414,295,235,97,454,636,401,327,161,252,193,386,351,321,327,268,191,-37,446,157,133,34
147151,289,448,623,71,157,552,434,496,262,388,413,336,249,109,467,664,471,341,166,268,198,380,370,339,341,284,217,-65,437,165,155,109
147152,262,424,599,55,141,543,419,470,256,388,431,305,257,101,498,677,458,354,187,298,253,400,384,359,374,329,290,-29,530,288,312,276
147153,244,420,564,55,156,558,444,451,270,404,441,318,256,120,521,698,399,378,208,318,297,422,429,420,435,401,382,97,665,469,482,449
147154,224,407,547,40,134,536,428,446,263,400,436,326,267,116,494,693,455,407,210,312,286,418,448,431,430,394,369,160,710,492,470,401
147155,233,420,554,52,164,554,429,459,265,402,459,333,279,123,514,704,485,413,203,314,294,422,466,422,420,367,330,169,674,392,367,258
147156,238,420,576,50,156,563,427,473,275,399,455,342,274,115,515,704,498,394,202,332,295,447,451,409,415,371,329,91,591,316,316,264
147157,239,422,569,65,135,547,413,472,275,414,454,339,261,121,535,714,456,397,200,339,319,465,463,407,424,401,378,100,610,358,385,419
147158,240,417,567,56,149,540,425,468,277,395,473,335,282,152,543,706,446,408,216,350,342,483,465,434,441,426,438,156,670,448,488,558
147159,210,412,547,36,134,528,409,460,276,389,453,309,285,143,538,704,446,403,215,354,343,501,451,426,425,453,469,165,674,465,545,706
147160,262,428,604,55,156,538,427,477,275,383,455,328,279,124,517,710,445,389,195,330,281,449,422,396,386,369,351,156,586,281,276,359
147161,281,438,629,64,163,551,429,495,289,400,442,334,290,119,499,705,440,369,181,308,247,446,370,347,355,286,239,48,492,122,62,13
147162,247,411,635,62,134,545,399,485,275,381,439,321,289,113,483,697,453,350,151,279,222,420,345,328,349,276,237,-91,460,170,136,70
147163,273,390,639,87,148,550,413,502,293,387,454,337,296,108,480,690,447,376,158,281,240,407,371,349,344,301,253,-98,470,202,198,127
147164,280,417,633,86,159,533,428,518,289,383,424,334,311,109,458,692,426,370,172,277,226,411,358,352,350,298,254,-91,471,239,239,149
147165,284,414,645,86,157,530,406,532,285,368,427,350,318,107,455,682,414,371,179,271,221,387,283,322,334,304,268,-219,379,175,226,221
147166,263,394,633,74,131,513,392,547,279,369,420,332,316,100,443,663,427,377,192,265,231,399,254,321,335,304,297,-245,349,145,251,362
147167,238,383,624,57,131,511,378,542,280,363,418,330,330,114,444,637,439,415,203,268,219,425,331,369,365,299,259,-87,462,208,239,250
147168,247,386,633,64,139,518,379,563,299,373,403,396,354,117,431,635,434,468,229,280,210,386,402,412,389,305,251,42,561,282,275,175
147169,231,405,628,58,155,524,365,572,298,370,389,380,371,121,435,628,398,474,244,289,207,352,419,439,393,313,268,119,652,408,396,290
147170,260,412,653,82,167,543,379,586,307,378,399,390,369,129,448,640,403,474,220,273,197,357,395,420,370,302,271,80,607,342,327,275
147171,264,412,654,100,172,549,380,572,288,384,392,370,334,91,410,621,388,425,179,227,163,360,348,354,310,241,227,-83,437,157,172,181
147172,254,389,639,83,156,535,350,555,281,372,368,330,307,80,382,567,315,371,160,206,143,333,260,311,288,216,194,-214,331,98,155,185
147173,249,356,604,81,154,535,343,549,292,371,352,349,311,78,401,576,324,384,161,200,153,323,284,300,298,226,203,-210,343,117,170,249
147174,224,370,576,60,153,542,371,512,283,377,356,343,315,83,416,589,352,382,175,228,181,328,324,334,321,254,223,-137,429,189,245,341
147175,250,397,609,67,169,560,360,507,285,383,356,338,309,72,400,596,348,397,170,246,155,324,323,328,316,231,173,-188,381,127,188,194
147176,261,404,642,81,158,559,355,543,287,384,365,337,314,82,404,581,367,399,169,241,147,327,325,302,296,212,114,-231,354,72,71,-7
147177,274,435,665,103,176,572,383,543,299,403,395,343,312,123,441,593,397,419,195,255,168,351,351,346,325,215,139,-137,409,101,55,-1
147178,263,449,622,82,183,596,410,542,307,419,425,319,305,115,458,622,398,418,190,281,180,376,338,337,317,260,187,-132,399,135,117,134
147179,243,448,589,64,170,580,393,533,295,385,412,314,299,85,456,620,402,399,170,272,186,378,316,315,309,243,172,-134,371,86,90,155
147180,252,432,600,78,153,564,392,526,284,387,391,314,308,101,465,627,374,412,168,278,192,375,317,342,343,257,196,-107,407,143,159,188
147181,278,441,608,95,179,576,415,537,301,415,432,317,305,128,485,670,374,422,195,309,223,384,354,353,362,280,231,-81,447,201,205,222
147182,249,404,601,82,159,555,372,541,307,402,420,339,320,135,466,643,388,412,212,322,229,385,373,370,359,272,229,-19,496,234,232,239
147183,218,383,580,56,149,533,333,515,294,391,395,324,314,118,458,618,392,404,210,303,210,393,394,378,354,273,228,49,504,259,260,308
147184,199,375,581,38,157,526,332,482,294,400,392,294,325,131,478,620,395,385,209,305,221,432,375,362,372,316,268,3,499,272,299,388
147185,205,385,576,54,146,526,336,485,296,402,387,304,324,121,453,607,400,387,209,290,216,448,348,353,355,276,246,-93,467,240,263,297
147186,209,397,584,50,138,510,328,496,276,383,368,314,308,109,440,580,415,377,189,281,176,370,346,344,325,219,192,-143,423,182,191,171
147187,234,380,610,67,160,504,329,508,275,400,379,339,310,125,448,578,412,382,190,277,172,327,337,345,328,247,187,-126,435,162,166,136
147188,230,386,615,73,148,501,326,514,301,396,361,319,317,128,459,594,394,401,215,286,203,374,366,374,348,294,233,-68,543,283,285,272
147189,219,355,605,64,128,496,308,516,288,376,348,320,311,120,466,582,386,395,198,268,185,363,347,362,338,266,234,-60,516,246,241,266
147190,235,370,610,59,155,513,305,520,284,399,348,341,318,142,457,600,424,401,196,259,186,351,361,364,326,257,222,-16,473,185,184,205
147191,201,345,569,38,140,486,278,497,282,377,312,302,308,114,449,577,394,388,207,296,205,322,396,392,351,292,272,94,604,329,352,383
147192,170,300,538,-3,117,466,253,490,270,368,293,279,293,123,440,572,368,385,198,289,197,327,390,380,338,298,291,70,594,322,349,455
147193,191,320,566,8,132,475,251,493,267,378,318,292,286,129,456,585,364,385,195,265,218,324,377,368,330,295,312,-79,512,246,301,505
147194,165,326,545,13,115,465,246,471,256,376,337,266,261,110,426,599,300,355,176,269,185,292,371,364,317,290,251,-191,483,225,279,266
147195,152,316,542,33,134,484,262,497,273,401,358,291,295,147,453,630,349,385,200,317,201,341,370,366,334,287,260,-124,487,209,241,178
147196,166,319,513,18,129,492,260,494,265,404,351,303,312,126,454,615,364,386,205,284,188,320,357,393,333,272,241,39,542,195,173,125
147197,192,342,533,30,145,488,297,491,289,392,355,299,310,136,455,599,347,404,232,297,182,301,387,412,370,279,214,122,605,252,201,47
147198,168,348,522,28,146,489,315,482,281,391,357,302,314,149,460,626,388,416,245,313,202,322,386,419,382,277,231,70,567,229,193,129
147199,161,333,480,22,135,484,303,462,265,395,353,288,299,142,459,627,379,388,219,306,216,329,306,375,369,275,246,-201,473,190,240,241
147200,147,302,495,10,139,479,270,437,271,392,353,275,297,141,466,626,394,401,234,342,234,310,313,386,383,322,296,-194,524,291,341,415
147201,144,319,508,4,112,456,275,414,258,398,328,255,268,144,463,603,365,360,224,306,214,310,295,361,380,309,299,-166,491,269,325,457
147202,156,335,499,15,118,471,291,434,270,409,354,287,293,144,462,621,337,383,226,309,213,325,320,356,383,304,288,-102,500,244,280,404
147203,141,330,503,14,143,478,278,448,280,388,346,317,300,142,447,601,353,405,227,328,211,310,359,381,397,310,280,-45,557,300,298,357
147204,109,285,491,-4,112,467,249,420,265,370,326,297,257,140,425,565,321,394,234,313,179,280,372,405,397,298,242,68,631,366,323,208
147205,103,279,477,9,115,463,239,419,255,394,303,306,264,140,418,566,320,411,229,328,162,259,436,435,407,289,188,246,730,411,301,12
147206,127,283,491,3,118,454,233,437,246,386,316,295,269,143,429,558,353,415,229,322,180,235,458,445,413,296,209,271,749,432,346,204
147207,126,289,498,4,130,460,246,437,255,392,322,272,246,133,427,593,349,361,212,307,191,270,330,383,395,304,260,-35,607,328,316,474
147208,149,325,485,-3,117,474,275,424,240,377,329,218,214,104,417,571,314,311,154,286,159,294,223,286,339,277,259,-326,417,189,228,440
147209,158,333,486,0,113,480,289,405,250,380,329,203,190,111,421,550,280,290,145,272,151,320,195,292,314,255,207,-333,402,144,147,223
147210,172,358,529,23,129,492,291,436,257,379,338,244,233,103,409,553,305,317,160,259,121,285,199,283,281,197,82,-316,337,25,-4,-244
147211,150,338,536,3,124,477,279,454,266,383,341,263,252,118,434,552,322,327,180,288,128,290,196,290,320,248,137,-381,318,56,105,-29
147212,139,317,534,-2,105,464,285,467,260,387,342,235,245,125,443,577,305,318,191,307,181,314,219,319,361,297,201,-310,372,151,208,216
147213,177,331,563,7,126,462,310,497,272,403,355,262,253,126,450,587,324,320,184,316,183,339,248,332,351,292,217,-265,370,106,159,202
147214,164,318,546,-2,112,461,287,490,264,386,332,253,259,138,461,564,335,343,212,326,187,350,295,377,382,312,238,-127,500,247,253,237
147215,163,321,539,-1,122,471,290,466,274,366,343,260,264,121,457,588,345,342,205,311,178,339,301,362,382,294,191,-140,509,222,187,31
147216,170,323,526,5,117,473,311,477,273,393,369,285,234,131,460,588,368,319,200,310,174,336,292,355,367,268,177,-209,424,133,145,-71
147217,162,339,525,12,109,480,346,466,262,394,367,274,244,151,469,596,359,324,198,311,201,335,268,331,371,306,219,-253,350,134,199,163
147218,181,343,510,18,128,465,337,441,249,375,352,280,239,133,472,611,327,314,181,321,207,360,261,307,350,306,245,-248,355,123,201,250
147219,146,321,456,0,104,446,308,425,248,374,334,249,230,132,449,594,286,299,176,318,186,339,268,313,348,319,248,-150,426,178,249,269
147220,147,308,451,-23,101,441,269,396,237,365,304,206,225,109,445,583,255,275,174,294,183,321,272,324,375,313,245,-67,510,289,305,295
147221,167,332,453,-11,123,449,266,422,251,377,311,213,242,105,437,593,277,302,193,295,188,322,315,357,383,325,230,63,619,389,316,236
147222,153,339,443,-16,124,469,299,410,250,364,313,237,239,119,427,619,311,310,192,279,188,315,331,360,363,311,222,122,628,347,279,147
147223,160,359,490,-15,142,488,330,423,234,374,340,257,215,98,433,614,322,276,159,262,181,338,269,287,327,256,189,-60,452,184,152,86
147224,215,406,559,10,144,519,366,442,249,377,354,262,225,90,437,616,337,254,127,247,160,378,233,250,293,240,195,-225,368,95,120,71
147225,270,433,601,22,160,542,392,453,254,392,393,273,229,101,457,650,351,296,162,283,206,434,250,286,323,286,263,-245,417,169,195,185
147226,283,434,601,35,163,522,385,454,240,387,382,290,232,87,460,676,386,318,173,280,235,435,278,322,346,309,301,-202,473,256,318,336
147227,271,448,591,28,174,532,408,453,251,396,399,302,241,90,500,701,443,357,198,321,271,454,331,358,401,372,393,-36,572,363,469,563
147228,228,446,537,-4,168,539,405,437,238,407,402,285,246,94,513,669,439,370,205,339,294,441,349,384,411,419,442,48,644,485,567,748
147229,243,445,539,3,179,535,385,435,258,406,393,307,264,113,511,669,434,395,214,325,281,442,373,415,408,393,406,142,642,443,465,601
147230,239,458,541,6,167,543,379,419,243,390,383,309,252,95,493,652,421,381,202,291,223,399,388,391,374,301,286,184,637,342,285,188
147231,215,454,528,5,169,556,361,428,239,387,400,277,230,82,479,634,409,340,151,263,187,379,324,322,302,270,228,61,502,173,158,26
147232,206,434,508,-6,187,556,331,400,231,389,388,241,208,59,479,610,357,324,149,247,187,370,295,319,299,257,231,15,480,169,147,62
147233,213,411,495,-3,178,564,316,370,235,395,364,232,213,63,469,616,342,325,162,274,204,375,308,354,345,284,257,16,565,289,242,151
147234,212,394,508,-10,184,534,288,392,245,403,362,246,217,67,447,580,366,321,174,286,184,337,298,356,351,282,232,2,579,300,215,94
147235,191,387,486,-7,166,539,275,384,267,400,351,230,237,76,459,578,374,335,192,272,181,328,290,353,337,292,237,13,580,301,248,91
147236,165,375,436,-16,156,529,248,373,247,403,321,207,212,71,451,583,348,306,154,276,182,355,276,330,338,286,228,-7,560,282,269,150
147237,125,359,350,-28,156,532,229,337,263,410,351,157,204,95,474,595,320,291,166,304,216,343,253,345,341,323,274,-80,547,301,317,269
147238,29,257,254,-77,121,508,174,288,246,428,330,135,212,97,489,596,307,297,195,333,260,381,286,388,408,412,387,-41,609,411,455,437
147239,-75,112,181,-92,103,468,97,276,240,418,300,146,213,112,483,599,336,297,216,345,291,406,328,415,445,433,415,31,617,398,443,451
147240,-61,142,232,-52,121,487,99,319,251,423,328,173,222,136,518,633,367,335,237,374,308,411,349,437,462,455,461,24,655,461,536,642
147241,151,355,430,6,149,526,206,383,235,418,356,216,206,76,480,597,405,316,165,319,268,363,297,354,387,414,441,-87,550,365,491,723
147242,362,571,608,66,192,585,334,460,221,413,376,258,202,42,451,595,384,287,129,279,241,370,269,304,334,389,440,-164,481,300,428,829
147243,525,730,736,103,222,633,458,500,232,418,414,278,200,34,441,614,401,291,129,230,221,373,275,278,305,324,343,-117,467,254,316,501
147244,555,775,735,131,253,665,503,518,271,437,452,311,214,48,474,659,420,300,133,238,217,409,269,287,314,289,227,-200,418,157,186,-53
147245,474,695,624,88,213,618,400,458,248,415,409,257,211,66,477,639,385,308,158,275,234,404,269,317,351,338,301,-161,492,236,274,181
147246,511,707,655,106,221,618,410,451,244,416,412,207,213,56,464,610,357,314,193,290,232,356,296,346,382,345,330,15,619,352,343,259
147247,545,767,671,112,236,639,443,474,253,441,442,217,207,81,483,625,330,327,202,290,221,345,327,364,383,318,278,137,669,370,302,55
147248,562,797,671,105,226,658,448,446,249,434,423,211,198,56,466,584,326,292,152,260,175,329,321,347,347,275,189,119,611,287,197,-137
147249,654,893,776,149,238,691,494,462,239,433,441,209,170,50,462,578,317,233,120,260,179,332,180,249,283,238,189,-231,342,61,89,-36
147250,725,937,798,161,270,702,479,459,239,442,425,162,159,55,456,567,260,169,76,245,165,337,53,159,243,243,206,-476,106,-128,36,147
147251,675,860,708,125,260,686,404,414,234,446,397,117,156,60,477,551,247,164,88,258,163,325,70,187,260,250,198,-394,208,-22,84,183
147252,640,841,700,126,234,674,382,407,233,437,379,120,143,66,473,516,235,167,93,260,160,298,80,191,276,241,197,-356,277,38,103,161
147253,651,854,707,130,245,648,352,388,232,441,364,106,128,53,471,490,200,158,107,269,146,244,106,206,295,255,173,-250,349,127,148,154
147254,654,830,678,113,246,631,330,378,231,430,352,87,153,69,472,476,211,176,113,275,138,229,128,233,310,259,169,-148,398,161,148,50
147255,650,854,707,115,237,637,339,387,222,438,362,101,140,83,471,457,218,172,124,266,125,216,108,228,286,249,129,-196,376,119,114,-3
147256,654,847,690,107,225,649,309,374,210,437,344,80,136,82,462,435,186,152,109,265,105,199,55,191,276,242,142,-263,340,75,138,85
147257,597,808,651,99,207,659,308,371,225,457,344,61,131,75,465,448,160,134,106,267,112,212,53,193,285,238,132,-303,299,62,135,98
147258,553,768,612,79,203,647,328,369,202,447,361,69,124,84,460,436,168,141,106,263,126,197,29,195,269,230,150,-356,305,109,184,147
147259,562,745,595,78,201,654,305,354,205,446,377,74,135,90,473,456,167,186,129,289,144,203,76,225,300,277,193,-284,415,245,292,293
147260,550,791,583,93,217,649,316,358,222,451,370,86,137,88,508,469,148,187,138,311,157,169,122,274,323,285,218,-196,498,328,366,380
147261,503,750,572,81,202,618,277,355,207,430,346,103,105,92,485,451,151,182,130,289,131,161,126,262,316,255,181,-243,458,286,321,337
147262,509,755,565,55,198,605,285,357,205,428,345,88,105,97,460,434,156,198,130,295,114,161,123,255,293,242,156,-236,467,284,311,333
147263,505,753,554,73,201,600,292,342,215,439,330,74,113,116,470,439,158,189,140,287,105,167,131,253,316,225,141,-153,461,251,267,339
147264,482,714,537,46,170,575,262,350,213,421,314,62,123,97,452,393,148,174,135,258,65,119,122,252,303,186,79,-142,433,218,246,232
147265,455,714,519,38,170,578,258,331,208,427,317,69,120,103,445,382,109,157,138,264,70,110,113,243,293,178,94,-166,427,220,252,217
147266,457,700,531,53,165,552,255,331,205,401,314,67,117,102,447,397,99,142,126,261,57,86,85,224,280,174,68,-206,365,155,208,161
147267,483,717,580,63,169,551,254,343,216,404,307,60,150,117,424,375,117,163,124,265,56,88,118,235,286,191,61,-157,417,238,253,145
147268,481,721,577,61,174,550,226,352,225,406,283,48,124,101,408,365,131,146,91,247,47,99,112,204,267,158,50,-151,356,147,175,114
147269,492,697,577,74,179,544,249,355,221,394,268,47,98,72,394,345,130,133,72,210,0,96,59,153,201,78,-41,-259,258,-22,-50,-203
147270,524,734,628,119,182,554,257,392,246,390,272,74,106,77,379,345,164,111,58,175,-36,94,45,124,171,36,-107,-357,202,-124,-164,-423
147271,507,726,608,103,172,548,242,375,234,370,254,39,86,67,342,335,139,91,32,160,-62,54,24,99,152,23,-147,-334,164,-139,-221,-472
147272,508,690,596,97,162,529,225,359,229,366,242,11,76,55,344,353,120,82,27,191,-13,58,-23,90,165,50,-77,-453,125,-158,-123,-271
147273,513,686,607,106,170,521,211,363,236,380,242,51,93,72,375,365,125,104,32,200,16,103,-28,88,186,93,-10,-560,122,-88,-14,-113
147274,508,676,609,106,177,526,217,378,237,382,255,46,111,87,378,389,102,112,53,210,42,116,-17,101,191,117,20,-529,162,-35,28,25
147275,518,659,582,91,152,519,214,399,233,367,254,23,111,86,379,397,40,99,63,213,69,86,-25,104,196,149,80,-554,163,-41,97,208
147276,510,685,578,104,177,508,233,395,252,378,257,65,138,109,374,399,43,124,79,214,60,78,34,122,208,153,59,-412,214,-10,40,47
147277,493,671,552,95,159,502,211,379,254,381,247,55,117,102,375,394,56,113,70,220,50,78,41,121,195,125,9,-346,226,-28,-25,-94
147278,463,635,534,70,148,471,171,363,252,376,211,23,108,97,367,370,24,102,73,224,47,45,35,127,197,134,19,-248,303,55,27,-39
147279,451,604,555,76,148,469,158,373,255,378,191,39,121,77,353,348,62,116,63,210,25,26,66,127,180,106,-24,-216,278,-9,-45,-153
147280,446,572,577,73,168,464,147,394,241,372,193,61,109,82,339,326,84,80,37,172,-1,-8,-15,60,131,55,-74,-511,68,-218,-205,-266
147281,455,588,567,55,169,471,147,388,238,369,195,52,97,80,340,338,61,65,42,182,22,-7,-32,62,136,67,-43,-589,71,-171,-141,-150
147282,406,562,531,22,120,457,132,363,227,351,181,0,82,48,332,315,40,31,20,167,2,-35,-50,40,123,46,-59,-608,60,-182,-116,-119
147283,388,556,505,29,134,454,125,351,219,363,186,-18,85,77,327,313,52,49,32,162,-5,-30,-58,47,120,63,-5,-538,77,-154,-65,6
