,Fp1,Fp2,F7,F3,Fz,F4,F8,FC5,FC1,FC2,FC6,T7,C3,Cz,C4,T8,TP9,CP5,CP1,CP2,CP6,TP10,P7,P3,Pz,P4,P8,PO9,O1,Oz,O2,PO10
42111,754,454,775,24,-6,114,665,360,-2,-63,122,229,-99,1,113,-371,557,-35,-13,-128,-152,104,53,-235,132,43,236,229,-102,-155,92,199
42112,703,433,728,-14,-26,114,664,364,-6,-80,42,-43,-100,-16,79,-387,613,-1,-7,-139,-172,76,107,-218,144,34,297,222,-85,-87,188,348
42113,739,370,769,38,-40,99,622,328,0,-92,31,-149,-84,-19,53,-369,585,-1,-1,-191,-229,146,55,-205,129,9,247,278,-67,-69,231,429
42114,744,374,725,76,-14,104,593,351,19,-69,52,-15,-3,-13,39,-338,559,51,20,-205,-257,207,79,-215,126,-12,135,275,-97,-110,124,120
42115,755,414,837,125,17,96,564,360,27,-73,38,60,-28,-19,60,-312,492,34,-14,-200,-244,174,104,-216,140,-8,156,383,-39,-37,188,297
42116,742,440,907,101,12,134,536,340,6,-70,-7,129,-150,-11,69,-296,415,-38,-35,-182,-206,184,103,-209,154,65,243,532,81,69,345,576
42117,765,428,728,146,9,153,490,400,12,-83,-14,236,-185,-34,61,-329,315,-50,-13,-188,-231,130,149,-183,146,51,236,425,65,81,356,465
42118,776,355,739,149,18,196,520,414,9,-77,-3,285,-140,-31,63,-379,423,11,5,-177,-219,24,211,-179,143,43,232,485,109,67,256,170
42119,757,253,752,-10,21,231,502,250,-49,-74,51,292,-211,-44,84,-454,532,40,15,-160,-195,-3,222,-217,138,60,295,384,22,-65,106,-113
42120,803,285,581,-37,47,194,492,235,-43,-42,76,309,-224,-63,97,-455,572,36,10,-192,-207,61,146,-233,124,42,308,238,-133,-214,9,-98
42121,745,280,630,48,56,213,475,353,-3,-44,100,102,-169,-58,109,-324,556,-22,9,-179,-121,8,76,-205,148,84,333,128,-67,-50,233,308
42122,721,357,840,63,56,253,534,374,15,-28,204,15,-129,-37,125,-226,576,-66,28,-140,-100,-49,112,-168,171,94,287,114,0,-14,180,179
42123,720,414,969,-4,48,252,610,329,6,-49,202,7,-117,-36,101,-226,544,4,18,-161,-174,-6,149,-148,145,35,189,260,-67,-152,-29,-70
42124,786,459,929,103,50,227,659,420,22,-67,126,-234,-71,-29,102,-273,454,46,19,-168,-183,-7,190,-148,149,10,118,249,-104,-168,-19,-54
42125,830,477,892,108,12,177,609,409,8,-72,-9,-87,-45,-27,73,-437,458,183,64,-167,-208,141,280,-92,169,13,95,228,-106,-143,72,116
42126,808,491,905,62,-6,146,568,347,0,-90,42,58,-13,-2,83,-441,454,280,68,-144,-201,25,258,-89,195,19,121,180,-109,-121,128,308
42127,811,480,920,64,33,168,594,364,19,-54,170,80,-23,6,132,-326,488,51,70,-120,-130,-32,236,-121,203,61,208,146,-84,-100,181,471
42128,852,424,942,38,51,240,565,364,27,-27,208,74,-21,23,133,-295,556,98,104,-99,-82,64,279,-77,221,93,245,365,-8,-56,154,271
42129,842,368,943,38,28,272,541,361,-6,-50,140,-62,-85,16,128,-331,577,125,92,-91,-114,-44,367,-73,208,66,158,508,20,-89,21,-82
42130,822,365,950,56,22,230,549,347,-26,-65,67,-42,-121,11,98,-390,529,88,55,-106,-156,43,339,-74,217,58,129,416,64,-37,92,8
42131,802,348,933,46,24,185,590,281,-11,-52,88,127,-110,0,98,-439,426,78,70,-92,-167,143,282,-61,207,41,130,244,26,-54,120,0
42132,784,377,903,61,7,179,632,264,-29,-54,141,291,-136,-15,100,-594,389,78,77,-115,-221,139,244,-79,179,-9,6,202,-49,-155,-31,-210
42133,711,366,846,131,0,205,574,313,-27,-71,164,261,-132,-2,85,-583,354,102,82,-90,-236,112,247,-68,209,20,60,382,20,-73,77,10
42134,760,417,911,171,34,243,539,365,-2,-57,189,248,-100,-4,91,-472,390,116,126,-72,-227,79,254,-30,235,45,153,553,86,-6,115,127
42135,806,476,997,125,29,199,509,437,-2,-58,114,360,-71,3,98,-330,521,125,110,-79,-192,-1,233,-30,232,47,126,648,75,8,127,91
42136,806,470,1112,122,-6,121,514,462,-2,-76,75,603,-74,-10,110,-235,585,125,92,-97,-179,-82,195,-50,216,68,165,559,63,6,139,98
42137,812,437,1023,113,9,110,548,442,6,-43,86,507,-36,12,144,-192,631,160,115,-59,-122,99,233,-39,258,92,274,524,45,21,181,191
42138,791,428,717,90,0,152,572,472,4,-55,96,56,-21,9,128,-328,537,158,108,-54,-152,216,146,-61,242,84,273,179,-76,-68,186,186
42139,759,374,693,119,-1,187,582,425,-15,-45,108,-456,-71,22,145,-510,451,93,93,-57,-117,175,49,-75,221,124,313,58,-84,-44,243,341
42140,725,329,722,154,-7,205,588,403,-11,-40,117,-434,-90,16,131,-472,283,73,84,-81,-86,71,14,-108,216,110,378,156,-78,-38,216,348
42141,731,386,757,139,-2,235,612,317,-16,-28,191,-131,-121,11,173,-332,343,57,67,-62,-54,30,46,-148,194,114,401,53,-157,-100,142,298
42142,706,399,683,144,-28,179,629,247,-6,-47,177,46,-152,0,192,-327,523,80,50,-87,-81,42,148,-140,193,106,303,155,-121,-137,12,113
42143,724,315,656,156,-23,156,539,284,-21,-72,145,17,-121,-9,131,-443,307,23,24,-117,-172,62,91,-164,173,37,130,114,-150,-188,-23,-23
42144,780,254,817,81,14,229,548,288,-3,-62,163,335,-115,3,140,-381,256,48,63,-112,-162,44,135,-112,205,61,113,175,-88,-117,47,84
42145,794,344,1189,57,32,254,595,134,-15,-25,184,763,-174,33,184,-278,638,129,113,-45,-119,80,337,-58,258,118,161,396,43,-84,29,69
42146,677,363,951,45,-2,186,600,210,-17,-31,192,385,-114,20,187,-282,615,74,94,-36,-91,13,347,-81,247,126,197,352,-2,-109,68,50
42147,772,440,807,61,15,203,589,270,-17,-33,205,40,-26,16,209,-339,537,84,90,-38,-88,-75,332,-79,248,109,106,427,-20,-75,116,54
42148,932,556,984,114,29,220,607,262,-28,-22,225,31,-69,13,191,-435,545,152,98,-49,-105,45,280,-59,264,125,132,482,52,14,190,201
42149,880,519,772,5,11,200,579,330,-30,-18,197,136,-173,20,177,-359,496,60,106,-48,-74,115,181,-71,275,139,198,213,31,13,211,281
42150,827,460,862,2,13,214,591,337,-24,-27,133,340,-126,18,167,-235,494,40,114,-18,-74,34,229,-94,288,140,184,263,10,-9,212,156
42151,758,307,900,19,-9,191,560,335,-12,-50,102,371,-96,14,152,-178,418,182,95,-70,-134,-98,224,-100,224,86,129,230,-81,-145,41,-17
42152,749,202,874,3,-9,170,566,344,-16,-50,135,-64,-73,2,156,-86,246,175,89,-55,-81,-30,184,-120,238,112,268,100,-88,-145,90,111
42153,696,201,656,54,5,198,623,437,-3,-38,144,-143,-43,24,178,-207,408,92,108,-34,-78,75,403,-64,276,144,287,278,26,-36,164,237
42154,761,182,568,151,-4,150,632,563,9,-65,35,-161,-36,40,145,-307,466,113,106,-49,-136,17,432,-60,253,126,224,326,50,-11,155,182
42155,803,278,883,98,-2,187,663,385,4,-46,53,-2,-47,33,161,-391,545,102,97,-48,-147,16,394,-69,238,104,189,427,50,-12,141,79
42156,823,421,1042,-50,-45,185,673,165,-29,-44,98,217,-137,14,187,-408,497,76,77,-42,-103,101,298,-75,241,115,223,447,76,-9,146,114
42157,856,430,928,-1,-30,190,678,211,-16,-42,135,357,-121,30,152,-407,310,91,63,-62,-114,102,243,-92,229,102,195,263,-54,-82,90,193
42158,906,445,829,46,-3,162,663,243,8,-49,141,397,-89,37,177,-387,437,148,83,-40,-98,75,383,-18,250,121,195,192,-4,-52,111,246
42159,918,449,875,20,11,145,632,224,-14,-44,125,421,-132,23,171,-353,491,111,82,-40,-105,132,357,-7,256,121,262,161,0,-44,125,211
42160,817,414,952,39,10,127,621,318,-8,-61,100,470,-126,26,150,-379,505,75,86,-58,-104,221,239,-68,256,103,328,346,4,-14,135,268
42161,780,402,932,96,-11,123,611,414,12,-69,64,384,-93,43,174,-378,459,116,102,-62,-92,242,235,-61,258,99,353,373,60,8,149,326
42162,757,349,866,119,-27,146,550,460,19,-51,55,71,-33,51,177,-372,529,223,164,-39,-80,161,404,10,288,139,410,532,115,18,110,177
42163,810,332,908,86,-11,216,545,501,22,-45,94,-359,-25,54,208,-378,497,245,187,-27,-32,179,403,13,300,187,518,374,123,40,149,227
42164,796,322,817,76,-16,206,499,395,0,-32,98,-503,-30,58,213,-320,436,209,176,-22,11,-19,309,-6,304,172,440,433,113,59,164,241
42165,775,355,750,37,-30,262,524,323,-17,-33,97,-190,-75,35,236,-204,394,176,144,7,41,-49,307,-3,307,193,361,505,104,46,193,240
42166,751,319,735,47,-47,212,530,290,-26,-54,71,156,-142,20,234,-246,208,109,108,-11,30,79,147,-87,259,180,323,224,-3,5,178,294
42167,752,343,749,113,-54,146,577,247,-16,-48,76,476,-142,48,199,-330,604,163,134,-3,-44,30,325,-27,275,172,238,471,118,68,213,333
42168,690,350,659,64,-43,176,495,217,-22,-43,126,414,-165,51,176,-556,779,126,127,1,-114,45,466,22,299,151,159,743,203,135,218,307
42169,713,395,711,64,-31,145,457,265,0,-68,117,-101,-89,40,142,-712,637,79,112,-14,-192,45,376,-2,257,117,41,846,204,93,50,-90
42170,768,407,907,-46,-53,137,540,183,-38,-54,165,-103,-135,44,180,-637,579,98,123,3,-162,77,382,-39,246,110,83,471,130,34,104,73
42171,769,372,840,-21,-49,108,658,170,-42,-55,226,26,-180,24,179,-473,512,81,79,-46,-158,127,314,-140,188,57,92,136,-78,-142,54,124
42172,787,350,891,61,-41,109,606,130,-46,-64,168,256,-200,0,151,-418,485,51,33,-87,-181,61,226,-211,150,1,73,-152,-282,-253,-28,103
42173,753,360,939,58,-48,143,595,124,-49,-73,137,389,-231,0,157,-420,508,26,18,-77,-202,76,149,-222,145,14,96,-70,-250,-212,15,211
42174,716,387,878,11,-50,211,621,140,-49,-62,149,270,-203,-17,148,-412,431,-23,31,-90,-162,-144,98,-227,149,46,137,36,-170,-133,111,326
42175,720,348,794,-15,-71,231,628,155,-29,-58,189,262,-163,20,165,-535,327,65,54,-51,-103,24,114,-219,173,111,278,21,-110,-102,153,438
42176,720,308,869,10,-68,200,630,179,-20,-54,209,234,-146,23,142,-700,353,107,48,-43,-154,58,204,-179,175,93,296,101,-87,-81,136,356
42177,629,287,880,33,-60,168,623,221,-40,-52,192,87,-201,-2,137,-737,501,48,29,-64,-196,79,276,-177,179,24,199,216,-58,-89,80,253
42178,599,254,867,84,-75,109,604,205,-54,-83,145,70,-248,-21,133,-660,353,51,16,-78,-164,68,241,-170,189,27,184,267,-1,-26,175,358
42179,649,279,784,49,-66,69,607,262,-40,-99,119,34,-190,-24,103,-554,258,88,18,-89,-170,-187,259,-168,159,7,65,355,-24,-110,27,-75
42180,788,339,816,65,-46,130,583,254,-23,-96,118,-185,-165,-32,112,-426,259,81,12,-100,-189,-277,178,-207,145,-12,-30,240,-61,-220,-154,-470
42181,862,397,735,97,-30,157,599,214,-16,-97,111,-306,-130,-5,126,-407,253,57,12,-110,-214,-45,89,-231,142,-17,36,134,-89,-218,-178,-450
42182,855,398,536,127,-25,115,525,288,10,-92,38,-89,-65,5,92,-552,199,174,49,-124,-233,0,109,-208,149,-38,46,248,-76,-194,-146,-173
42183,857,301,869,209,-25,107,468,328,11,-84,95,57,-111,-11,102,-597,123,-3,14,-106,-207,-40,92,-276,141,-9,100,23,-210,-245,-38,139
42184,775,237,892,83,-44,145,591,264,-31,-54,146,123,-253,9,182,-471,350,-66,34,-45,-77,-33,216,-200,194,109,315,115,-58,-86,190,404
42185,689,250,655,-72,-50,171,661,156,-74,-28,135,197,-288,43,239,-391,421,13,61,-10,-30,37,247,-118,217,130,476,324,13,-44,152,182
42186,766,280,750,59,-43,170,635,183,-36,-28,142,205,-210,25,213,-408,418,7,51,-14,-63,123,265,-137,214,89,427,384,2,-84,3,-154
42187,755,287,723,90,-43,126,632,234,-37,-65,133,174,-188,-2,147,-516,480,17,32,-81,-154,118,260,-166,167,21,165,230,-26,-133,-13,-170
42188,768,289,713,-10,-46,198,668,179,-33,-64,111,169,-174,2,128,-574,470,59,63,-89,-237,81,269,-150,161,-36,-100,215,-20,-157,-29,-130
42189,730,259,690,-28,-81,182,621,139,-37,-63,89,112,-180,11,127,-613,492,49,75,-64,-257,112,297,-134,209,0,-60,400,68,-61,35,-13
42190,738,209,700,-28,-69,95,544,172,-49,-71,43,-65,-188,2,118,-692,427,91,82,-70,-269,119,342,-86,227,20,-4,465,109,3,103,103
42191,752,188,699,-19,-52,155,470,215,-48,-60,56,-384,-161,-5,132,-678,364,119,85,-66,-255,107,367,-94,206,25,37,133,9,-66,109,168
42192,715,211,585,52,-43,248,430,211,-39,-73,77,-625,-161,-9,138,-658,305,51,61,-81,-215,100,283,-149,187,22,101,-33,-63,-102,113,188
42193,732,256,551,77,-56,176,474,282,-43,-84,93,-518,-186,-24,120,-684,341,0,30,-92,-201,52,203,-194,171,9,89,249,-89,-133,26,89
42194,769,302,750,35,-23,173,564,248,-46,-61,142,-125,-187,0,149,-684,460,75,54,-53,-147,-12,257,-109,223,67,126,393,-5,-69,64,73
42195,784,362,820,20,-11,202,592,126,-36,0,199,208,-199,35,235,-715,509,139,99,6,-78,80,385,-59,288,160,265,422,107,57,163,128
42196,775,364,871,-41,-40,268,631,149,-45,2,193,274,-222,43,241,-768,467,97,94,-2,-74,156,387,-100,257,116,251,268,17,-52,58,102
42197,807,337,827,7,-23,310,614,180,-37,-19,145,280,-226,33,201,-700,459,71,92,-7,-96,198,335,-120,252,127,268,244,-25,-66,100,130
42198,803,363,768,37,-25,310,571,160,-27,-17,143,265,-216,54,203,-660,531,66,96,-14,-83,168,320,-103,267,138,248,332,-3,-46,118,149
42199,738,282,719,28,-39,217,592,132,-50,-55,166,341,-211,34,204,-734,542,46,73,-42,-105,108,237,-131,251,96,200,365,5,-70,90,130
42200,726,194,752,15,-47,208,558,147,-32,-36,138,431,-194,43,214,-627,421,53,81,-29,-99,137,220,-143,260,134,255,250,-23,-76,96,114
42201,644,235,767,14,-40,233,533,145,-30,-29,121,446,-208,34,201,-514,304,81,75,-7,-104,162,247,-141,250,136,274,158,-39,-84,127,131
42202,552,337,708,75,-42,196,587,152,-17,-22,222,393,-217,43,236,-563,454,155,92,9,-75,149,332,-101,270,137,218,281,9,-21,193,203
42203,598,358,659,121,-31,143,552,190,-21,-38,190,122,-163,61,220,-558,470,146,122,33,-46,47,387,-86,303,155,231,308,61,47,258,288
42204,681,324,749,63,-27,167,565,167,-7,-43,114,116,-142,61,220,-537,449,100,138,62,-23,8,381,-52,324,206,299,462,134,101,304,278
42205,750,353,801,34,-13,201,613,146,-20,-23,205,359,-135,80,270,-420,481,113,163,55,5,112,390,-5,364,256,312,637,217,166,305,238
42206,793,351,769,17,-35,232,599,144,-41,-20,200,306,-138,60,259,-444,477,121,170,34,5,285,420,40,369,239,345,785,247,203,318,246
42207,915,385,788,10,-25,189,670,128,-35,-21,187,224,-159,66,242,-394,338,116,161,55,39,281,366,14,380,274,357,510,219,190,350,334
42208,914,346,795,-3,-33,178,657,156,-36,-14,179,142,-156,74,270,-346,458,95,165,91,32,288,333,-28,382,292,367,430,172,156,327,424
42209,845,293,745,21,-54,140,636,170,-63,-40,153,130,-151,64,262,-451,342,68,141,67,-32,325,282,-73,345,259,368,205,76,126,362,543
42210,797,326,704,62,-40,154,640,193,-38,-44,166,179,-127,72,232,-518,267,122,135,40,-69,333,294,-31,337,230,316,188,63,70,254,260
42211,762,303,782,80,-22,141,637,232,-16,-31,182,157,-101,80,226,-509,308,158,174,81,-24,305,374,16,365,250,407,377,148,124,251,282
42212,689,289,725,116,-37,98,570,267,-14,-41,165,104,-96,87,236,-505,363,204,172,63,28,244,465,2,361,262,500,316,144,112,244,286
42213,722,304,772,169,-23,126,581,328,8,-50,187,55,-30,76,251,-547,351,334,189,40,38,235,455,4,357,234,452,298,96,60,152,93
42214,777,315,691,37,-38,168,684,293,-5,-31,199,86,-20,84,283,-571,339,293,204,57,22,285,408,0,383,244,446,452,145,122,252,170
42215,821,340,468,43,-37,204,726,194,-19,-17,251,131,-66,87,292,-599,541,118,205,73,0,306,499,21,389,240,363,583,229,204,334,310
42216,851,258,594,119,-36,148,634,241,-20,-46,166,96,-20,75,238,-579,619,160,190,55,-22,143,583,59,385,250,345,767,299,263,369,239
42217,842,197,749,20,-44,118,633,192,-48,-55,107,-13,-63,70,201,-330,483,98,194,62,41,199,459,19,393,279,465,459,258,209,305,264
42218,835,130,733,37,-26,109,660,230,-48,-53,166,-189,-150,64,214,-395,471,114,193,36,-17,248,390,-13,356,199,313,314,148,106,252,406
42219,777,150,783,108,-7,195,606,281,-35,-38,189,59,-174,73,231,-449,426,194,190,28,-33,148,376,-7,343,170,206,177,49,52,225,328
42220,666,206,752,120,-22,292,551,185,-50,-47,213,155,-169,68,211,-609,319,217,175,32,-52,235,386,-13,322,155,207,225,56,-6,135,199
42221,695,283,720,81,-26,277,626,229,-21,-40,200,-33,-110,42,217,-740,132,150,181,28,-59,253,241,-60,317,135,227,363,45,-3,146,261
42222,737,294,716,96,-42,224,694,346,21,-30,170,3,-22,85,251,-774,209,171,211,42,-61,207,204,-68,341,175,257,502,107,119,328,499
42223,682,307,843,-94,-59,226,630,168,-36,-34,155,-51,-77,81,251,-697,458,167,203,69,10,136,329,-18,382,247,391,579,197,231,453,740
42224,710,348,805,-59,-50,251,630,162,-40,-33,168,-101,-144,89,257,-621,449,158,212,75,54,91,427,35,391,295,405,547,244,246,403,530
42225,722,344,829,0,-35,251,611,189,-48,-25,146,176,-186,87,254,-586,549,140,192,56,42,177,505,19,355,239,293,514,179,90,197,90
42226,717,316,881,24,-20,292,559,134,-49,-41,99,271,-183,46,233,-699,572,90,144,11,-35,173,430,-39,300,140,162,487,77,-9,59,-58
42227,812,306,837,62,-5,252,595,200,-26,-31,127,399,-209,42,234,-904,536,97,131,9,-97,120,328,-54,292,125,118,375,9,-62,90,118
42228,696,320,600,-36,-20,187,642,204,-36,-27,231,398,-207,49,274,-913,535,108,120,54,-54,146,279,-61,318,201,280,383,74,68,324,517
42229,632,255,622,-12,-28,163,605,206,-31,-17,293,348,-208,38,289,-786,553,74,138,80,38,109,325,-50,364,282,561,499,171,218,570,965
42230,635,157,585,21,-32,190,575,222,-40,-16,245,246,-200,27,283,-711,419,13,120,46,31,76,258,-83,325,231,483,430,82,103,403,701
42231,598,208,681,39,-22,193,569,232,-15,-32,150,267,-160,23,220,-776,238,28,109,-18,-96,162,255,-80,279,109,173,334,48,-12,62,-51
42232,660,320,877,27,-15,140,622,187,-11,-50,82,323,-145,37,180,-726,350,140,126,-15,-152,105,472,-21,299,89,-6,613,115,-28,-78,-316
42233,718,313,824,-40,-34,138,574,148,-52,-77,85,303,-188,28,163,-718,622,146,128,-4,-137,160,556,-11,304,98,126,835,179,17,27,-142
42234,685,250,630,-120,-50,156,546,130,-67,-91,93,224,-235,10,166,-679,602,46,108,-4,-54,297,358,-104,280,93,312,440,74,-15,86,-17
42235,626,278,710,-1,-21,187,626,276,-34,-58,100,183,-163,28,218,-646,390,69,106,-21,-14,345,154,-140,272,115,404,124,-51,-56,109,59
42236,626,262,803,102,-19,121,615,373,-10,-53,64,125,-119,43,217,-670,388,130,128,-15,-23,335,165,-125,288,129,336,32,-103,-33,182,270
42237,649,270,782,114,-37,64,641,369,-9,-54,119,-315,-121,40,202,-897,265,149,108,-16,-110,312,133,-132,261,101,254,-98,-198,-107,173,264
42238,674,321,785,127,-9,66,684,344,-3,-52,157,-606,-122,41,195,-859,152,176,124,-28,-110,202,206,-96,263,85,137,133,-101,-105,72,29
42239,698,247,877,105,-14,77,661,255,-19,-57,145,-239,-129,37,180,-806,442,191,143,-30,-132,206,328,-54,295,80,75,396,42,-24,73,5
42240,704,231,772,1,-17,201,578,218,-41,-44,176,279,-159,38,210,-773,526,155,133,-14,-82,269,426,-35,301,119,173,410,104,71,175,96
42241,752,292,794,0,-25,224,472,173,-56,-56,168,319,-189,25,198,-738,547,126,128,-4,-53,206,587,-31,321,154,208,651,193,131,207,154
42242,736,251,474,57,-26,148,545,219,-28,-43,140,104,-174,38,191,-655,391,112,149,-11,-54,87,479,-25,318,159,218,398,158,125,239,247
42243,680,212,113,24,-30,84,570,213,-28,-71,110,-16,-168,30,186,-679,396,83,126,-16,-30,101,364,-38,285,149,238,208,58,50,159,215
42244,752,251,558,66,-7,123,588,246,-43,-53,138,21,-156,39,208,-768,359,95,118,-3,-33,310,305,-61,301,185,353,76,-13,2,187,329
42245,759,236,795,8,9,190,610,224,-24,-46,167,154,-151,40,214,-738,358,183,94,-4,-28,294,157,-119,276,199,383,27,-97,-59,225,460
42246,770,194,817,-58,-10,201,581,171,-72,-73,202,188,-213,-4,178,-876,358,105,39,-54,-104,292,62,-205,205,100,240,3,-208,-188,39,248
42247,779,156,774,11,-7,203,585,211,-81,-79,212,42,-230,-9,165,-1016,367,-44,44,-88,-181,235,141,-202,191,43,85,48,-181,-219,-116,-151
42248,736,116,774,-33,5,182,602,203,-51,-53,261,-1,-185,40,194,-1075,272,48,87,-49,-117,148,145,-161,228,105,119,76,-124,-167,-40,23
42249,723,65,700,-82,-9,119,565,168,-55,-65,249,37,-165,24,187,-1032,168,71,72,-61,-128,72,148,-183,226,81,113,42,-137,-165,-56,32
42250,693,128,646,-78,-2,93,562,139,-53,-79,206,-10,-125,21,220,-1026,212,71,63,-46,-122,60,149,-201,233,99,222,171,-122,-145,-34,-8
42251,710,153,600,-82,7,123,591,102,-67,-53,178,-33,-131,45,212,-1025,347,38,84,-15,-82,115,181,-155,232,153,311,277,-110,-141,-16,-85
42252,677,129,564,-41,-33,156,574,175,-55,-60,187,-45,-149,21,212,-894,174,34,93,-9,-89,0,251,-146,242,148,254,150,-146,-140,56,12
42253,676,206,676,-4,-29,166,563,276,-49,-65,203,100,-200,26,254,-653,183,80,109,-23,-32,-336,359,-153,246,164,200,216,-114,-101,79,60
42254,710,229,662,-10,-38,146,483,224,-60,-56,159,194,-174,58,246,-604,294,165,139,7,-3,-231,489,-73,290,206,244,300,-4,25,220,179
42255,688,195,638,32,-57,127,456,208,-60,-71,98,58,-165,39,189,-800,507,91,106,-50,-145,-10,420,-125,248,96,39,417,-28,-101,-1,-39
42256,637,170,687,40,-49,130,483,189,-60,-88,19,1,-177,26,184,-891,466,32,61,-67,-180,66,234,-177,230,77,1,286,-101,-197,-80,-144
42257,533,69,713,75,-37,226,493,213,-49,-52,30,26,-153,43,183,-1003,344,0,82,-64,-146,154,152,-183,244,140,112,69,-157,-186,-5,10
42258,468,32,510,3,-35,236,543,176,-22,-23,158,133,-130,46,203,-1049,361,-10,107,-63,-108,168,149,-176,256,163,156,83,-140,-156,9,34
42259,510,85,506,-62,-37,165,512,182,-33,-57,175,136,-133,51,212,-986,347,27,109,-48,-146,172,202,-148,267,128,187,235,-59,-109,71,90
42260,626,145,592,-35,-54,107,516,228,-53,-92,142,-55,-132,21,164,-1079,221,33,79,-92,-222,9,173,-176,226,64,71,326,-56,-111,10,-6
