,Fp1,Fp2,F7,F3,Fz,F4,F8,FC5,FC1,FC2,FC6,T7,C3,Cz,C4,T8,TP9,CP5,CP1,CP2,CP6,TP10,P7,P3,Pz,P4,P8,PO9,O1,Oz,O2,PO10
1810,211,-47,180,-127,-71,176,135,313,43,-116,58,-2,230,-109,118,58,248,6,-132,-214,-168,40,171,27,196,53,69,62,326,46,54,-433
1811,230,-35,171,-111,-52,214,156,308,31,-105,43,9,201,-104,124,73,231,17,-124,-205,-162,38,181,29,184,43,94,143,343,38,68,-381
1812,224,-22,152,-118,-45,211,170,298,22,-87,84,-6,192,-127,128,90,189,-25,-154,-219,-161,48,142,-5,158,14,69,27,244,-86,-34,-433
1813,214,-45,116,-109,-46,212,149,274,39,-82,103,-45,157,-113,156,107,218,-40,-150,-208,-119,61,138,-1,157,59,150,-22,287,-6,54,-282
1814,225,-3,141,-103,-22,257,162,272,29,-79,108,-40,126,-94,151,131,240,-53,-165,-192,-103,70,133,-29,154,77,179,-79,250,-11,123,-158
1815,222,-24,112,-120,-37,253,170,234,-2,-96,103,-73,78,-154,142,122,213,-120,-207,-224,-139,86,65,-85,99,19,138,-173,134,-137,-4,-206
1816,217,-36,112,-101,-27,233,174,223,3,-98,103,-82,80,-149,138,125,252,-119,-233,-239,-151,79,71,-89,99,-5,120,-131,130,-168,-60,-338
1817,211,-40,93,-119,-40,229,165,199,-17,-100,91,-103,56,-165,108,111,240,-134,-243,-248,-155,66,73,-97,80,11,117,-104,155,-144,-26,-384
1818,209,-22,85,-122,-14,228,162,189,-6,-94,103,-75,47,-143,127,163,229,-139,-226,-246,-132,93,95,-73,84,37,167,-114,206,-103,20,-282
1819,206,-13,60,-115,6,243,164,207,20,-68,114,-77,82,-132,150,166,247,-115,-211,-224,-96,105,108,-56,119,66,225,-41,265,-23,83,-185
1820,179,-57,36,-109,-38,221,145,168,-2,-89,76,-137,55,-168,112,125,244,-136,-236,-244,-120,108,92,-51,111,35,211,23,271,10,111,-48
1821,184,-69,64,-110,-25,212,127,183,16,-93,89,-115,79,-158,124,137,261,-96,-213,-252,-94,135,110,-17,131,51,259,9,313,81,204,101
1822,161,-71,10,-131,-42,220,118,163,-11,-114,68,-133,73,-169,130,130,213,-104,-212,-230,-93,138,98,-19,137,83,296,-15,353,134,253,177
1823,189,-50,3,-121,-28,224,142,182,10,-105,93,-113,97,-150,149,134,203,-86,-200,-214,-75,144,133,-8,168,78,262,66,396,149,243,129
1824,186,-35,21,-113,3,246,173,196,26,-74,127,-103,117,-129,185,171,217,-62,-185,-204,-46,171,156,-20,164,96,310,75,326,68,216,187
1825,195,-35,45,-133,-10,246,182,181,18,-81,97,-93,115,-158,153,160,196,-94,-208,-251,-104,137,96,-71,81,31,228,-82,204,-95,-12,-187
1826,222,-11,66,-112,-5,248,204,191,21,-86,88,-77,115,-155,139,178,224,-98,-232,-255,-87,149,85,-82,90,5,249,-173,130,-152,-97,-341
1827,197,-13,67,-124,-22,233,179,199,0,-107,64,-69,141,-174,115,123,283,-73,-246,-287,-156,111,110,-90,47,-62,73,-68,149,-176,-150,-517
1828,212,43,84,-112,-24,232,213,238,22,-95,80,-22,189,-158,133,126,314,-31,-221,-282,-153,133,135,-60,57,-60,37,-3,216,-128,-90,-466
1829,237,52,101,-103,-10,246,222,263,26,-89,112,15,203,-143,148,169,343,-4,-183,-244,-132,179,163,-25,118,-19,124,31,267,-70,-31,-329
1830,257,66,151,-83,10,273,264,314,42,-74,159,60,251,-119,182,205,362,48,-148,-230,-91,192,179,-2,146,6,155,24,286,-24,-8,-316
1831,231,56,144,-118,-31,254,216,321,26,-93,137,30,229,-130,158,169,347,41,-154,-233,-126,176,168,-25,124,-35,115,3,230,-85,-79,-422
1832,234,45,133,-118,-14,258,208,323,39,-84,119,71,254,-101,179,188,333,48,-128,-195,-112,166,230,22,176,37,166,90,339,23,23,-229
1833,195,-14,150,-112,-27,234,180,327,38,-73,109,92,270,-76,181,182,355,92,-93,-178,-78,148,258,65,197,54,194,203,439,136,103,-95
1834,156,-32,106,-148,-62,223,172,303,23,-85,103,68,255,-97,172,162,333,78,-103,-194,-73,155,228,40,183,37,186,122,374,83,55,-38
1835,176,-30,132,-163,-77,217,166,295,15,-90,94,40,249,-109,163,138,314,47,-117,-196,-84,111,177,-28,172,14,164,-8,250,-52,-29,-138
1836,190,-30,174,-145,-73,221,168,323,43,-68,111,39,246,-71,180,156,318,23,-113,-171,-59,143,137,-40,162,38,183,-135,120,-151,-41,-110
1837,141,-71,139,-140,-66,241,146,309,48,-64,103,-9,267,-55,194,140,294,-4,-75,-150,-52,120,148,-27,186,70,178,-122,166,-94,26,-87
1838,101,-105,90,-174,-87,193,103,278,19,-80,85,-40,239,-72,173,125,197,-49,-99,-183,-98,85,56,-83,162,-3,88,-196,83,-183,-76,-363
1839,53,-125,51,-168,-89,197,99,279,32,-78,93,-69,229,-65,181,141,159,-79,-106,-185,-112,89,12,-107,179,0,109,-263,47,-195,-83,-333
1840,22,-139,29,-182,-88,183,63,241,43,-74,73,-110,207,-63,166,110,161,-94,-103,-158,-103,57,-1,-87,187,45,147,-231,97,-117,-12,-263
1841,17,-188,6,-186,-112,149,12,197,33,-74,35,-132,181,-57,141,52,161,-127,-132,-166,-131,-3,-15,-98,187,18,115,-160,109,-77,23,-251
1842,-11,-204,-30,-198,-109,135,-32,203,26,-73,30,-158,154,-73,138,17,131,-156,-150,-180,-153,-31,-48,-125,182,25,122,-120,110,-104,29,-186
1843,-45,-229,-88,-205,-105,117,-23,180,11,-82,26,-181,128,-92,130,20,136,-208,-183,-192,-153,-34,-118,-185,144,29,120,-247,5,-237,-38,-243
1844,-39,-239,-95,-204,-81,163,-19,158,22,-75,-18,-194,106,-89,137,29,117,-243,-207,-193,-121,-4,-122,-192,146,43,162,-231,22,-195,-17,-200
1845,-59,-262,-102,-226,-108,159,-30,131,17,-84,-25,-218,63,-128,127,4,67,-263,-234,-207,-157,-5,-152,-211,131,49,132,-222,51,-128,47,-302
1846,-61,-297,-142,-222,-98,130,-28,103,-14,-116,-10,-256,20,-137,111,2,10,-311,-278,-245,-206,-46,-226,-299,46,-7,43,-351,-69,-273,-133,-546
1847,-88,-296,-178,-218,-86,135,-53,96,-20,-107,-7,-262,2,-142,114,-4,20,-313,-288,-250,-188,-50,-210,-319,39,-8,78,-366,-111,-345,-148,-414
1848,-121,-331,-196,-231,-88,138,-94,91,6,-89,-3,-266,28,-117,112,2,42,-298,-265,-227,-166,-61,-121,-242,76,42,127,-165,38,-142,15,-246
1849,-111,-314,-208,-211,-91,149,-57,43,0,-82,2,-291,28,-144,115,5,20,-307,-286,-263,-173,-44,-145,-263,40,12,127,-257,-6,-191,-36,-287
1850,-111,-325,-223,-212,-87,126,-56,50,-22,-104,-26,-303,4,-174,85,-47,-7,-323,-325,-297,-214,-79,-179,-276,12,-9,94,-337,-57,-251,-26,-334
1851,-128,-330,-226,-237,-83,106,-58,34,-6,-126,-89,-279,20,-182,47,-60,-11,-288,-329,-310,-216,-71,-142,-251,9,-55,75,-212,-11,-217,-15,-305
1852,-139,-340,-244,-220,-63,120,-52,43,-6,-119,-63,-243,46,-192,53,-43,24,-263,-307,-306,-227,-42,-135,-255,-4,-65,85,-286,-29,-239,-64,-328
1853,-112,-342,-238,-207,-59,124,-71,62,-5,-113,-45,-220,40,-193,46,-30,85,-242,-304,-321,-248,-62,-132,-267,-18,-101,45,-358,-74,-294,-120,-400
1854,-87,-317,-210,-195,-52,136,-39,80,-16,-101,-25,-216,62,-186,47,-3,92,-224,-302,-324,-238,-65,-94,-244,-14,-114,54,-328,-71,-327,-139,-410
1855,-101,-324,-198,-203,-61,149,-33,92,-13,-110,-21,-245,75,-186,42,-13,118,-204,-307,-335,-253,-85,-71,-203,-26,-131,52,-258,-23,-305,-127,-408
1856,-95,-317,-157,-197,-63,133,-29,110,8,-108,-25,-227,89,-189,41,-39,103,-173,-304,-330,-261,-96,-58,-195,-41,-162,25,-205,-8,-284,-155,-401
1857,-119,-345,-170,-232,-69,103,-55,86,-3,-129,-26,-228,104,-186,30,-87,76,-146,-273,-319,-272,-93,-12,-146,0,-111,45,-100,86,-182,-78,-246
1858,-111,-351,-169,-246,-73,101,-83,87,0,-124,-44,-256,109,-157,44,-85,62,-148,-255,-317,-256,-62,-25,-148,-2,-118,88,-182,56,-193,-39,-74
1859,-119,-355,-163,-260,-102,78,-74,92,-17,-140,-56,-245,105,-169,23,-105,66,-142,-278,-329,-273,-52,-53,-195,-30,-145,53,-292,-27,-276,-107,-126
1860,-127,-347,-122,-232,-89,105,-45,140,-11,-138,-48,-163,137,-153,43,-101,90,-91,-261,-314,-277,-34,1,-142,-21,-139,30,-210,71,-250,-141,-316
1861,-77,-326,-62,-220,-72,98,-20,162,-7,-125,-36,-149,141,-156,60,-80,113,-104,-245,-316,-269,-55,0,-136,-5,-125,49,-211,69,-258,-166,-476
1862,-46,-312,-50,-241,-101,83,-63,175,-29,-143,-60,-171,130,-175,19,-87,83,-120,-246,-333,-292,-82,-11,-159,0,-128,20,-167,57,-263,-117,-293
1863,-70,-339,-91,-258,-101,96,-67,160,-29,-148,-76,-142,132,-195,15,-93,114,-118,-248,-344,-319,-84,33,-141,-3,-140,-24,-56,81,-237,-93,-151
1864,-53,-290,-26,-213,-73,132,-28,183,-21,-117,-41,-93,160,-170,41,-50,152,-102,-235,-319,-294,-53,33,-164,12,-142,-42,-202,13,-279,-180,-276
1865,-26,-265,-22,-190,-71,122,-8,192,-17,-126,-12,-92,146,-149,39,-43,132,-111,-243,-318,-265,-22,-8,-194,0,-123,-1,-354,-6,-275,-136,-215
1866,-5,-253,-29,-197,-69,137,17,183,-17,-113,2,-102,140,-149,40,-40,113,-128,-254,-317,-267,-18,0,-158,15,-120,9,-254,69,-211,-92,-155
1867,24,-214,25,-148,-40,170,43,218,-7,-98,23,-74,163,-146,49,-35,167,-142,-244,-329,-291,2,-8,-183,0,-159,-32,-240,3,-324,-260,-290
1868,0,-238,16,-179,-66,172,23,210,0,-112,10,-95,137,-155,28,-42,169,-138,-251,-333,-301,-4,-23,-178,-1,-143,-27,-226,18,-292,-174,-269
1869,2,-247,10,-178,-83,151,24,193,-14,-142,6,-91,105,-178,20,-32,125,-177,-277,-325,-308,-5,-61,-193,1,-171,-34,-215,64,-214,-133,-340
1870,56,-195,43,-137,-47,192,76,239,20,-99,57,-52,129,-144,64,33,171,-155,-258,-307,-253,79,-23,-162,51,-109,35,-102,117,-169,-122,-245
1871,29,-214,-17,-168,-87,159,48,216,-27,-142,8,-117,87,-179,26,0,176,-183,-283,-344,-299,45,-25,-186,15,-157,2,-26,115,-191,-186,-278
1872,15,-204,-47,-162,-82,149,63,216,-11,-130,-2,-138,84,-173,40,0,167,-203,-281,-321,-279,63,-3,-166,27,-138,34,7,180,-105,-114,-166
1873,24,-194,-28,-137,-59,173,89,226,20,-112,18,-142,69,-140,53,21,156,-216,-258,-308,-281,83,-24,-178,30,-134,2,-75,150,-179,-193,-268
1874,46,-198,-35,-151,-70,161,69,187,0,-140,-23,-171,34,-164,17,37,133,-278,-311,-340,-299,69,-101,-240,-1,-173,7,-251,41,-279,-245,-310
1875,56,-184,-32,-143,-70,137,79,159,-9,-143,-38,-212,21,-177,15,17,101,-294,-327,-353,-308,57,-89,-260,-16,-175,-31,-190,79,-220,-244,-389
1876,50,-186,-21,-136,-74,130,77,165,-23,-147,-46,-214,14,-204,1,2,116,-300,-328,-368,-305,52,-71,-247,-9,-184,-38,-110,125,-194,-208,-418
1877,76,-149,-21,-138,-67,148,103,154,-25,-154,-40,-200,3,-198,3,25,142,-321,-338,-363,-269,86,-101,-258,-10,-166,26,-196,14,-284,-209,-234
1878,52,-184,-65,-177,-68,126,80,115,-29,-164,-51,-260,-34,-190,9,18,87,-363,-343,-357,-268,92,-125,-271,-1,-162,70,-215,4,-289,-181,-150
1879,48,-170,-44,-179,-73,75,72,85,-29,-168,-57,-285,-34,-184,18,34,85,-353,-321,-322,-247,66,-146,-241,12,-114,81,-204,60,-213,-122,-165
1880,55,-170,-37,-180,-72,81,82,59,-18,-165,-40,-263,-2,-160,49,75,136,-317,-285,-274,-167,100,-89,-170,80,-28,181,-125,169,-75,8,29
1881,40,-175,-57,-210,-104,56,78,39,-41,-174,-36,-286,0,-160,74,79,149,-308,-266,-245,-166,130,-83,-171,99,-8,168,-131,167,-85,-1,-188
1882,49,-179,-70,-209,-101,47,78,9,-24,-167,-27,-312,17,-130,111,90,141,-289,-235,-212,-120,162,-60,-130,146,58,206,-53,219,-36,72,-215
1883,19,-221,-120,-240,-103,70,56,-23,-48,-160,-22,-321,35,-106,135,99,107,-260,-210,-163,-70,213,-41,-107,183,122,292,-4,245,4,141,-161
1884,-53,-275,-240,-325,-112,42,28,-87,-80,-154,-6,-375,29,-93,182,130,77,-283,-192,-123,-21,233,-17,-102,224,195,390,19,351,157,269,-193
1885,-121,-307,-382,-350,-109,55,23,-149,-59,-120,51,-381,37,-46,254,198,120,-270,-154,-57,76,309,31,-66,300,283,478,89,421,177,299,-111
1886,-217,-361,-501,-404,-134,39,6,-172,-69,-89,71,-377,58,-6,295,216,177,-236,-100,23,120,358,103,15,383,335,500,243,501,258,382,94
1887,-347,-465,-521,-453,-163,4,-60,-189,-69,-91,49,-360,87,3,322,229,207,-175,-57,49,147,394,185,81,406,380,508,399,600,346,431,227
1888,-358,-492,-436,-458,-163,31,-59,-147,-63,-75,86,-331,102,25,357,258,186,-163,-45,50,184,427,166,67,437,425,591,431,590,354,488,362
1889,-149,-362,-223,-369,-131,79,-13,-57,-72,-59,90,-236,111,13,331,256,266,-151,-70,20,138,399,160,32,385,385,541,358,502,295,467,164
1890,79,-139,23,-305,-136,110,68,27,-86,-78,80,-181,77,-47,281,236,267,-205,-157,-50,88,383,49,-103,290,306,467,13,311,145,358,-59
1891,258,43,218,-253,-115,202,223,99,-96,-82,152,-140,66,-79,264,252,269,-238,-212,-91,77,360,-14,-174,212,251,466,-233,191,44,305,0
1892,292,72,252,-239,-99,239,237,136,-81,-58,179,-113,62,-79,285,286,281,-216,-212,-94,92,358,-4,-182,175,265,504,-237,190,72,352,121
1893,249,38,203,-251,-113,241,188,141,-68,-47,180,-119,75,-92,292,311,266,-191,-210,-81,124,401,67,-144,215,299,549,-62,316,173,407,203
1894,240,51,154,-249,-98,263,223,176,-71,-61,208,-90,90,-81,297,321,305,-155,-205,-88,145,426,110,-108,233,308,579,83,415,251,445,226
1895,286,115,211,-214,-69,305,267,220,-78,-35,269,-41,117,-86,308,350,349,-107,-210,-89,138,469,153,-123,217,307,579,162,405,234,418,169
1896,310,132,278,-180,-67,317,264,286,-59,-30,254,12,173,-97,310,349,409,-41,-188,-104,133,492,243,-76,243,297,587,308,451,264,434,207
1897,392,168,385,-145,-73,320,308,389,-25,-51,231,77,196,-98,279,343,505,17,-185,-134,96,489,304,-46,233,260,532,352,487,259,367,142
1898,548,333,533,-54,-18,384,411,484,-1,-44,299,153,225,-107,265,354,552,21,-219,-155,80,499,255,-93,193,203,501,66,332,122,274,139
1899,600,377,553,-31,-44,361,402,530,6,-46,287,203,237,-109,257,342,556,43,-202,-175,61,459,247,-100,165,176,479,106,357,131,274,110
1900,581,328,548,-28,-51,328,303,575,-1,-81,245,218,245,-119,201,274,526,62,-195,-215,15,428,275,-81,160,146,470,178,374,137,289,167
1901,596,334,568,9,-33,321,265,588,23,-84,218,228,261,-130,188,237,496,64,-209,-234,10,397,253,-85,132,125,447,183,390,156,314,226
1902,584,316,558,35,-37,288,250,578,40,-114,195,194,253,-156,161,194,452,21,-224,-252,-38,336,202,-117,99,86,411,131,353,152,284,257
1903,622,340,563,70,-30,286,255,548,32,-113,170,166,246,-158,130,164,418,15,-228,-295,-88,292,183,-147,74,67,410,98,311,111,256,329
1904,657,368,601,88,-12,281,246,567,44,-127,148,166,227,-180,93,128,383,12,-246,-332,-98,264,148,-156,32,16,373,83,245,39,198,325
1905,667,369,589,107,-18,252,206,551,42,-188,103,167,222,-214,52,80,327,-14,-281,-375,-146,219,114,-188,-9,-40,279,42,217,14,138,84
1906,691,343,580,128,-3,222,167,549,72,-205,50,151,223,-223,41,98,288,-21,-291,-410,-199,178,70,-236,-66,-102,163,1,100,-125,-25,-197
1907,665,296,540,119,10,206,156,539,90,-188,46,106,212,-215,29,84,296,-48,-298,-428,-243,116,28,-240,-93,-176,61,-34,37,-229,-135,-380
1908,635,288,493,125,3,183,137,511,84,-199,31,70,195,-195,26,31,261,-78,-317,-438,-265,40,3,-245,-104,-174,31,-29,29,-245,-173,-278
1909,621,253,455,105,-29,129,70,488,69,-242,-9,14,184,-225,-21,-42,203,-94,-325,-451,-314,-22,-22,-257,-129,-216,-5,-39,17,-259,-200,-327
1910,620,248,451,103,-25,92,40,458,73,-238,-55,-8,199,-216,-29,-115,165,-103,-302,-438,-337,-42,-58,-250,-126,-220,-38,-146,5,-249,-190,-311
1911,621,266,430,110,-25,89,44,437,77,-230,-80,0,221,-179,-29,-124,175,-84,-265,-407,-304,-47,-30,-199,-100,-205,-39,-138,38,-232,-194,-270
1912,628,255,396,93,-37,16,1,397,80,-254,-112,-20,232,-176,-38,-127,148,-73,-214,-402,-313,-74,-25,-184,-76,-226,-45,-119,9,-254,-191,-195
1913,634,239,415,98,-28,-17,-37,390,103,-254,-142,-45,265,-155,-40,-111,132,-54,-200,-388,-288,-81,-55,-148,-48,-194,-16,-118,2,-221,-123,-104
1914,612,202,401,76,-45,-65,-88,368,94,-289,-210,-31,264,-166,-81,-159,97,-53,-187,-386,-330,-143,-58,-133,-38,-219,-70,-108,0,-240,-196,-250
1915,637,201,424,63,-47,-114,-106,382,74,-297,-271,-20,275,-149,-114,-204,99,-74,-168,-401,-377,-200,-70,-122,-51,-233,-105,-183,-21,-279,-214,-271
1916,663,193,458,56,-62,-113,-109,385,74,-305,-275,-33,276,-145,-80,-191,115,-66,-130,-380,-339,-137,-140,-110,-7,-185,-33,-400,-108,-282,-127,-55
1917,684,208,460,58,-51,-126,-111,361,75,-306,-275,-38,296,-118,-83,-170,123,-39,-115,-350,-325,-114,-121,-87,26,-161,-15,-418,-127,-312,-130,4
1918,710,260,454,49,-13,-118,-57,355,83,-281,-263,9,336,-96,-83,-184,140,-23,-87,-338,-357,-114,-82,-44,40,-187,-60,-279,-50,-312,-179,-132
1919,683,246,458,7,-35,-122,-60,332,82,-297,-295,17,313,-114,-101,-217,172,-38,-75,-345,-406,-165,-39,-27,40,-268,-183,-195,-2,-338,-305,-528
1920,659,259,426,-18,-26,-114,-59,321,52,-290,-293,-5,296,-121,-105,-219,184,-24,-57,-352,-408,-165,1,-5,53,-264,-175,-147,29,-312,-306,-583
1921,662,276,391,-22,-3,-57,-35,326,49,-263,-257,-20,292,-114,-99,-185,173,-29,-90,-347,-383,-117,15,8,69,-229,-94,-193,21,-299,-290,-596
1922,643,246,370,-48,-22,-48,-33,290,38,-256,-245,-24,272,-112,-105,-186,196,-37,-105,-347,-408,-140,34,9,75,-250,-155,-199,44,-293,-279,-579
1923,630,230,342,-70,-7,-18,-58,252,31,-246,-232,-28,264,-102,-102,-217,167,-35,-103,-326,-439,-146,81,26,97,-274,-217,-101,121,-213,-183,-481
1924,605,242,312,-95,-8,18,-72,232,8,-225,-212,-66,229,-109,-56,-186,127,-72,-99,-327,-415,-120,43,17,88,-233,-143,-95,167,-148,-104,-273
1925,575,223,318,-90,-15,68,-68,232,7,-193,-172,-83,198,-114,-49,-131,150,-83,-99,-316,-394,-116,27,21,106,-208,-77,-130,156,-141,-54,-184
1926,533,194,289,-136,-9,85,-50,194,-1,-182,-141,-91,179,-113,-42,-116,143,-91,-127,-304,-377,-94,47,31,122,-171,-32,-100,185,-58,26,-141
1927,490,142,268,-147,-30,83,-54,206,-29,-161,-140,-125,165,-123,-7,-121,77,-93,-138,-286,-364,-78,50,47,141,-134,10,17,303,46,137,-107
1928,486,127,271,-132,-22,141,-48,222,-10,-118,-113,-111,177,-115,23,-134,89,-100,-125,-288,-334,-24,74,47,147,-108,53,-2,309,56,139,-59
1929,467,139,283,-144,-29,171,-57,231,-14,-129,-121,-110,145,-134,25,-170,140,-116,-164,-309,-360,-12,73,-7,101,-174,-36,-70,208,-96,-79,-322
1930,427,112,257,-108,-38,185,-41,259,-21,-126,-90,-104,128,-143,19,-155,143,-110,-179,-305,-351,1,47,-52,94,-161,-3,-149,148,-174,-127,-343
1931,392,59,177,-126,-38,148,-72,231,-16,-117,-80,-142,129,-123,11,-136,154,-139,-193,-288,-341,13,32,-62,99,-124,34,-151,159,-145,-70,-257
1932,377,35,189,-109,-47,144,-93,232,2,-114,-80,-126,154,-124,16,-123,183,-123,-169,-270,-306,28,62,-17,133,-79,75,-57,246,-68,-12,-183
1933,307,18,164,-126,-51,145,-99,231,6,-125,-88,-125,150,-136,0,-138,136,-104,-165,-273,-298,33,84,7,151,-30,118,-2,287,-10,51,-170
1934,285,-26,129,-107,-53,147,-115,249,5,-130,-124,-118,140,-132,-7,-134,119,-98,-166,-272,-308,29,132,11,181,-22,92,113,376,61,100,-304
1935,281,-45,151,-95,-28,135,-108,259,20,-122,-138,-120,137,-133,10,-100,116,-101,-167,-259,-264,60,105,4,184,18,147,104,357,52,138,-211
1936,297,-43,156,-82,-43,119,-80,251,24,-135,-119,-113,137,-144,29,-85,136,-109,-179,-251,-232,52,113,-22,187,76,218,87,390,100,212,-44
1937,312,17,150,-69,-23,160,-84,242,38,-120,-72,-121,161,-113,70,-73,154,-105,-159,-197,-192,60,150,-21,203,119,258,73,425,171,275,43
1938,299,3,154,-77,-32,149,-79,254,29,-139,-45,-127,160,-127,66,-45,166,-123,-166,-189,-145,68,105,-33,204,144,284,-83,323,84,236,124
1939,270,-25,133,-89,-50,109,-106,220,6,-173,-62,-147,133,-155,43,-24,197,-138,-181,-225,-158,78,83,-72,204,151,305,-52,286,23,188,214
1940,268,-41,104,-107,-58,88,-108,182,-6,-202,-86,-159,110,-173,53,-29,160,-146,-197,-236,-147,119,81,-65,213,146,293,27,358,106,223,162
1941,290,-10,140,-80,-34,116,-53,207,6,-167,-11,-155,104,-164,103,14,145,-136,-203,-201,-86,146,100,-56,231,203,310,-42,416,196,286,69
1942,339,5,194,-57,-28,127,-27,244,0,-154,-15,-147,104,-171,90,24,164,-150,-224,-207,-102,163,82,-77,176,187,252,-71,347,101,201,-187
1943,386,45,241,-38,-16,127,1,281,9,-161,-35,-123,116,-172,82,33,211,-147,-216,-213,-67,155,130,-56,190,198,256,79,366,128,236,-219
1944,417,67,300,-40,17,142,5,272,-2,-187,-32,-99,87,-185,91,44,244,-154,-228,-209,-52,150,139,-66,194,212,309,126,400,155,292,-83
1945,458,111,300,-36,12,138,35,271,-19,-184,-37,-119,66,-209,92,87,237,-189,-272,-231,-35,171,91,-93,167,193,350,51,359,155,299,9
1946,476,115,326,-10,14,111,37,286,-12,-189,-26,-105,87,-208,87,132,221,-201,-262,-249,-36,197,72,-114,141,199,318,1,332,116,269,-25
1947,504,138,364,-1,23,132,34,284,-15,-177,-33,-82,70,-187,84,161,236,-196,-261,-245,-11,211,107,-118,157,203,345,79,384,183,302,17
1948,544,200,381,23,29,146,79,272,-15,-169,-21,-86,49,-196,86,185,241,-198,-271,-238,18,221,83,-142,162,227,381,10,365,164,325,112
1949,546,224,385,24,30,127,91,296,-17,-183,-12,-91,46,-197,101,194,263,-207,-278,-234,41,214,67,-110,154,247,410,20,370,202,381,175
1950,565,232,370,12,26,96,85,303,-17,-199,-18,-112,32,-207,95,184,279,-211,-296,-241,26,218,70,-116,150,259,414,99,415,280,434,264
1951,572,229,347,-6,18,93,70,276,-34,-205,-22,-111,12,-230,82,179,262,-251,-319,-256,6,231,14,-172,112,228,382,1,342,193,390,251
1952,582,220,349,-36,13,107,101,245,-30,-211,-20,-123,4,-213,93,187,229,-264,-319,-252,-1,204,-3,-177,113,198,362,-10,356,194,394,197
1953,608,241,398,-41,11,132,114,265,-40,-195,-26,-117,21,-220,103,195,214,-277,-320,-259,0,219,-19,-178,118,183,368,-12,358,211,395,205
1954,639,280,440,-45,22,137,115,273,-49,-173,-38,-94,16,-227,94,214,228,-266,-326,-285,-17,217,-26,-187,98,136,294,-17,286,98,242,-15
1955,666,316,449,-42,57,163,146,277,-31,-159,9,-89,16,-207,111,199,249,-239,-304,-288,-14,217,15,-151,97,126,295,112,354,110,240,-12
1956,632,282,412,-92,28,155,139,271,-38,-166,4,-88,-10,-228,93,164,206,-239,-307,-298,-16,249,26,-153,95,142,345,196,423,217,340,72
1957,637,325,403,-75,43,200,184,286,-23,-135,31,-77,8,-202,114,192,255,-244,-309,-294,8,274,-1,-178,90,139,398,104,371,131,271,-12
1958,671,339,414,-56,60,206,212,298,-33,-144,59,-59,15,-219,103,173,294,-255,-309,-309,-34,269,-14,-199,87,98,313,81,350,109,233,-55
1959,672,370,430,-75,50,221,234,299,-50,-156,44,-31,13,-235,87,161,303,-258,-331,-344,-84,233,-29,-212,55,43,191,-3,312,57,155,-82
