,Fp1,Fp2,F7,F3,Fz,F4,F8,FC5,FC1,FC2,FC6,T7,C3,Cz,C4,T8,TP9,CP5,CP1,CP2,CP6,TP10,P7,P3,Pz,P4,P8,PO9,O1,Oz,O2,PO10
122972,969,435,-9,58,74,528,411,529,19,76,-263,-138,50,-7,46,-20,-307,-273,-218,118,470,-39,418,-178,158,-20,340,-357,-216,4,84,503
122973,860,378,-143,98,61,671,444,638,59,70,-228,-211,117,5,88,-9,-389,-124,-210,103,475,-117,378,-145,146,-41,347,-461,-270,-28,97,475
122974,801,386,-70,119,77,587,469,638,65,52,-229,-203,100,10,90,-9,-407,-283,-243,137,523,-125,443,-152,154,-25,406,-569,-303,-90,92,565
122975,796,448,-38,120,94,369,483,579,35,66,-249,-152,57,13,106,13,-334,-327,-215,171,551,-60,490,-137,172,30,482,-483,-273,-64,103,658
122976,795,511,14,123,91,191,504,558,24,17,-277,-155,-19,0,75,89,-306,-269,-235,122,530,-133,437,-169,137,-12,371,-449,-326,-187,-94,466
122977,823,502,86,133,67,188,485,440,11,31,-290,-1,-38,2,69,69,-279,-284,-231,103,507,-204,468,-181,122,-86,228,-447,-338,-221,-205,247
122978,790,520,98,162,74,228,493,441,15,31,-271,120,-21,7,94,55,-316,-273,-201,154,515,-137,451,-203,149,-73,235,-499,-308,-163,-163,258
122979,662,425,46,144,54,245,458,459,-2,10,-243,-154,0,-8,95,-20,-373,-312,-262,136,477,-62,417,-199,145,-67,241,-479,-284,-156,-121,391
122980,625,377,-70,115,49,223,438,466,5,11,-319,-263,15,11,148,-75,-430,-291,-233,158,455,18,442,-187,164,-30,284,-435,-282,-143,-31,571
122981,591,281,-28,138,44,310,393,513,18,17,-383,-233,46,26,168,-89,-561,-285,-195,189,509,27,445,-174,177,27,457,-559,-344,-108,92,844
122982,636,249,17,143,39,459,364,510,27,34,-274,-288,55,14,83,-68,-378,-263,-197,204,526,91,425,-160,197,58,549,-620,-294,-47,207,1132
122983,799,363,33,96,65,474,333,544,35,32,-217,-274,58,17,-2,-37,-302,-229,-177,187,528,66,404,-185,194,23,495,-557,-251,23,199,1049
122984,924,476,14,76,63,565,348,523,33,64,-198,-228,41,37,76,-103,-276,-250,-173,186,470,-5,459,-150,160,-29,272,-490,-278,-61,36,475
122985,891,321,42,13,50,518,254,476,-1,76,-229,-107,-4,43,106,-55,-206,-256,-182,182,478,48,462,-156,215,15,307,-411,-210,26,126,564
122986,864,290,67,35,39,474,317,535,4,61,-259,58,-7,14,69,-74,-160,-203,-206,143,426,-6,489,-181,174,-50,165,-406,-313,-168,-215,143
122987,871,397,42,88,53,629,418,636,45,58,-335,-95,88,8,38,-101,-255,-154,-211,126,418,-157,519,-150,128,-108,84,-471,-381,-277,-334,-108
122988,843,451,5,-11,38,683,440,613,36,47,-310,-186,94,13,48,-105,-294,-183,-186,134,437,-107,494,-158,145,-71,216,-569,-368,-175,-127,243
122989,846,513,-24,-45,36,481,482,514,31,51,-266,-183,77,3,60,-217,-219,-205,-208,149,445,-39,471,-142,173,-54,278,-432,-319,-90,-44,297
122990,867,587,-9,49,31,289,499,475,25,68,-218,-142,78,28,100,-222,-143,-173,-159,182,478,29,537,-39,231,-6,329,-229,-151,20,66,379
122991,901,643,53,89,57,265,531,526,40,55,-225,-65,102,50,143,-20,-117,-102,-91,241,532,67,627,18,280,58,386,-23,-37,117,175,493
122992,876,627,126,75,42,313,505,556,48,49,-237,-80,111,45,100,-22,-140,-94,-101,217,516,58,637,28,293,80,378,-101,-16,189,260,624
122993,903,601,150,50,64,361,498,531,23,74,-204,-73,79,44,119,78,-209,-140,-115,222,580,71,523,-2,320,121,458,-421,-31,217,344,761
122994,887,555,75,33,55,420,406,533,32,79,-179,-66,102,62,151,108,-288,-155,-102,215,623,82,509,-17,325,149,480,-519,-65,190,328,742
122995,793,485,58,78,42,544,296,571,40,64,-202,-76,129,49,125,16,-344,-159,-95,185,590,62,505,-52,284,104,431,-564,-132,57,178,494
122996,771,458,-20,60,42,483,399,532,12,71,-176,-141,86,29,114,-68,-235,-156,-139,197,560,45,543,-48,283,111,475,-475,-100,59,188,566
122997,826,430,-69,64,34,336,414,534,48,58,-178,-163,127,50,107,-29,-230,-127,-93,230,592,66,615,22,354,149,578,-387,-16,176,335,734
122998,761,356,-183,110,-3,317,432,600,75,41,-228,-139,198,49,121,-110,-241,-39,-43,235,612,-16,607,43,365,154,529,-370,4,171,323,680
122999,654,273,-207,119,-13,401,429,598,68,62,-240,-10,175,54,115,-112,-307,46,-69,231,601,-120,476,35,355,130,457,-518,-32,151,319,582
123000,645,291,-129,178,12,443,424,524,46,72,-204,213,53,58,119,-36,-216,-130,-97,276,625,17,563,36,361,143,448,-313,39,209,333,677
123001,680,447,-26,211,23,357,500,627,37,96,-202,101,59,60,163,25,-241,-151,-96,255,636,121,556,15,353,149,455,-284,34,189,320,741
123002,704,490,-54,163,10,293,515,618,28,72,-242,-131,109,52,145,47,-338,-115,-120,266,619,108,509,39,335,148,519,-284,28,199,361,825
123003,699,472,-22,125,24,366,488,610,45,78,-231,-176,131,60,160,115,-202,-70,-94,281,612,115,576,60,348,185,560,-186,83,259,460,882
123004,742,427,73,122,11,406,454,610,56,93,-225,-154,137,46,169,75,-129,-69,-109,220,609,59,544,21,312,136,531,-189,43,194,336,645
123005,904,385,41,106,17,414,477,654,44,73,-231,-170,135,43,138,54,-171,-99,-142,235,605,-56,574,-17,282,130,534,-133,56,189,269,676
123006,892,348,-15,90,28,480,484,659,41,71,-216,75,86,30,170,75,-235,-104,-149,242,652,-63,617,-8,262,132,545,-209,14,189,302,845
123007,831,361,-132,112,60,471,529,571,32,76,-139,199,73,29,195,141,-231,-140,-151,196,692,-96,599,-14,245,115,470,-313,-119,59,170,585
123008,780,323,-55,93,41,494,511,585,48,72,-168,78,75,17,159,91,-326,-142,-165,179,661,-6,557,-55,235,90,487,-311,-101,64,190,595
123009,768,325,94,84,37,553,361,583,61,76,-244,-106,83,25,127,63,-219,-129,-162,185,596,170,539,-47,216,73,565,-237,-51,139,306,791
123010,781,308,141,107,45,655,314,544,38,108,-248,-173,112,12,161,17,-60,-47,-139,189,591,182,572,-24,218,64,568,-89,-20,176,311,790
123011,730,290,50,137,19,561,367,537,50,83,-222,-53,131,9,163,-47,-35,-55,-144,184,612,119,645,-1,263,74,528,-25,51,242,357,746
123012,735,320,-69,149,12,468,459,589,45,83,-267,-17,122,8,197,-49,-128,-86,-179,170,627,80,634,-27,230,67,473,-83,-19,123,232,638
123013,818,491,-12,197,44,382,571,657,69,78,-229,5,167,46,230,13,-129,-30,-146,241,614,126,631,-57,229,48,494,-209,-158,6,169,634
123014,854,515,7,125,30,365,546,597,61,36,-142,24,153,34,110,35,-149,-16,-124,202,566,133,689,-41,220,51,562,-219,-120,85,243,770
123015,911,558,69,68,26,337,614,625,34,40,-92,34,137,9,70,53,-277,-43,-130,163,566,98,686,-62,208,52,568,-219,-124,78,250,775
123016,944,545,124,53,47,336,583,634,35,89,-166,29,126,2,112,53,-187,-40,-144,161,598,88,751,-63,211,108,640,-253,-124,107,316,890
123017,939,489,136,23,62,318,530,555,37,76,-149,11,140,20,139,83,-138,-56,-157,203,637,174,774,-1,238,114,734,-343,-127,141,392,1068
123018,903,468,122,-85,50,247,510,495,27,55,-146,127,126,6,138,110,-116,114,-139,212,652,125,715,20,253,107,668,-342,-175,56,262,819
123019,785,437,56,-5,33,339,521,494,32,69,-167,201,109,8,153,124,-76,22,-152,191,659,132,704,-37,246,109,625,-319,-145,44,190,669
123020,785,446,41,118,24,444,525,564,29,79,-144,56,105,-14,151,51,-192,-168,-189,172,628,168,616,-75,205,55,557,-425,-204,6,113,527
123021,870,500,128,151,45,500,529,622,33,107,-122,3,103,-5,183,-89,-164,-124,-193,187,604,132,575,-70,224,36,507,-354,-225,-7,128,629
123022,839,535,72,170,69,441,580,659,42,111,-122,-56,111,19,187,-23,-113,-106,-190,191,627,151,595,-19,243,71,551,-312,-164,41,219,718
123023,728,494,12,145,62,456,563,657,47,126,-93,-113,127,27,181,99,-120,-107,-194,238,649,143,588,-26,261,122,650,-228,-126,125,363,796
123024,601,436,-47,109,52,502,494,645,17,101,-104,-107,131,23,202,95,-141,-78,-197,282,648,147,613,-12,280,152,721,-218,-102,176,475,964
123025,645,471,-84,106,56,543,485,578,5,87,-132,-159,93,-10,193,71,-191,-96,-175,271,620,141,604,-45,247,143,657,-275,-141,152,400,962
123026,799,528,-42,73,76,474,470,538,-6,74,-190,-162,46,-21,163,2,-222,-155,-195,210,552,82,540,-92,213,72,499,-306,-200,26,178,611
123027,860,546,24,66,73,384,496,547,6,96,-183,-126,49,-3,163,-23,-240,-131,-204,203,552,89,570,-81,229,47,510,-296,-212,0,127,520
123028,838,551,80,67,52,384,502,559,4,59,-206,-45,45,-8,143,0,-282,-145,-198,201,547,84,605,-104,218,45,511,-385,-276,-24,168,627
123029,727,399,17,96,46,446,438,521,-15,77,-193,-12,59,-22,142,98,-284,-143,-215,191,569,-2,566,-116,202,38,448,-450,-293,-47,130,566
123030,693,275,-35,75,44,522,473,493,1,88,-165,57,41,-7,163,78,-254,-127,-234,183,530,46,565,-62,200,9,422,-394,-239,-13,132,561
123031,843,298,-3,92,45,598,461,562,32,107,-218,-70,76,12,169,18,-258,-144,-195,197,530,119,490,-71,218,15,483,-333,-221,1,191,623
123032,858,368,9,136,65,579,475,578,37,85,-291,-176,103,4,163,28,-226,-146,-191,215,571,113,494,-60,236,8,537,-230,-178,41,218,650
123033,851,446,-6,135,62,521,520,569,33,64,-316,-225,116,-17,139,-1,-225,-202,-214,178,514,110,455,-96,202,-32,482,-231,-194,25,169,606
123034,871,556,54,165,79,433,593,610,38,67,-271,-300,140,-27,130,-35,-303,-188,-192,162,458,44,441,-139,192,-92,358,-319,-246,0,146,609
123035,858,595,-31,124,52,348,593,609,43,55,-313,-255,143,-20,111,-10,-326,-193,-182,157,477,34,452,-143,188,-67,353,-373,-300,-46,134,636
123036,847,551,-287,55,32,469,535,588,31,72,-247,-207,157,-43,99,-20,-466,-190,-190,123,482,37,404,-164,162,-56,347,-432,-362,-86,117,668
123037,801,453,-374,148,37,549,460,642,40,61,-210,-193,145,-39,112,-91,-475,-197,-202,126,480,-15,410,-162,162,-47,342,-372,-303,-24,171,636
123038,727,381,-210,106,40,503,448,634,18,52,-219,-156,94,-34,98,-107,-461,-168,-198,155,494,-54,427,-182,172,-50,389,-378,-270,15,214,680
123039,725,393,-54,140,54,567,445,588,11,102,-188,-70,45,6,135,-39,-294,-149,-209,192,529,-27,451,-148,220,3,473,-436,-244,68,319,834
123040,711,415,-104,148,56,444,433,503,-4,78,-195,-159,39,15,173,23,-247,-232,-188,207,571,2,443,-144,232,63,550,-508,-294,65,434,1075
123041,786,457,-66,157,76,375,460,488,15,52,-185,-137,92,10,160,-28,-323,-224,-193,207,562,-97,442,-140,203,34,508,-494,-357,-1,346,959
123042,847,426,-11,147,60,375,461,535,20,51,-282,-119,120,19,126,-52,-288,-190,-177,160,505,-140,482,-107,197,-14,368,-376,-335,-95,127,710
123043,818,469,-28,205,72,414,447,493,18,42,-270,-18,96,19,105,-132,-275,-148,-142,150,462,-148,459,-143,177,-81,273,-489,-395,-240,-139,293
123044,694,383,-165,138,72,432,438,443,7,70,-232,83,61,7,166,-215,-305,-147,-178,157,468,-105,468,-128,174,-68,238,-464,-363,-202,-142,161
123045,612,176,-188,92,67,358,421,568,9,52,-284,6,149,6,188,-248,-488,-25,-176,162,519,-92,406,-106,187,-29,315,-529,-379,-154,-6,405
123046,641,77,-242,126,66,425,395,626,24,47,-290,-94,170,8,164,-175,-504,-70,-210,165,495,-120,423,-94,184,-60,332,-514,-350,-129,36,485
123047,678,60,-218,174,88,604,400,580,8,55,-194,-153,83,-11,85,-55,-313,-266,-243,160,493,-58,513,-134,180,-45,336,-445,-335,-127,0,468
123048,659,159,-106,144,87,681,355,539,25,94,-182,-188,85,-21,65,-105,-391,-230,-187,158,464,23,510,-117,181,-49,353,-482,-352,-120,7,453
123049,699,365,-113,110,55,545,394,545,24,89,-216,-155,112,26,138,-208,-415,-175,-151,203,494,74,512,-70,234,-3,417,-432,-259,1,182,695
123050,769,483,-127,85,50,397,429,559,26,78,-233,-97,135,27,120,-163,-397,-155,-155,219,529,106,550,-70,244,29,467,-376,-235,13,176,807
123051,773,519,-95,77,44,330,403,515,11,87,-246,-99,150,46,119,-48,-226,-118,-160,222,559,81,631,-40,259,30,504,-322,-177,29,203,770
123052,763,474,-69,101,28,302,444,496,17,72,-231,-80,132,43,144,-17,-223,-106,-137,244,527,82,690,-8,259,10,453,-290,-144,10,154,564
123053,851,477,-20,102,37,367,485,538,14,91,-210,-57,141,41,151,-4,-266,-86,-160,256,513,29,757,4,258,-8,390,-282,-135,52,148,473
123054,937,447,-18,99,23,355,432,599,7,77,-219,-61,183,26,106,0,-177,-86,-158,240,514,-3,761,22,257,10,431,-140,-87,121,254,679
123055,917,445,-60,71,6,341,456,560,7,77,-162,-122,150,23,127,18,-243,-172,-172,233,520,8,596,-44,257,34,425,-390,-191,41,230,680
123056,852,462,-25,88,20,361,411,607,10,61,-246,-150,147,15,142,-5,-176,-191,-162,183,511,70,511,-73,229,14,388,-491,-297,-58,112,584
123057,697,479,-272,113,26,448,371,661,34,33,-323,-40,168,37,135,-61,-158,-97,-151,209,515,74,598,-36,229,8,445,-282,-196,28,162,682
123058,567,459,-366,132,12,486,382,550,20,51,-255,183,132,23,121,-87,-264,-59,-167,215,518,56,613,-44,243,-13,436,-190,-176,46,192,662
123059,650,418,-298,180,29,513,434,500,17,57,-264,61,136,23,134,-73,-171,-157,-164,204,543,34,587,-45,248,-3,506,-245,-174,103,306,881
123060,730,476,-265,162,34,443,483,556,37,65,-327,-207,195,32,125,-3,-124,-208,-149,221,559,-12,554,-83,252,24,514,-327,-161,133,287,882
123061,736,483,-166,235,33,259,512,570,23,51,-269,-203,155,43,139,3,-191,-164,-128,202,543,16,564,-75,275,24,527,-317,-145,161,346,867
123062,613,424,-122,173,4,236,509,488,15,41,-264,-59,113,27,150,-32,-232,-116,-99,229,570,97,576,-56,291,41,576,-304,-88,188,385,817
123063,635,539,-106,128,28,383,560,534,23,88,-219,62,161,40,101,-27,-202,16,-144,205,522,30,500,-79,237,-39,387,-307,-192,-113,-80,259
123064,750,620,-127,102,39,405,553,546,10,75,-222,-17,173,37,127,-23,-162,-52,-118,194,510,-15,604,-39,219,-48,345,-272,-185,-146,-118,241
123065,826,494,-124,55,41,364,537,483,4,56,-227,-70,157,27,165,26,-154,-175,-84,214,551,-10,775,5,262,10,447,-229,-152,31,125,485
123066,877,409,-80,59,23,266,487,509,3,35,-258,-114,161,18,135,46,-256,-156,-106,188,540,-76,721,-44,225,-29,388,-334,-216,-23,96,527
123067,876,445,16,47,17,249,478,524,3,51,-254,-136,192,13,129,33,-347,-167,-123,183,541,-17,669,-51,218,-21,411,-413,-250,-22,99,579
123068,797,459,-57,34,15,382,463,516,1,72,-222,-157,205,11,166,61,-352,-168,-146,206,554,62,586,-66,225,-3,490,-358,-221,21,209,737
123069,817,506,-96,5,22,466,441,497,-13,74,-208,-80,151,35,160,42,-213,-140,-134,207,580,61,626,-74,251,24,513,-177,-138,127,308,988
123070,852,489,-14,32,15,474,445,539,-12,82,-161,-25,83,22,180,-27,-159,-125,-147,237,583,91,685,-51,256,34,566,-120,-60,182,355,1074
123071,895,521,19,69,44,455,565,496,14,108,-132,-64,125,43,192,23,-131,-151,-132,246,553,79,606,-44,245,-7,501,-230,-113,74,183,619
123072,806,477,-17,117,25,385,621,517,11,62,-201,-121,135,20,179,11,-152,-171,-146,231,568,15,541,-94,210,-9,512,-221,-167,20,164,587
123073,677,381,-44,190,39,441,589,558,34,91,-273,-83,161,32,228,58,-201,-147,-114,263,648,63,538,-71,239,72,632,-223,-149,114,368,976
123074,464,111,-182,142,20,640,424,555,24,96,-259,-24,135,6,281,-16,-292,-184,-179,255,624,35,520,-105,214,23,463,-252,-188,76,305,864
123075,396,-184,-410,160,41,776,288,612,55,108,-246,195,93,-3,315,-229,-201,-177,-205,229,579,-67,532,-133,195,-17,318,-217,-185,25,190,516
123076,550,51,-472,279,68,522,420,623,77,64,-266,125,153,-1,122,-77,-145,-129,-178,170,502,13,556,-124,171,-59,363,-175,-158,30,155,482
123077,715,347,-358,274,68,388,561,576,65,31,-186,-152,190,4,66,67,-234,-194,-198,170,464,46,540,-157,159,-80,360,-351,-260,-58,41,400
123078,788,479,-175,190,52,374,562,568,63,62,-181,-173,188,20,151,77,-331,-167,-199,197,524,38,553,-158,192,-23,428,-369,-312,-78,56,513
123079,889,612,-25,137,46,341,558,500,11,71,-238,-157,160,13,167,177,-283,-161,-232,197,584,120,538,-170,192,34,493,-451,-314,-73,92,566
123080,924,662,22,65,4,347,538,529,3,65,-217,-134,152,12,192,141,-207,-130,-229,196,631,89,670,-120,212,50,530,-213,-188,22,118,573
123081,994,689,54,64,14,320,606,565,36,58,-165,-78,156,34,176,87,-35,-101,-173,206,641,172,811,-51,239,70,552,73,-5,152,188,632
123082,975,733,57,41,24,331,634,513,20,67,-155,-94,148,28,157,17,-61,-120,-156,209,584,194,723,-45,228,35,482,-63,-9,142,219,689
123083,946,718,75,75,41,386,627,531,27,74,-148,-88,171,30,182,10,-75,-91,-164,215,592,157,705,-36,250,-18,469,0,9,158,251,746
123084,919,702,54,98,55,398,618,582,51,88,-139,-77,196,37,224,35,-173,-74,-152,213,591,169,645,-49,232,-1,491,-264,-124,89,228,799
123085,911,723,22,163,71,462,636,647,55,116,-141,-63,178,24,223,28,-250,-85,-201,196,574,101,524,-124,196,-15,458,-599,-289,-60,171,810
123086,839,702,13,223,76,469,613,691,38,63,-153,-79,149,-7,190,-52,-165,-121,-224,160,545,17,519,-160,155,-85,405,-497,-278,-62,128,712
123087,799,645,60,222,72,435,630,727,45,52,-189,-103,192,-24,169,-168,-91,-111,-233,137,491,31,560,-137,136,-115,384,-467,-300,-65,113,644
123088,782,583,37,297,82,514,624,668,65,91,-159,-123,193,-7,190,-238,-93,-98,-205,177,512,34,593,-102,170,-82,420,-409,-258,-39,119,676
123089,850,598,37,176,78,545,571,561,41,95,-117,-129,161,-10,205,-199,-107,-127,-210,191,538,-1,564,-123,179,-41,470,-331,-192,26,171,762
123090,852,530,-7,149,81,675,447,582,43,75,-134,-110,147,-13,184,-144,-152,-128,-197,167,545,8,540,-118,178,-45,470,-363,-193,40,215,822
123091,819,424,-41,197,80,677,465,626,38,83,-96,-141,173,-7,186,-48,-188,-143,-206,169,560,8,555,-118,160,-69,497,-402,-227,28,213,852
123092,852,401,-34,223,70,485,553,675,51,84,-173,-157,200,-1,150,-22,-169,-133,-206,201,537,57,618,-102,187,-43,584,-316,-194,80,294,973
123093,898,419,-8,225,69,449,530,707,58,94,-273,-129,195,1,103,-4,-136,-108,-200,192,538,48,662,-50,206,-9,549,-183,-136,119,349,988
123094,929,519,73,226,85,366,517,678,53,90,-328,-77,188,2,101,18,-196,-25,-230,163,526,-55,647,-78,204,-33,460,-196,-124,89,241,832
123095,870,641,-6,202,97,396,605,696,69,71,-310,-149,213,3,122,2,-253,43,-222,179,550,-5,586,-105,187,-30,493,-358,-174,29,216,764
123096,867,595,-48,237,78,398,599,682,46,51,-287,-176,160,-11,113,-49,-147,-157,-227,157,495,96,653,-151,140,-69,410,-347,-238,-96,25,409
123097,812,423,-38,243,64,504,514,658,14,36,-312,-236,145,-38,90,-74,-188,-202,-274,126,454,36,553,-201,115,-104,309,-376,-280,-165,-72,294
123098,696,437,-31,251,73,461,524,570,41,16,-267,-219,180,-14,106,-65,-214,-129,-214,164,521,31,560,-154,156,-8,466,-302,-169,28,213,703
123099,709,484,-158,236,60,405,556,613,70,19,-207,-193,236,-12,98,-103,-296,-111,-189,167,507,-22,614,-110,163,-25,483,-334,-186,36,250,822
123100,723,499,-260,275,63,333,579,705,67,30,-247,-79,225,-40,56,-126,-264,-56,-178,111,410,-156,634,-107,140,-100,342,-309,-245,-91,46,557
123101,754,564,-162,222,64,330,606,641,39,9,-275,259,110,-45,60,-67,-145,-38,-230,108,413,-60,652,-131,97,-131,264,-300,-300,-188,-164,244
123102,825,661,-76,165,69,370,591,582,37,53,-220,243,73,-44,112,-41,-94,-146,-271,127,478,56,630,-147,115,-83,387,-346,-289,-120,-2,447
123103,924,637,25,150,93,456,561,586,31,67,-155,-51,129,-38,156,-40,-152,-168,-260,149,515,45,600,-130,128,-37,433,-305,-271,-81,105,639
123104,998,582,83,81,85,473,524,669,22,58,-159,-30,165,-32,187,40,-374,-103,-221,171,559,51,604,-110,154,15,483,-247,-184,35,186,735
123105,919,523,4,83,61,458,515,651,3,75,-154,-9,154,-53,201,81,-213,-138,-258,145,596,-37,577,-134,153,32,541,-323,-188,64,187,767
123106,790,477,-30,145,102,489,570,591,-2,104,-207,-185,112,-43,257,80,70,-239,-254,176,649,-47,564,-138,163,47,608,-337,-198,85,231,956
123107,669,465,-60,185,119,485,557,539,18,98,-321,-115,77,-42,258,77,3,-202,-291,161,605,-79,513,-192,143,-20,505,-245,-206,16,59,684
123108,697,375,-64,205,98,493,624,607,17,85,-201,-125,108,-73,128,40,-35,-170,-284,90,460,-102,565,-202,76,-155,257,-96,-265,-154,-177,304
123109,855,375,-43,153,96,520,637,650,38,93,-139,-125,117,-67,33,24,21,-153,-299,70,445,-50,598,-143,69,-128,271,-49,-182,-81,-43,384
123110,942,497,3,114,93,528,610,609,52,72,-169,-115,116,-30,99,41,-43,-189,-314,105,522,11,528,-130,110,-78,395,-193,-176,4,116,629
123111,924,651,63,117,91,594,606,676,37,85,-153,-139,118,-15,133,-40,-80,-190,-279,113,499,32,527,-149,117,-112,370,-243,-211,15,116,709
123112,883,730,88,90,82,529,604,649,35,91,-138,-149,105,-31,131,-159,-163,-152,-275,131,445,31,493,-165,118,-98,350,-376,-249,-33,89,684
123113,851,691,97,86,89,497,648,628,25,85,-151,-143,99,-36,128,-96,-140,-144,-303,129,454,23,505,-175,97,-82,387,-371,-282,-60,37,646
123114,736,518,30,166,64,441,618,686,9,68,-188,-173,149,-52,112,-44,-159,-183,-296,113,436,0,501,-176,100,-87,423,-392,-277,-26,116,709
123115,648,452,-42,286,93,378,561,709,44,59,-220,-116,191,-37,109,-55,-136,-174,-279,110,476,-39,517,-162,83,-103,406,-401,-302,-74,59,582
123116,524,438,-174,237,57,477,548,632,33,52,-237,24,131,-63,93,-5,-221,-141,-297,109,459,-29,515,-161,77,-120,420,-439,-318,-100,10,551
123117,525,475,-159,234,67,581,561,633,63,55,-195,70,172,-41,90,-9,-196,11,-247,146,481,26,548,-122,108,-92,417,-384,-264,-60,77,615
123118,647,456,-76,247,75,477,480,726,62,40,-237,-27,191,-41,84,-37,-42,-43,-255,108,471,50,657,-112,116,-72,365,-297,-219,-22,91,579
123119,739,370,-107,214,39,481,462,622,27,39,-217,-63,130,-55,97,-40,-46,-181,-278,105,479,6,705,-127,118,-48,375,-259,-204,12,168,665
123120,808,461,-85,185,48,485,515,685,44,58,-227,-143,175,-53,107,13,-94,-90,-266,128,518,7,670,-121,139,-45,412,-227,-183,41,181,797
123121,934,466,37,159,75,461,583,683,56,89,-209,-126,218,-44,118,-4,-157,-96,-245,138,533,29,654,-92,176,10,476,-161,-119,118,279,926
