,Fp1,Fp2,F7,F3,Fz,F4,F8,FC5,FC1,FC2,FC6,T7,C3,Cz,C4,T8,TP9,CP5,CP1,CP2,CP6,TP10,P7,P3,Pz,P4,P8,PO9,O1,Oz,O2,PO10
141483,542,482,678,209,-31,574,175,615,11,151,341,370,373,44,206,0,71,43,-105,55,-216,93,215,-51,-719,51,150,-107,-3,6,-286,-101
141484,555,352,703,215,-38,545,157,633,25,126,229,437,383,47,188,19,86,66,-86,60,-202,60,232,-47,-716,74,154,-77,27,49,-288,-93
141485,511,260,676,213,-49,508,124,592,18,117,207,463,368,63,181,-26,138,78,-53,101,-161,69,262,-15,-674,102,241,17,99,126,-218,-1
141486,450,239,646,199,-57,536,65,592,20,139,351,335,364,75,183,-118,150,83,-68,100,-183,98,258,-4,-682,111,271,12,87,99,-219,-35
141487,523,408,670,223,-50,538,9,687,40,131,219,310,401,88,164,-70,201,128,-45,100,-178,125,297,28,-651,140,255,46,97,109,-186,17
141488,504,427,669,246,-51,499,-42,709,46,104,212,348,412,93,162,-1,241,155,-38,104,-165,61,345,43,-638,155,241,144,167,176,-138,-22
141489,552,425,710,225,-47,507,13,655,37,106,227,405,437,98,155,70,285,200,-24,107,-138,62,432,109,-611,185,296,330,290,266,-77,44
141490,629,475,745,240,-58,521,97,720,51,114,235,458,447,93,156,85,251,240,-6,134,-102,125,491,154,-600,194,288,358,327,286,-67,107
141491,613,541,730,215,-60,505,142,755,42,93,280,449,441,98,151,78,171,223,-7,163,-54,227,436,119,-582,247,370,179,283,342,40,238
141492,594,549,756,242,-40,516,175,779,63,110,285,495,494,110,193,43,225,278,33,193,-5,255,505,184,-530,304,462,290,365,456,192,364
141493,536,471,706,280,-45,548,202,813,104,136,230,522,529,119,213,50,324,305,60,216,23,283,560,237,-492,345,490,394,459,525,240,396
141494,514,475,702,265,-60,508,197,812,89,117,253,511,502,117,187,64,392,280,39,210,11,289,561,216,-511,329,430,351,431,447,111,250
141495,603,484,707,288,-38,468,184,790,84,122,268,500,505,112,196,154,381,290,62,219,8,230,537,219,-521,330,431,337,418,439,112,187
141496,594,434,688,221,-37,511,190,725,77,126,310,479,480,114,207,225,320,249,41,217,76,238,471,193,-507,385,532,260,369,421,158,264
141497,487,438,674,196,-48,574,133,678,52,139,354,465,441,123,245,235,268,212,18,228,102,273,437,176,-499,403,563,218,349,416,149,192
141498,501,426,677,216,-41,597,80,653,38,162,341,405,432,117,273,212,244,209,7,242,133,412,418,185,-485,432,608,197,352,458,194,292
141499,620,424,717,178,-52,582,117,624,40,168,380,435,428,97,303,100,183,200,-1,242,144,424,444,187,-490,428,564,209,368,468,217,334
141500,592,366,672,157,-67,566,91,571,7,160,393,411,396,67,272,31,147,165,-41,217,96,337,390,136,-521,368,516,183,320,415,145,257
141501,558,356,674,176,-53,579,136,590,21,167,390,339,403,82,279,52,153,158,-52,218,107,395,401,133,-524,375,566,231,335,423,92,243
141502,540,340,639,121,-64,537,200,562,5,137,364,278,366,76,289,116,156,130,-70,207,93,375,379,100,-563,367,563,167,293,404,67,213
141503,492,351,587,124,-44,560,219,518,-10,161,370,249,352,46,303,132,133,107,-83,198,117,350,354,80,-564,345,575,179,277,376,56,183
141504,477,420,594,146,-37,564,183,516,3,165,340,263,346,42,279,84,192,118,-79,191,87,324,390,94,-596,313,520,177,269,325,33,190
141505,513,535,613,169,-46,550,218,536,-2,157,354,249,342,72,301,154,210,117,-66,176,67,327,374,92,-602,289,416,91,244,278,6,188
141506,535,582,623,181,-49,543,158,560,4,149,331,305,360,77,309,204,159,104,-65,174,78,320,329,76,-577,282,356,76,213,258,-5,204
141507,532,562,633,180,-59,546,154,538,18,147,359,345,360,92,308,213,112,95,-73,172,53,254,313,56,-593,254,342,0,162,207,-100,131
141508,500,485,632,189,-62,534,104,553,22,162,415,365,362,94,317,218,82,97,-46,182,62,335,333,73,-598,282,412,45,186,244,-76,187
141509,500,500,626,213,-48,592,165,580,38,185,527,350,373,94,334,312,35,99,-32,194,87,362,302,71,-571,291,509,52,175,235,-67,138
141510,524,527,632,192,-46,563,183,566,22,175,460,309,365,81,327,331,87,97,-43,203,105,408,287,60,-561,315,559,82,189,228,-34,191
141511,570,461,629,183,-40,570,195,577,39,176,360,351,373,99,320,225,171,93,-52,193,111,439,326,88,-537,323,568,196,232,284,16,217
141512,574,384,598,162,-50,542,198,588,26,165,328,295,355,78,316,143,78,82,-70,187,77,435,320,64,-549,310,509,233,230,298,18,228
141513,565,391,561,192,-56,555,260,624,20,163,329,313,362,66,308,182,97,78,-80,191,61,393,286,57,-564,310,465,134,189,299,52,308
141514,516,465,620,224,-47,518,319,609,32,152,308,286,360,73,292,294,142,103,-70,193,60,422,304,68,-553,313,446,79,186,297,62,317
141515,497,472,678,237,-47,518,293,624,30,169,362,254,352,76,294,414,96,91,-63,205,84,369,328,96,-546,336,458,131,228,327,64,314
141516,501,455,637,240,-39,544,266,630,19,164,391,263,359,78,305,319,58,97,-42,194,76,363,348,109,-549,319,467,132,219,288,-13,117
141517,518,383,641,199,-28,538,127,581,23,172,377,317,376,105,293,234,99,127,-29,201,79,385,397,125,-528,343,474,197,264,346,30,126
141518,504,268,635,167,-31,555,-56,563,42,175,329,350,391,96,296,149,156,141,-1,217,34,418,411,164,-486,370,467,170,315,431,145,308
141519,437,130,596,191,-28,541,-164,563,70,181,271,314,407,100,270,59,141,139,2,214,-2,337,330,168,-458,364,436,151,312,421,129,324
141520,387,0,548,106,-49,568,-115,491,37,198,385,285,400,119,295,43,150,152,30,240,2,309,322,185,-441,380,465,229,368,472,199,331
141521,321,137,551,106,-26,579,-23,521,53,210,377,279,428,161,324,80,68,183,62,281,48,312,332,237,-409,427,534,196,383,519,235,358
141522,246,282,555,129,-44,510,69,544,57,187,270,289,446,164,301,70,58,199,106,313,85,346,394,289,-362,517,613,244,493,659,383,528
141523,249,418,558,128,-55,446,137,480,68,170,217,308,456,187,266,51,137,223,131,321,64,312,448,329,-328,521,570,281,533,675,364,346
141524,332,438,524,151,-61,425,191,517,78,154,228,280,474,208,280,43,206,253,151,338,47,229,498,359,-284,532,528,339,601,662,291,217
141525,373,381,515,125,-41,418,184,583,71,164,248,236,479,206,287,59,160,243,165,352,69,308,485,356,-258,569,571,311,589,669,337,307
141526,412,402,528,114,-33,451,196,551,72,172,265,265,482,218,274,70,94,241,181,355,80,397,426,335,-252,579,602,168,481,617,297,181
141527,423,378,539,119,-23,478,163,525,73,166,260,307,476,219,277,57,115,234,179,360,68,336,418,330,-276,557,590,126,462,615,323,257
141528,402,343,525,94,-38,466,72,525,68,159,190,312,478,213,271,7,176,249,177,338,50,276,490,363,-284,545,546,225,558,674,362,313
141529,399,380,494,90,-47,465,83,545,67,170,234,317,466,196,252,33,181,237,174,333,31,260,486,356,-276,513,503,236,548,664,328,234
141530,373,339,475,95,-45,466,128,542,80,171,252,398,472,192,241,26,156,245,158,314,18,251,486,358,-283,521,514,261,560,661,331,238
141531,346,335,472,132,-34,490,52,530,66,168,218,481,489,198,254,1,120,261,170,335,26,224,499,377,-288,557,572,314,616,726,389,340
141532,352,300,471,129,-31,481,-64,558,48,142,148,453,471,179,216,18,168,230,153,315,15,271,490,347,-297,542,606,265,566,718,383,395
141533,369,323,476,117,-40,478,-37,576,30,152,259,347,436,163,240,117,146,189,108,300,50,234,424,274,-338,517,610,103,437,603,299,304
141534,347,384,489,116,-38,515,57,593,49,159,321,305,438,149,254,167,166,188,94,294,72,269,455,272,-373,490,569,277,508,611,218,136
141535,354,325,503,137,-48,499,12,627,40,159,309,355,419,128,232,129,194,206,88,286,72,356,465,266,-386,473,545,307,530,624,211,173
141536,412,315,518,149,-52,504,-40,676,45,176,279,434,430,153,251,87,196,210,71,290,79,385,460,262,-382,498,571,225,458,586,277,335
141537,390,264,476,150,-41,549,-68,657,44,181,380,451,436,143,303,180,221,222,68,301,100,401,480,260,-387,506,611,283,470,622,284,383
141538,404,225,512,137,-51,560,-133,613,32,164,369,454,413,130,280,185,244,211,52,280,108,426,460,217,-392,488,631,234,464,623,318,428
141539,354,130,583,195,-32,546,-49,662,45,165,275,398,418,137,292,230,235,219,44,285,97,365,436,231,-411,484,622,188,451,609,324,434
141540,304,277,616,205,-24,555,134,645,39,180,320,381,406,122,301,256,270,210,23,285,136,351,453,216,-438,473,651,340,482,615,284,398
141541,409,396,680,179,-38,512,219,618,36,178,322,449,431,119,289,199,323,225,19,271,131,343,536,208,-463,457,646,425,512,552,202,247
141542,479,416,689,166,-34,506,294,601,48,179,311,419,412,127,305,121,320,201,16,274,132,437,527,200,-478,469,662,354,480,522,240,348
141543,475,423,632,130,-56,504,259,531,15,149,286,350,368,96,278,82,251,139,-10,238,74,451,453,144,-525,394,604,207,401,434,178,318
141544,457,388,597,98,-39,525,222,503,9,173,331,390,365,119,292,96,194,134,-28,245,85,486,387,127,-528,388,616,177,371,442,215,390
141545,427,289,537,102,-41,523,220,533,11,181,351,368,363,137,289,71,181,125,-34,231,82,455,367,103,-545,374,607,190,357,424,189,392
141546,366,245,451,92,-60,519,176,514,1,169,389,297,355,87,279,107,215,114,-46,181,51,372,387,97,-602,318,562,244,375,424,151,343
141547,338,326,426,90,-62,572,224,462,-7,175,390,344,346,78,282,124,152,98,-59,189,50,384,410,110,-591,318,579,297,409,411,157,361
141548,408,441,455,93,-44,571,276,472,-10,191,412,459,337,112,315,160,140,135,-15,221,107,390,448,152,-552,383,664,396,473,458,201,465
141549,405,438,463,111,-54,542,201,520,10,194,316,442,357,119,313,176,168,157,1,230,144,368,458,148,-552,395,696,354,428,434,158,386
141550,410,370,480,112,-57,512,194,538,13,194,297,327,380,114,312,289,166,158,-14,236,152,341,449,133,-552,400,695,198,357,391,164,306
141551,399,368,456,84,-52,536,234,473,0,184,393,289,357,105,331,257,124,115,-17,227,135,304,435,133,-539,381,613,215,349,364,127,304
141552,389,381,464,102,-34,569,220,437,-10,193,407,346,348,102,331,217,120,138,-18,212,117,281,441,148,-550,336,549,267,365,323,17,286
141553,374,299,499,96,-41,548,141,476,-4,190,359,327,336,123,310,153,135,147,-30,206,105,355,419,148,-559,340,582,324,383,345,61,349
141554,417,363,483,132,-28,525,72,546,23,180,329,259,357,120,295,96,166,110,-26,203,71,284,345,107,-592,332,532,177,276,256,-12,183
141555,334,317,447,143,-47,533,-6,536,4,177,329,277,356,108,298,127,167,119,-32,198,57,191,377,99,-571,335,492,211,275,286,-8,179
141556,329,307,489,133,-53,562,-24,541,13,196,297,302,373,124,298,170,154,136,-10,228,72,296,437,139,-548,345,510,330,333,354,44,233
141557,373,367,501,136,-46,557,-16,533,24,206,339,328,362,139,315,151,212,139,12,234,72,381,441,176,-547,348,484,303,332,346,18,203
141558,425,309,519,102,-51,560,72,491,6,201,454,301,342,141,337,123,219,105,5,224,52,386,378,128,-535,333,476,129,229,267,-65,113
141559,430,333,528,89,-60,543,129,469,4,190,387,234,355,132,334,217,136,94,6,243,77,397,329,86,-547,348,525,39,180,258,-30,178
141560,468,289,542,105,-58,555,126,526,23,200,393,256,372,157,351,244,81,126,34,265,80,308,339,134,-524,359,516,170,271,322,24,188
141561,455,356,580,150,-38,567,183,548,74,232,389,287,398,180,338,278,120,118,61,265,65,299,340,127,-486,365,495,135,267,359,56,301
141562,449,436,565,142,-41,554,215,486,64,235,376,303,381,190,320,236,199,90,67,269,76,313,336,121,-486,355,482,113,241,342,43,315
141563,472,471,551,133,-24,567,225,455,32,209,362,272,366,182,309,217,133,62,47,252,54,317,280,97,-510,319,444,40,140,227,-85,224
141564,422,397,520,104,-51,545,189,458,16,199,293,158,350,177,281,102,61,43,19,248,4,301,250,66,-539,290,454,-15,108,206,-133,135
141565,362,357,532,101,-47,543,218,496,36,205,237,171,361,184,274,68,10,63,38,258,10,328,279,78,-528,311,417,6,113,186,-121,72
141566,368,370,495,117,-55,542,245,500,33,217,280,194,368,188,291,102,3,84,58,275,43,329,330,118,-484,345,448,68,184,273,-20,264
141567,381,322,483,122,-27,557,255,485,40,223,356,118,360,177,323,189,48,64,51,289,65,240,322,124,-472,372,495,49,202,342,58,291
141568,403,312,469,99,-33,554,255,453,39,211,360,114,362,173,324,171,4,62,54,293,49,244,283,140,-463,389,484,141,224,352,54,192
141569,402,329,451,100,-51,564,237,471,34,193,350,161,398,164,305,139,13,95,54,287,48,261,321,153,-418,391,456,220,297,425,64,190
141570,377,349,442,122,-52,572,151,487,33,217,382,175,389,145,302,167,83,72,49,282,45,239,345,150,-437,366,429,143,277,382,44,236
141571,344,289,419,102,-55,541,13,470,19,194,345,181,373,122,266,211,75,50,28,247,37,315,305,120,-464,365,431,1,198,337,-1,227
141572,351,246,420,126,-50,529,23,485,24,178,316,168,382,125,263,211,34,91,40,264,61,471,301,118,-440,379,459,19,208,337,-27,167
141573,309,284,421,142,-41,595,152,495,33,183,404,198,369,148,281,212,51,82,46,284,74,469,280,133,-426,416,499,83,237,373,41,148
141574,289,273,363,132,-58,564,189,483,12,180,407,232,356,138,282,109,1,53,21,283,75,416,249,157,-431,413,497,121,270,392,67,183
141575,302,290,319,133,-53,578,164,511,27,189,338,201,370,133,289,100,9,71,22,274,91,412,288,164,-419,426,504,149,303,395,47,210
141576,375,411,397,166,-38,548,224,552,38,175,350,248,404,140,278,106,82,115,36,275,98,391,300,143,-438,433,562,87,225,334,24,224
141577,408,490,479,173,-38,533,283,577,59,185,311,296,422,155,282,183,111,138,55,294,132,426,360,175,-389,474,572,140,261,344,56,222
141578,411,410,492,184,-45,603,291,560,72,197,339,330,422,159,312,230,145,154,62,335,155,463,411,205,-357,480,573,220,343,414,130,257
141579,369,327,492,184,-21,609,240,591,64,179,326,309,434,126,293,281,167,181,58,306,123,422,404,195,-366,472,546,196,320,426,118,267
141580,358,275,489,200,-29,642,233,610,67,176,455,261,426,137,305,184,141,165,42,289,99,382,363,178,-405,446,511,131,284,396,75,257
141581,396,344,475,188,-44,626,181,582,38,164,426,354,400,98,299,152,145,164,17,268,90,329,340,150,-437,406,522,92,243,351,42,242
141582,408,389,485,196,-63,583,155,518,29,133,347,337,396,64,271,108,149,141,6,228,48,287,318,118,-465,361,470,88,260,325,24,198
141583,466,448,515,192,-72,601,228,567,33,142,311,336,409,55,271,118,90,126,-22,207,26,262,327,115,-489,330,433,123,284,347,17,212
141584,394,460,524,202,-50,594,299,596,40,153,319,331,392,52,273,180,77,123,-29,200,30,296,359,88,-498,313,374,131,252,326,-9,132
141585,368,455,555,210,-38,569,300,576,45,158,343,337,407,60,293,220,138,150,1,210,52,260,403,123,-498,327,379,69,244,282,-18,94
141586,442,480,591,205,-41,567,297,583,40,181,344,296,417,71,273,145,160,149,1,215,53,141,321,137,-493,328,426,105,238,289,-8,127
141587,433,507,586,185,-38,572,281,568,30,185,340,289,425,75,287,76,60,107,-12,198,20,71,256,119,-515,292,370,100,223,274,-50,44
141588,356,488,539,164,-44,586,204,527,23,179,365,327,386,67,301,92,13,66,-26,181,-19,115,234,68,-568,237,286,64,199,215,-142,-9
141589,373,434,505,172,-47,540,248,507,8,145,365,233,325,61,278,130,44,46,-70,141,-24,135,219,34,-600,234,217,31,170,181,-155,-31
141590,366,341,473,162,-52,545,204,463,0,156,393,166,309,63,284,204,1,22,-90,151,-12,67,189,13,-593,231,223,-78,141,192,-167,-30
141591,368,316,478,179,-47,613,136,478,5,165,326,141,331,56,279,147,0,32,-83,167,-23,19,177,13,-617,240,257,-22,146,191,-165,-49
141592,361,323,456,191,-33,597,93,496,-1,155,313,153,317,34,273,68,-20,16,-95,146,-21,98,172,22,-630,234,281,-45,167,209,-103,19
141593,323,250,433,183,-28,584,51,524,18,157,293,184,323,22,256,54,-34,12,-107,143,-31,166,195,33,-618,234,319,-4,186,240,-68,114
141594,349,314,461,167,-34,632,47,527,4,164,395,215,326,26,292,94,1,37,-106,142,22,161,230,33,-625,259,380,50,201,226,-74,97
141595,373,359,488,186,-26,632,170,537,1,175,442,251,339,31,305,179,97,78,-80,168,39,102,311,54,-626,284,376,86,206,226,-130,-74
141596,401,402,447,191,-36,582,282,557,11,159,388,290,366,36,312,187,88,110,-54,167,60,171,351,95,-599,327,402,109,262,331,21,109
141597,403,406,426,182,-47,616,268,575,10,181,411,336,375,71,320,197,51,121,-40,186,86,284,376,119,-570,355,380,161,302,367,50,134
141598,337,353,399,152,-45,638,246,549,8,188,391,329,367,65,318,224,75,115,-28,214,106,308,348,113,-555,363,399,103,288,363,63,227
141599,355,338,451,162,-47,598,246,566,6,171,388,297,358,53,308,276,107,104,-23,215,113,302,321,129,-552,377,465,124,279,372,77,285
141600,448,371,518,190,-41,581,238,602,22,169,390,291,362,45,302,188,117,92,-29,195,80,322,303,110,-560,353,496,134,268,342,45,165
141601,433,396,546,150,-54,589,253,604,3,139,385,323,341,30,294,122,175,94,-53,191,72,288,328,110,-582,328,475,196,272,334,-7,84
141602,422,440,577,175,-54,582,277,603,-11,117,368,364,362,32,284,127,259,128,-50,174,46,310,374,121,-584,314,443,269,325,408,54,197
141603,463,467,613,194,-39,616,308,611,-15,141,401,401,380,38,289,205,350,189,-29,190,66,395,436,138,-568,326,461,320,352,431,89,264
141604,487,476,615,175,-71,595,346,585,-11,139,418,417,348,25,282,230,315,155,-61,167,57,417,425,117,-590,313,480,225,267,359,17,124
141605,454,598,633,190,-44,616,395,599,10,142,438,441,380,39,312,253,283,191,-19,201,92,465,459,173,-531,355,505,345,370,430,91,285
141606,456,612,645,201,-33,645,423,632,29,167,450,500,415,70,291,312,317,210,-5,213,112,516,485,211,-496,391,523,394,416,502,162,410
141607,507,473,655,178,-57,624,426,626,15,162,437,552,401,76,289,343,341,222,-5,213,119,529,492,194,-508,385,532,302,375,455,144,378
141608,473,494,677,212,-42,635,419,657,20,181,453,562,414,68,298,359,448,253,12,230,155,495,542,211,-490,377,536,345,414,443,98,312
141609,480,461,655,218,-54,593,386,660,26,144,416,491,428,82,274,356,449,287,44,237,144,471,589,251,-476,409,602,461,500,554,202,404
141610,489,378,636,198,-47,587,346,657,15,167,514,474,423,99,316,394,306,252,38,256,161,432,551,254,-453,433,662,411,486,566,216,382
141611,480,395,639,181,-36,611,259,613,7,164,472,416,393,79,315,496,302,216,15,237,153,379,490,221,-487,409,615,320,416,493,190,347
141612,511,490,688,194,-59,576,280,590,7,155,469,417,389,59,304,494,347,192,-7,217,153,407,474,184,-510,370,553,239,352,423,94,326
141613,468,442,654,210,-57,558,257,596,13,138,431,426,379,76,298,389,344,188,-6,226,158,515,504,196,-510,384,549,365,424,453,136,354
141614,379,398,619,241,-27,618,243,576,47,162,432,402,384,101,326,333,354,200,20,267,168,404,529,230,-462,416,563,451,485,505,156,361
141615,361,402,561,207,-39,618,200,582,0,166,442,343,379,80,319,265,302,173,1,251,146,338,500,197,-471,390,549,392,451,486,129,355
141616,378,406,516,191,-46,603,163,590,1,156,405,296,351,67,328,292,228,129,-23,221,134,411,412,151,-505,366,532,220,353,398,70,288
141617,381,388,493,183,-38,612,159,550,1,156,426,256,332,77,358,322,188,89,-28,227,148,407,381,119,-523,390,566,207,323,401,59,246
141618,374,370,507,182,-37,638,318,558,-8,166,525,243,330,85,350,280,215,61,-37,226,155,390,356,105,-534,382,582,175,292,372,25,216
141619,363,343,488,163,-44,621,360,561,-1,143,449,224,342,62,307,140,172,53,-56,209,127,343,322,89,-558,343,518,128,237,312,-7,193
141620,349,350,457,130,-64,591,372,532,-5,141,393,276,332,58,277,77,135,34,-81,180,86,323,322,68,-581,329,451,114,231,289,-54,157
141621,311,347,429,134,-38,606,333,500,-2,150,398,335,340,81,297,123,156,53,-68,188,80,380,390,91,-545,337,450,248,301,332,-30,154
141622,314,386,449,136,-39,620,310,476,-7,161,371,311,321,90,310,149,89,60,-65,197,90,274,369,94,-552,339,443,242,291,340,-4,163
141623,256,410,454,145,-62,583,309,535,-13,156,361,224,328,66,297,256,91,71,-45,182,80,266,358,84,-562,333,446,184,241,331,-1,192
141624,291,403,503,148,-43,562,292,513,2,153,391,219,331,83,333,281,105,78,-34,198,108,349,338,93,-561,333,493,125,254,351,13,240
141625,288,374,534,156,-31,584,282,513,7,179,351,251,333,75,322,211,112,79,-57,181,94,341,315,88,-585,327,487,103,247,338,22,240
141626,224,390,483,154,-44,579,228,529,-1,162,394,234,330,63,307,135,105,47,-76,141,46,305,323,74,-588,298,427,66,215,300,-33,168
141627,191,334,466,151,-56,543,157,524,-4,166,338,276,333,57,296,122,128,47,-93,164,43,311,329,69,-565,313,426,69,252,324,6,260
141628,181,321,456,166,-41,540,203,511,32,182,370,273,344,83,310,169,59,50,-76,189,73,397,264,71,-540,346,526,91,267,381,68,393
141629,225,332,425,165,-53,523,205,518,21,153,336,212,336,70,292,163,31,26,-83,146,17,379,255,51,-597,275,440,97,220,281,-110,79
141630,318,328,437,169,-51,514,163,495,12,151,325,209,304,47,281,153,99,8,-96,137,-5,338,254,23,-629,226,390,108,197,183,-191,-99
141631,353,219,458,193,-45,509,91,519,18,157,409,318,343,57,301,162,122,29,-85,147,17,356,272,26,-611,229,366,131,215,198,-182,-8
141632,368,268,475,175,-56,500,63,505,15,159,411,383,361,64,320,336,95,54,-83,160,44,290,306,35,-598,265,407,206,245,261,-127,79
