,Fp1,Fp2,F7,F3,Fz,F4,F8,FC5,FC1,FC2,FC6,T7,C3,Cz,C4,T8,TP9,CP5,CP1,CP2,CP6,TP10,P7,P3,Pz,P4,P8,PO9,O1,Oz,O2,PO10
126925,-348,-253,-95,-130,76,323,249,129,-60,-177,90,-451,-98,34,-179,-205,69,-368,-149,-53,-355,-162,-167,118,53,65,-58,-285,-206,-368,-337,68
126926,-292,-270,-88,-120,86,349,298,110,-79,-192,123,-472,-102,1,-189,-384,92,-387,-169,-85,-334,-123,-187,109,36,38,-113,-273,-209,-401,-394,-48
126927,-281,-243,-100,-106,112,361,284,125,-59,-180,126,-452,-97,-1,-177,-431,89,-379,-156,-76,-323,-80,-187,136,58,50,-101,-198,-157,-368,-409,-85
126928,-313,-232,-108,-104,80,326,254,141,-68,-204,91,-446,-90,-8,-185,-238,158,-365,-158,-74,-359,-227,-156,132,65,33,-120,-170,-152,-373,-440,-116
126929,-299,-187,-127,-100,83,342,307,120,-64,-200,133,-456,-88,16,-163,0,163,-364,-134,-48,-305,-206,-150,153,89,62,-77,-181,-142,-341,-382,-41
126930,-276,-169,-100,-98,106,362,360,113,-67,-180,162,-439,-82,18,-124,36,98,-344,-139,-30,-243,29,-154,171,115,101,33,-210,-132,-328,-365,26
126931,-289,-200,-106,-97,93,351,354,95,-60,-193,141,-405,-69,25,-139,-153,77,-331,-133,-16,-242,105,-130,182,119,128,123,-167,-80,-277,-311,76
126932,-240,-173,-81,-52,99,354,373,139,-58,-190,166,-404,-55,33,-95,-280,116,-315,-109,13,-216,93,-129,205,127,137,104,-179,-84,-247,-286,95
126933,-265,-146,-63,-21,114,355,376,156,-52,-186,167,-438,-41,25,-93,-530,114,-302,-106,3,-217,57,-114,211,129,126,71,-153,-58,-250,-305,98
126934,-289,-129,-83,-40,104,364,378,150,-44,-177,188,-431,-57,29,-76,-604,84,-312,-106,-6,-183,34,-107,198,119,126,99,-166,-64,-272,-304,31
126935,-247,-120,-92,-69,116,384,387,150,-56,-181,206,-417,-61,23,-79,-252,71,-318,-126,-13,-163,-27,-102,182,92,127,86,-178,-89,-277,-298,50
126936,-216,-118,-94,-67,128,447,411,160,-46,-168,239,-395,-40,29,-101,56,106,-311,-119,-19,-151,-109,-91,189,96,141,172,-178,-52,-245,-248,132
126937,-201,-102,-33,-60,138,420,402,172,-36,-157,222,-377,-40,29,-110,36,148,-297,-100,-12,-129,-109,-75,211,114,181,315,-141,-9,-204,-188,153
126938,-218,-133,-38,-56,148,394,366,179,-43,-175,176,-375,-22,31,-142,-47,156,-272,-100,1,-165,18,-53,218,122,168,221,-80,7,-175,-194,71
126939,-237,-155,-43,-57,130,387,385,149,-52,-193,158,-414,-55,6,-145,-143,169,-290,-117,-45,-234,31,-57,216,103,124,-37,-73,-5,-219,-255,126
126940,-234,-134,-15,-41,131,401,389,146,-56,-191,163,-407,-65,19,-140,-243,151,-294,-122,-52,-240,-37,-52,209,104,122,-89,-164,-23,-206,-227,173
126941,-247,-136,-36,-35,138,409,357,133,-43,-182,155,-417,-66,18,-125,-142,147,-293,-126,-20,-235,-129,-68,207,108,153,-15,-187,-17,-179,-198,177
126942,-218,-119,-11,-30,136,398,354,127,-43,-180,158,-415,-53,28,-148,25,185,-290,-137,-27,-301,-182,-57,204,98,126,-19,-147,-25,-215,-252,78
126943,-209,-107,5,-21,147,332,352,145,-38,-203,148,-409,-37,4,-182,53,193,-305,-145,-41,-344,-233,-86,200,94,104,-22,-117,-30,-234,-274,43
126944,-201,-108,30,-37,163,381,359,178,-32,-189,155,-393,-33,-1,-169,-6,86,-327,-159,-42,-324,-172,-92,190,95,115,-58,-70,-12,-218,-242,82
126945,-215,-134,-16,-61,143,401,345,173,-44,-192,149,-399,-55,-21,-177,-95,35,-349,-173,-63,-348,-54,-81,178,75,116,-61,-76,-31,-225,-264,61
126946,-175,-117,5,-35,150,386,355,160,-47,-179,132,-422,-70,-19,-180,-142,69,-345,-163,-66,-350,-31,-51,174,79,114,-13,-139,-30,-225,-270,85
126947,-149,-127,41,-29,159,360,335,184,-34,-166,131,-413,-57,-23,-179,-147,93,-329,-160,-60,-340,46,-69,174,79,104,8,-133,-27,-226,-296,122
126948,-164,-147,57,-12,168,377,329,166,-42,-192,109,-406,-76,-25,-202,-143,87,-327,-169,-73,-335,35,-91,172,46,63,56,-127,-57,-246,-313,138
126949,-181,-128,15,-9,164,375,329,168,-49,-205,104,-431,-73,-23,-210,-169,56,-325,-180,-105,-347,40,-120,155,53,46,41,-151,-65,-259,-354,110
126950,-178,-160,13,-23,151,349,249,171,-52,-214,106,-442,-82,-26,-228,-360,78,-327,-184,-120,-377,-12,-130,156,28,25,-27,-148,-89,-305,-377,-14
126951,-171,-156,10,-35,124,338,262,167,-45,-223,127,-405,-93,-24,-236,-324,159,-336,-193,-119,-359,-117,-109,140,17,30,-28,-192,-107,-303,-357,13
126952,-162,-155,-6,-44,100,322,280,134,-85,-227,130,-410,-93,-27,-245,-200,181,-357,-194,-128,-367,-158,-106,134,56,37,-42,-183,-90,-285,-348,79
126953,-128,-135,-5,-33,139,346,316,163,-47,-207,150,-422,-75,-1,-233,-454,142,-345,-175,-124,-378,-51,-107,160,58,16,-42,-208,-123,-309,-373,15
126954,-139,-116,0,-24,134,378,337,182,-33,-198,185,-410,-44,-13,-225,-536,129,-320,-142,-97,-369,5,-123,170,60,50,-55,-224,-119,-288,-346,72
126955,-136,-110,-26,-10,140,389,342,199,-28,-183,183,-370,-38,-14,-213,-265,116,-276,-134,-87,-350,-10,-84,205,77,79,-48,-109,-47,-239,-302,110
126956,-152,-110,-45,-17,157,422,362,197,-22,-170,218,-354,-32,7,-191,-295,101,-288,-137,-78,-321,-86,-97,196,79,94,-35,-130,-51,-244,-287,106
126957,-198,-129,-42,-24,151,454,369,184,-28,-170,238,-390,-20,10,-163,-467,96,-324,-138,-77,-314,10,-132,184,73,104,-15,-135,-77,-225,-275,100
126958,-203,-130,-23,-23,143,449,373,190,-35,-175,216,-390,-50,-5,-173,-635,26,-337,-155,-107,-290,32,-153,158,56,94,47,-200,-115,-251,-299,98
126959,-157,-77,-11,-16,158,479,420,198,-37,-176,239,-409,-58,-33,-142,-530,-52,-383,-171,-105,-253,-216,-168,132,53,76,84,-246,-147,-297,-330,89
126960,-130,-39,-17,-10,157,504,414,193,-37,-172,254,-431,-80,-34,-150,-189,49,-408,-197,-99,-253,-296,-136,109,24,62,15,-273,-162,-306,-348,5
126961,-165,-32,-35,-10,154,482,359,170,-62,-169,209,-476,-106,-34,-179,-29,104,-415,-197,-112,-302,-306,-167,87,0,61,-100,-274,-146,-302,-320,36
126962,-165,-39,15,-16,146,457,379,184,-69,-185,185,-480,-99,-40,-175,111,113,-426,-191,-128,-312,-220,-230,93,14,66,-116,-222,-111,-277,-292,70
126963,-135,-27,70,36,165,468,414,226,-23,-149,215,-445,-87,-20,-160,139,116,-420,-192,-93,-251,-64,-258,97,36,103,74,-199,-113,-273,-297,116
126964,-138,-2,68,24,183,471,419,189,-45,-163,219,-431,-95,-25,-171,53,173,-425,-215,-92,-251,120,-262,58,3,105,170,-180,-138,-333,-370,-103
126965,-96,46,37,5,191,474,459,184,-53,-167,217,-365,-105,-30,-174,125,180,-423,-234,-82,-224,170,-243,63,-2,138,198,-199,-149,-348,-373,-48
126966,-73,63,21,45,200,469,503,208,-39,-160,258,-362,-108,-25,-155,168,184,-436,-205,-75,-205,12,-196,72,44,92,24,-155,-120,-294,-353,133
126967,-73,31,30,25,196,449,474,199,-61,-163,218,-403,-109,-39,-151,22,162,-465,-214,-88,-270,-60,-187,70,28,90,-61,-152,-92,-273,-353,109
126968,-32,38,68,45,183,412,427,187,-40,-197,169,-460,-102,-39,-207,-154,184,-453,-228,-96,-395,-63,-222,75,15,50,-153,-114,-75,-278,-346,97
126969,-29,60,76,34,187,433,430,177,-33,-202,194,-514,-108,-24,-198,-131,165,-464,-213,-99,-417,8,-214,80,34,54,-142,-143,-111,-295,-326,73
126970,-35,34,71,19,176,447,387,185,-29,-193,191,-452,-105,-32,-177,-103,119,-458,-202,-103,-362,-10,-189,81,54,56,-74,-228,-116,-290,-340,77
126971,-68,-13,55,0,161,446,392,186,-59,-205,185,-460,-116,-31,-171,-134,120,-458,-214,-111,-363,-79,-215,87,29,45,-61,-207,-109,-281,-339,78
126972,-75,15,17,-14,162,465,437,172,-61,-202,181,-498,-135,-46,-176,-154,75,-489,-238,-124,-378,2,-274,58,31,25,-108,-254,-137,-293,-352,57
126973,-43,44,-21,-15,170,469,434,172,-41,-165,188,-475,-134,-46,-169,-158,114,-489,-237,-110,-389,74,-252,56,33,20,-113,-266,-144,-311,-392,54
126974,-67,55,-17,-45,189,465,427,147,-58,-163,204,-495,-149,-54,-188,-273,94,-481,-254,-104,-422,-40,-256,55,15,3,-72,-289,-165,-342,-413,35
126975,-83,53,5,-28,175,471,443,157,-59,-163,225,-498,-138,-41,-165,-600,81,-439,-244,-92,-389,-151,-237,81,25,18,-45,-264,-163,-332,-380,28
126976,-125,30,-32,-38,183,428,422,128,-57,-172,242,-498,-131,-31,-134,-799,41,-437,-229,-84,-351,-254,-221,95,38,38,-27,-236,-124,-289,-356,24
126977,-175,-11,-46,-56,152,437,404,108,-74,-177,203,-524,-124,-29,-116,-393,5,-452,-212,-70,-317,-282,-197,112,61,65,-16,-198,-89,-276,-334,43
126978,-153,-22,-8,-42,136,456,413,142,-67,-179,177,-491,-120,-52,-134,-51,74,-385,-202,-79,-317,-164,-165,122,81,73,-7,-169,-79,-269,-339,59
126979,-124,-8,-1,-22,149,455,416,158,-51,-176,181,-457,-80,-50,-114,-144,107,-344,-180,-45,-324,-101,-116,153,99,99,62,-146,-33,-241,-292,13
126980,-106,6,19,-9,156,467,422,193,-20,-159,208,-407,-63,-16,-116,-175,148,-314,-147,-20,-294,16,-51,186,123,138,56,-81,-1,-200,-261,87
126981,-109,-12,-2,-31,154,457,435,203,-56,-156,225,-390,-73,-11,-126,-33,135,-313,-147,-37,-272,56,-90,180,120,159,4,-175,-73,-253,-283,104
126982,-130,-56,-35,-47,131,450,402,174,-63,-191,203,-394,-91,-8,-137,-38,9,-304,-154,-32,-275,-18,-103,172,105,152,-30,-202,-81,-248,-265,72
126983,-119,-39,-17,-33,141,440,421,188,-55,-167,232,-372,-90,4,-90,-323,-34,-325,-152,-3,-236,0,-118,148,106,131,18,-197,-84,-241,-269,53
126984,-122,-50,-17,-48,159,448,428,189,-61,-159,235,-407,-93,-19,-84,-670,-2,-335,-162,-29,-225,12,-114,171,90,121,62,-168,-63,-237,-297,87
126985,-116,-33,-25,-41,162,469,421,183,-66,-149,265,-449,-89,-9,-83,-568,82,-337,-164,-35,-231,-113,-115,170,76,111,65,-139,-54,-226,-278,121
126986,-109,-14,-34,-45,158,492,450,167,-70,-145,259,-421,-91,7,-87,-277,49,-341,-184,-45,-216,-187,-95,158,83,98,107,-167,-62,-224,-291,170
126987,-93,8,-38,-66,153,516,459,132,-74,-126,257,-402,-112,3,-71,-63,88,-356,-201,-39,-190,-57,-101,144,73,111,149,-147,-71,-222,-279,142
126988,-123,19,-72,-66,146,516,475,133,-92,-124,263,-444,-112,-28,-91,-54,104,-375,-210,-61,-251,-19,-165,122,49,87,-4,-189,-90,-261,-311,19
126989,-93,0,-53,-46,164,511,436,148,-73,-131,231,-476,-102,-25,-119,-80,106,-386,-176,-69,-342,-30,-181,112,54,56,-120,-201,-105,-273,-342,-11
126990,-78,-4,-20,-42,173,513,440,174,-60,-142,230,-474,-127,-25,-155,-49,109,-383,-197,-83,-371,-198,-201,94,40,63,-20,-289,-148,-295,-342,38
126991,-95,8,8,-31,154,496,441,191,-59,-128,246,-504,-123,-29,-151,-9,28,-400,-239,-94,-350,-316,-267,68,18,58,106,-325,-177,-346,-341,24
126992,-126,-3,3,-36,169,508,420,166,-75,-137,253,-506,-114,-34,-124,56,-1,-381,-227,-86,-300,-243,-259,44,17,54,49,-314,-190,-342,-356,-108
126993,-143,-6,-24,-12,188,513,434,147,-60,-129,276,-466,-112,-25,-118,122,84,-388,-212,-73,-266,-26,-217,89,22,68,-156,-239,-153,-317,-339,-102
126994,-147,-18,-33,-29,160,488,429,136,-56,-169,236,-449,-110,-16,-153,-38,119,-402,-219,-86,-369,-84,-223,68,13,27,-290,-214,-164,-332,-364,69
126995,-158,-46,-37,-52,150,430,399,128,-75,-205,197,-467,-124,-51,-174,-258,129,-417,-239,-112,-436,-203,-260,38,-30,-4,-328,-233,-195,-378,-404,45
126996,-127,-57,-28,-12,157,435,375,148,-36,-204,167,-509,-122,-32,-173,-288,116,-363,-205,-109,-421,-260,-216,61,-20,23,-233,-226,-176,-385,-402,-56
126997,-134,-41,-5,-10,170,444,332,157,-48,-177,162,-499,-97,-11,-152,-258,113,-338,-207,-80,-378,-38,-164,97,35,77,-76,-173,-135,-313,-360,97
126998,-130,-45,5,-20,153,413,298,156,-59,-186,155,-499,-102,-14,-150,-241,143,-368,-207,-105,-364,54,-175,104,50,82,-25,-193,-133,-323,-360,146
126999,-129,-37,12,-10,150,424,321,181,-38,-190,172,-429,-71,-13,-140,-157,175,-329,-171,-67,-338,-40,-148,142,70,82,-39,-195,-122,-315,-312,118
127000,-128,-59,15,-9,135,436,385,172,-36,-187,172,-415,-54,-4,-151,-139,149,-305,-153,-46,-319,-15,-86,168,89,111,-4,-143,-85,-271,-272,148
127001,-130,-68,29,-38,137,413,366,171,-67,-215,158,-425,-73,-30,-167,-220,117,-292,-149,-66,-329,-20,-30,171,96,117,-7,-98,-31,-242,-272,135
127002,-115,-53,12,-19,138,408,356,184,-57,-217,149,-411,-68,-24,-160,-513,147,-302,-145,-59,-325,-149,-72,172,94,123,-28,-120,-38,-252,-317,43
127003,-119,-54,-49,-21,151,424,385,181,-30,-198,178,-447,-80,-14,-117,-348,96,-326,-160,-41,-272,-220,-136,156,98,147,14,-176,-79,-279,-337,-31
127004,-97,-34,-42,-15,169,450,404,184,-21,-176,189,-473,-89,-10,-117,-46,104,-336,-170,-26,-246,-185,-145,145,84,166,49,-220,-113,-306,-302,51
127005,-106,-22,-38,-13,189,450,399,174,-20,-179,218,-468,-101,-18,-119,-197,153,-329,-170,-32,-228,-124,-137,159,101,166,62,-176,-95,-278,-294,125
127006,-91,1,-14,-21,190,444,407,167,-6,-183,243,-420,-99,9,-128,-644,67,-346,-167,-16,-250,-170,-118,171,113,169,42,-138,-49,-256,-293,72
127007,-114,-1,-2,-25,181,403,406,171,-16,-173,222,-419,-77,17,-121,-602,47,-333,-146,-13,-250,-183,-83,175,132,179,50,-106,-29,-257,-272,89
127008,-153,-37,-60,-73,148,447,383,98,-45,-186,199,-465,-115,-7,-127,-262,79,-347,-169,-26,-238,30,-74,180,119,183,106,-90,-13,-226,-242,119
127009,-139,-31,-47,-57,152,419,354,107,-31,-179,176,-452,-125,8,-123,-60,141,-346,-149,-18,-222,12,-63,207,141,204,151,-82,8,-199,-232,106
127010,-135,-43,-23,-51,133,431,336,126,-43,-171,143,-430,-126,5,-148,31,164,-339,-142,-24,-295,-124,-50,198,136,190,50,-70,33,-204,-203,174
127011,-153,-63,-46,-81,121,412,310,100,-58,-189,115,-486,-130,3,-187,-49,132,-374,-162,-56,-361,-99,-120,166,119,158,-42,-126,-14,-232,-210,196
127012,-135,-32,-49,-69,144,431,319,113,-55,-170,128,-472,-113,4,-164,-103,139,-370,-165,-34,-320,41,-103,185,159,192,-18,-127,-17,-219,-203,190
127013,-121,-32,-64,-50,147,427,332,133,-48,-184,139,-454,-107,8,-169,-86,156,-367,-154,-27,-300,33,-56,203,162,206,98,-37,48,-192,-177,178
127014,-126,-24,-115,-70,140,434,370,122,-78,-192,156,-481,-127,1,-172,-103,172,-364,-164,-46,-324,-32,-61,182,146,192,81,-20,53,-204,-183,118
127015,-101,0,-76,-63,157,442,382,132,-63,-176,155,-429,-131,10,-163,-202,194,-353,-160,-30,-297,10,-49,201,137,208,80,8,87,-175,-148,193
127016,-89,7,-48,-58,167,431,327,165,-52,-189,106,-418,-125,3,-160,-371,215,-348,-159,-35,-296,36,-55,199,137,217,55,3,65,-190,-165,217
127017,-87,13,-9,-43,166,451,360,167,-50,-195,135,-415,-108,8,-135,-450,185,-344,-170,-15,-290,16,-63,204,137,215,35,-51,8,-223,-193,128
127018,-85,19,1,-22,153,453,367,164,-56,-185,145,-399,-119,-1,-136,-331,212,-320,-167,-27,-283,10,-22,200,138,199,53,-57,62,-201,-167,215
127019,-113,25,-44,-64,163,456,418,170,-71,-189,144,-428,-130,-2,-146,-93,221,-337,-174,-45,-296,-9,-18,185,139,195,79,-6,86,-182,-140,249
127020,-95,46,-17,-43,171,469,422,169,-60,-166,153,-403,-117,7,-153,-64,253,-328,-168,-39,-301,4,3,208,152,211,104,26,93,-175,-135,225
127021,-103,55,5,-28,154,465,400,117,-76,-185,121,-421,-109,-5,-154,-202,218,-332,-164,-25,-301,-1,-9,201,131,195,114,2,79,-179,-134,216
127022,-61,58,43,-29,166,455,416,123,-55,-164,121,-428,-111,6,-164,-48,197,-308,-168,-24,-267,-17,-32,186,140,223,150,-46,45,-203,-137,238
127023,-59,25,39,-25,161,427,405,141,-50,-175,117,-408,-120,-3,-168,23,176,-309,-172,-23,-257,2,-18,188,133,224,230,-89,17,-209,-140,267
127024,-78,39,12,-43,144,405,408,144,-48,-213,114,-394,-105,-5,-163,31,145,-319,-153,-30,-249,73,-30,178,124,217,256,-127,-11,-234,-156,217
127025,-54,67,31,-30,159,412,410,161,-38,-178,142,-365,-91,15,-146,66,184,-287,-142,-2,-202,85,-23,178,144,241,191,-87,13,-226,-140,194
127026,-66,62,6,-21,167,428,427,178,-30,-171,166,-383,-91,22,-135,9,232,-282,-142,-10,-226,24,-9,199,154,231,114,-56,27,-219,-174,135
127027,-90,36,-8,-50,168,452,445,175,-21,-188,166,-414,-98,8,-164,-10,206,-309,-156,-29,-236,-28,-25,198,140,221,105,-68,16,-222,-138,225
127028,-83,40,12,-50,153,450,433,175,-32,-205,172,-457,-92,0,-154,-23,163,-316,-146,-43,-248,-51,-38,191,127,220,144,-46,44,-188,-126,306
127029,-52,64,56,-33,150,475,446,194,-25,-192,181,-443,-74,-3,-132,-195,141,-290,-168,-41,-202,-26,1,195,133,244,285,-21,33,-196,-139,306
127030,-71,61,56,-16,148,464,406,179,-18,-204,144,-376,-97,-12,-148,-686,162,-323,-161,-53,-195,36,-16,182,118,244,343,-27,31,-214,-157,271
127031,-48,78,40,1,178,482,429,171,-10,-181,184,-298,-95,-3,-114,-499,170,-343,-147,-36,-167,131,-43,179,131,226,229,-44,34,-201,-156,269
127032,-38,38,72,9,187,479,424,175,-13,-172,185,-373,-96,-10,-141,-156,152,-345,-169,-43,-192,72,-68,159,112,226,158,-155,-19,-214,-180,244
127033,-76,33,59,24,180,457,404,174,-28,-197,160,-406,-105,-5,-153,-137,88,-332,-166,-53,-238,-120,-51,173,115,215,140,-99,-5,-223,-164,278
127034,-84,35,78,9,164,457,389,211,-8,-189,155,-366,-104,-5,-170,-71,-22,-334,-169,-51,-296,-133,-91,156,104,195,140,-106,-27,-216,-154,262
127035,-80,47,76,14,181,457,377,187,-24,-193,140,-376,-116,-27,-199,-26,115,-346,-183,-78,-348,76,-127,136,74,166,160,-135,-64,-253,-197,246
127036,-76,43,58,22,181,454,382,176,-20,-193,149,-409,-102,-19,-212,-16,245,-346,-187,-82,-341,220,-96,145,80,157,189,-86,-50,-252,-235,300
127037,-99,47,80,28,201,480,422,181,-7,-166,172,-474,-78,-12,-194,-193,302,-347,-181,-68,-308,166,-106,147,87,159,209,-113,-89,-276,-268,247
127038,-98,73,63,2,192,468,453,171,-2,-175,194,-478,-86,-16,-170,-224,205,-368,-197,-75,-297,122,-137,122,55,128,166,-226,-161,-315,-274,190
127039,-93,39,20,-23,168,466,437,141,-22,-177,177,-413,-119,-23,-151,-56,121,-363,-197,-67,-297,57,-140,117,64,122,150,-237,-153,-315,-275,183
127040,-104,0,31,-30,158,444,432,146,-5,-180,158,-434,-128,-19,-168,-85,87,-379,-172,-52,-296,32,-122,135,74,136,209,-210,-134,-306,-287,220
127041,-76,1,6,-51,144,405,413,116,-22,-200,147,-444,-134,-26,-173,-310,68,-402,-196,-57,-281,27,-149,125,89,149,257,-228,-143,-300,-281,197
127042,-80,-13,-17,-64,142,429,422,114,-24,-188,159,-469,-137,-20,-152,-508,80,-414,-200,-56,-287,-58,-209,106,97,153,174,-290,-168,-311,-272,131
127043,-68,-4,-12,-51,154,431,414,120,-26,-175,164,-473,-140,-12,-148,-516,74,-425,-192,-61,-306,-48,-207,107,87,120,18,-277,-187,-306,-290,159
127044,-62,1,-16,-83,163,423,342,110,-26,-168,141,-471,-151,-27,-156,-314,31,-414,-197,-69,-330,-71,-204,97,64,94,-49,-275,-190,-358,-332,79
127045,-71,-6,-32,-69,168,442,364,131,-35,-182,126,-509,-145,-30,-193,-58,6,-435,-213,-92,-373,-174,-228,89,45,85,-69,-283,-192,-362,-345,25
127046,-116,-7,-56,-69,148,445,365,126,-26,-194,117,-508,-151,-19,-206,1,7,-444,-194,-99,-373,-176,-221,98,56,85,-98,-330,-194,-337,-330,102
127047,-105,-23,-43,-72,165,415,347,110,-16,-164,111,-475,-127,4,-198,-51,86,-389,-155,-75,-355,-174,-178,127,96,123,-69,-264,-152,-314,-316,98
127048,-128,-24,-59,-72,160,406,341,65,-25,-173,81,-469,-116,19,-219,-84,109,-377,-160,-66,-374,-109,-184,152,92,134,-31,-242,-137,-309,-296,42
127049,-106,-27,-65,-59,159,401,354,81,-2,-176,104,-459,-119,19,-211,-153,94,-367,-138,-42,-375,-60,-174,146,134,126,70,-234,-110,-257,-233,134
127050,-78,-28,-35,-47,155,401,353,103,-20,-169,112,-474,-133,13,-210,-211,46,-387,-161,-68,-357,1,-202,121,117,131,123,-282,-127,-271,-249,62
127051,-64,-43,-31,-63,143,375,292,84,-19,-180,58,-484,-125,11,-229,-152,46,-388,-182,-69,-380,-5,-205,105,86,111,-15,-286,-154,-335,-336,42
127052,-96,-41,-33,-77,132,370,296,89,-30,-192,52,-444,-127,-13,-237,-109,1,-370,-166,-70,-390,-88,-176,141,80,91,-100,-220,-119,-331,-371,96
127053,-101,-39,-21,-73,151,368,328,114,-24,-205,79,-424,-115,-2,-209,-86,13,-355,-151,-57,-358,-58,-152,174,108,116,-73,-222,-110,-305,-360,90
127054,-88,-48,-30,-71,129,362,319,112,-13,-210,94,-422,-105,-5,-213,-122,79,-331,-138,-56,-377,-17,-84,195,126,131,-28,-159,-35,-241,-269,124
127055,-88,-45,-31,-52,134,379,331,116,-15,-197,76,-403,-85,-13,-226,-354,151,-309,-119,-72,-396,-79,-54,208,137,135,10,-137,-2,-201,-219,138
127056,-102,-41,-2,-27,174,414,325,141,-4,-185,93,-407,-77,4,-204,-578,180,-287,-118,-56,-363,-335,-49,223,161,151,21,-167,-20,-180,-238,165
127057,-114,-12,17,-26,164,348,324,137,-17,-193,100,-391,-60,15,-189,-518,107,-266,-107,-48,-353,-297,-38,243,172,143,3,-184,-13,-177,-246,124
127058,-142,30,-16,-40,150,406,362,140,-13,-183,126,-414,-56,0,-180,-499,55,-265,-98,-47,-359,8,-40,241,189,162,47,-145,28,-142,-193,157
127059,-105,12,0,-17,156,465,400,174,12,-182,174,-435,-51,1,-162,-402,86,-236,-108,-49,-356,30,-8,253,176,162,64,-148,45,-126,-175,104
127060,-32,15,32,-6,183,461,402,174,16,-157,174,-381,-41,-1,-147,-219,160,-233,-115,-53,-294,-86,-7,253,186,165,123,-120,38,-156,-194,64
127061,-33,18,-10,-27,167,467,405,167,14,-164,155,-323,-60,-5,-165,-7,164,-264,-109,-60,-246,-155,1,251,177,174,145,-85,60,-153,-212,-16
127062,-25,31,-10,-7,188,475,404,175,10,-182,142,-371,-82,-4,-199,14,95,-291,-112,-78,-283,-182,-60,232,152,142,67,-93,51,-152,-216,-100
127063,-1,35,34,11,196,468,385,190,23,-184,140,-396,-81,-7,-214,-35,130,-297,-129,-91,-369,-294,-80,238,160,103,-113,-44,71,-155,-250,-41
127064,-43,-7,-4,-17,177,439,336,153,22,-191,137,-400,-92,-23,-227,-111,151,-298,-158,-98,-419,-377,-72,205,133,78,-138,-108,22,-195,-248,12
127065,-29,-9,-12,-21,179,443,337,122,-8,-195,151,-427,-120,-37,-235,-51,100,-323,-190,-116,-396,-122,-147,161,103,65,-179,-303,-82,-237,-262,67
127066,-28,1,8,-5,184,452,334,126,-10,-192,117,-424,-103,-38,-253,-11,93,-321,-168,-130,-406,-37,-141,180,101,58,-162,-289,-71,-230,-263,21
127067,-35,8,-12,0,199,460,325,110,0,-180,92,-422,-96,-36,-271,-66,69,-302,-167,-136,-485,-219,-135,189,106,45,-154,-243,-58,-226,-258,-33
127068,-68,-32,-70,-9,179,460,273,92,-4,-171,99,-382,-100,-25,-268,-106,10,-313,-168,-131,-487,-275,-144,190,101,44,-135,-200,-37,-213,-288,-33
127069,-96,-68,-99,-47,150,440,260,80,-8,-173,83,-449,-102,-27,-275,-195,-35,-323,-169,-133,-480,-298,-152,173,100,51,-77,-210,-64,-227,-319,-23
127070,-119,-64,-83,-70,130,433,270,76,-24,-180,53,-497,-110,-28,-291,-304,-28,-322,-172,-126,-480,-318,-142,169,91,69,-29,-224,-74,-237,-296,24
127071,-84,-34,-74,-66,148,437,309,108,-12,-175,89,-496,-86,-18,-251,-344,-5,-286,-170,-113,-425,-193,-129,179,102,84,-1,-274,-62,-229,-250,44
127072,-88,-3,-79,-62,154,404,293,112,1,-173,88,-474,-82,-17,-223,-474,14,-284,-146,-99,-377,-100,-139,200,120,118,74,-266,-10,-189,-210,2
127073,-127,0,-61,-97,130,384,265,95,-3,-188,88,-433,-90,-26,-217,-547,-23,-316,-128,-82,-367,-225,-120,212,118,124,-13,-187,4,-177,-214,19
127074,-110,8,1,-81,124,363,247,118,-13,-171,79,-391,-66,-24,-230,-533,-211,-320,-131,-92,-367,-370,-103,215,125,104,-125,-122,32,-177,-240,-20
