,Fp1,Fp2,F7,F3,Fz,F4,F8,FC5,FC1,FC2,FC6,T7,C3,Cz,C4,T8,TP9,CP5,CP1,CP2,CP6,TP10,P7,P3,Pz,P4,P8,PO9,O1,Oz,O2,PO10
37997,415,643,731,344,-12,667,247,341,158,146,465,387,374,-23,314,277,-27,41,2,-77,-1,325,-33,143,202,147,301,139,239,174,95,27
37998,470,582,747,349,-13,746,137,373,163,171,536,450,382,-34,311,297,64,74,3,-95,-20,331,42,161,199,140,254,150,265,173,82,37
37999,377,391,601,350,-12,833,133,415,170,197,537,289,382,-22,325,339,133,46,-26,-79,-19,378,70,160,206,140,268,195,290,198,99,90
38000,376,441,403,368,6,762,187,532,176,166,496,186,396,-32,309,324,191,66,-16,-91,-48,344,104,153,182,126,237,150,286,195,89,63
38001,413,639,548,412,0,653,283,544,180,132,313,179,385,-54,273,313,126,57,-10,-106,-61,412,93,121,180,123,290,-2,200,114,28,5
38002,457,646,691,383,-2,618,409,432,173,136,325,196,381,-41,278,251,89,57,10,-85,-59,406,121,150,215,138,232,10,251,169,93,187
38003,465,736,715,380,9,560,456,416,192,151,366,268,407,-18,317,293,175,94,28,-62,-28,344,157,206,256,163,202,89,327,239,148,135
38004,463,720,766,377,-4,511,428,433,175,129,338,369,419,-8,316,351,186,115,56,-31,7,333,161,239,278,217,306,141,360,276,186,128
38005,513,673,785,356,-17,501,414,445,168,121,307,426,434,0,335,419,154,139,73,-20,39,307,179,266,286,236,309,246,363,289,183,275
38006,488,629,731,336,-10,549,402,495,184,135,359,434,436,15,363,445,180,165,85,1,66,458,213,285,323,248,286,270,407,318,220,329
38007,347,584,725,352,-3,582,408,421,195,128,444,243,426,31,379,431,237,138,86,15,83,527,212,277,353,279,322,187,425,362,264,357
38008,419,540,765,340,-12,611,403,394,184,151,407,195,425,27,376,425,293,127,92,27,84,463,225,274,355,294,342,213,423,372,293,313
38009,458,424,725,330,-11,654,320,427,174,154,416,297,435,35,373,487,297,149,96,29,103,457,241,281,357,287,346,248,422,361,282,251
38010,431,505,641,373,-12,605,306,455,176,142,434,241,431,25,382,468,245,159,92,28,108,377,248,301,331,277,347,235,432,357,273,221
38011,442,626,734,421,12,581,374,508,215,158,444,338,463,42,405,463,262,213,132,44,135,474,291,338,359,313,436,202,481,395,324,277
38012,412,584,761,411,5,620,362,470,215,144,457,382,466,11,386,445,300,227,114,45,133,554,352,327,367,327,467,174,492,402,329,295
38013,384,492,705,376,-9,676,254,427,179,160,462,355,469,21,407,429,258,237,108,58,135,547,440,350,376,324,475,201,524,409,331,344
38014,413,444,691,321,-21,678,179,396,158,168,496,352,457,20,388,398,272,253,116,48,94,476,427,374,386,312,415,170,534,438,343,255
38015,446,487,700,317,1,630,242,394,177,185,486,351,467,23,404,416,295,209,123,66,110,491,345,360,400,340,421,203,524,440,356,245
38016,439,558,696,339,-11,630,291,404,182,165,457,374,461,13,409,452,308,196,112,59,136,537,297,359,390,332,413,292,531,459,354,340
38017,449,587,701,372,-22,578,309,457,189,158,425,417,469,-1,392,393,278,194,119,42,126,504,272,362,401,330,387,362,543,464,375,360
38018,457,608,688,346,-30,568,287,511,196,151,416,467,481,7,383,352,277,227,122,31,108,523,249,368,411,341,397,418,550,481,406,366
38019,424,648,552,325,-35,542,326,590,186,137,392,447,486,11,385,375,337,235,119,28,125,496,278,382,406,334,386,423,557,481,411,344
38020,421,669,523,394,-14,537,390,599,202,143,415,409,495,1,384,459,307,241,130,40,157,478,291,377,396,340,411,363,567,497,403,338
38021,463,696,642,355,9,536,304,521,187,149,453,443,481,3,373,429,339,258,132,47,136,418,313,390,407,343,420,324,562,499,399,293
38022,424,672,717,331,-18,586,198,481,179,157,496,475,491,16,379,424,431,290,122,43,122,362,351,405,404,336,451,270,577,492,395,232
38023,315,571,589,369,-30,596,204,584,188,151,468,459,503,7,383,479,385,298,144,46,143,407,388,419,407,342,478,257,600,510,412,333
38024,191,370,468,392,-53,728,254,662,198,150,398,490,525,1,360,422,363,300,138,33,92,393,451,427,412,309,382,333,630,497,399,251
38025,159,241,615,388,-48,829,272,586,196,167,401,554,512,17,364,347,369,318,156,43,102,501,540,454,414,326,419,374,688,530,432,270
38026,217,330,820,375,-27,760,341,503,180,168,419,670,518,19,394,410,353,377,182,70,132,564,575,483,464,364,472,398,689,557,461,242
38027,329,508,893,384,-23,623,440,501,186,142,412,691,514,25,398,473,305,365,185,67,137,617,441,456,463,372,511,317,586,491,395,271
38028,354,522,799,361,-41,555,446,525,184,136,374,603,517,30,371,423,375,354,186,60,119,561,431,460,453,347,448,357,612,486,386,326
38029,384,452,799,394,-30,523,383,580,206,146,448,540,548,30,395,421,535,349,203,78,133,599,474,480,461,378,489,447,688,555,461,435
38030,435,370,852,327,-36,589,407,428,168,174,501,401,486,26,427,465,400,282,182,97,162,634,369,444,461,397,520,431,653,585,479,479
38031,446,371,846,230,-22,639,412,320,134,184,483,418,466,30,440,445,324,267,160,108,168,603,305,424,474,412,529,443,637,589,495,517
38032,383,361,844,281,-21,683,339,370,142,185,535,417,468,9,457,423,344,249,144,90,160,536,295,400,438,409,531,438,606,576,473,510
38033,365,384,824,308,-9,754,333,343,136,207,563,321,429,0,473,433,305,196,126,55,164,548,270,367,414,392,513,389,554,514,422,478
38034,393,530,810,329,7,646,402,400,135,174,411,337,450,27,405,397,318,203,136,66,128,597,280,393,425,372,511,422,569,512,416,489
38035,347,526,801,353,12,616,432,449,165,172,347,401,499,33,383,454,380,254,152,65,119,602,315,394,419,367,512,505,602,513,413,409
38036,331,618,778,351,1,594,398,482,177,172,388,414,488,26,389,447,390,278,138,41,100,553,313,388,398,349,478,556,596,503,419,365
38037,354,691,768,379,-4,592,417,549,177,166,360,372,490,5,369,408,290,244,125,30,97,531,234,357,386,329,467,466,557,473,382,434
38038,377,653,709,411,-16,585,464,621,188,172,372,413,490,8,372,458,314,223,127,34,113,575,198,345,364,319,510,313,508,435,355,462
38039,384,651,686,406,-39,557,385,621,185,167,401,532,489,10,373,428,335,230,115,22,84,623,215,322,362,308,527,205,463,374,315,468
38040,335,622,692,380,-38,553,382,525,174,158,380,417,468,7,350,398,329,228,122,0,38,480,302,347,354,266,420,159,462,346,244,285
38041,348,559,697,389,-33,549,358,564,184,155,375,377,484,11,374,472,392,270,147,17,87,449,416,390,384,308,439,285,532,423,320,386
38042,329,421,457,394,-28,606,351,631,207,157,376,406,504,20,357,465,351,271,145,22,86,483,362,374,385,333,495,292,524,434,327,446
38043,241,333,387,408,-40,598,306,629,206,127,371,491,511,1,335,398,290,287,137,5,55,435,321,356,351,270,472,275,489,378,276,319
38044,235,402,620,412,-40,551,236,620,225,137,377,572,527,18,343,406,308,320,157,18,46,394,335,380,344,260,449,407,527,398,298,213
38045,339,430,697,362,-32,602,161,618,214,156,436,557,536,15,335,362,360,312,166,28,58,514,368,395,367,277,419,435,531,431,342,313
38046,427,535,724,365,-44,595,188,600,189,163,464,515,522,-7,346,381,400,312,159,38,45,502,381,374,378,283,383,427,546,426,325,345
38047,462,515,781,378,-27,562,255,590,201,145,430,535,510,17,365,446,364,328,163,29,43,405,403,408,359,277,374,474,584,419,317,220
38048,454,442,833,345,-39,695,213,457,176,186,501,536,475,20,396,497,390,312,145,30,75,499,389,413,370,291,441,470,570,435,327,290
38049,436,419,855,292,-47,699,213,371,166,190,497,453,464,16,371,437,446,292,134,24,77,554,383,395,360,295,425,431,553,419,340,371
38050,402,374,828,257,-34,711,274,330,136,170,444,347,425,-3,346,393,398,240,112,6,28,499,331,342,327,230,339,367,491,362,269,292
38051,343,424,798,299,-11,639,307,365,151,146,370,332,437,-9,324,404,363,245,110,-1,16,540,309,344,350,238,362,395,506,373,269,307
38052,316,454,738,333,-26,583,324,402,182,154,311,389,467,2,317,409,322,237,119,-4,34,590,315,340,342,243,394,446,509,396,285,357
38053,330,503,656,341,-35,555,356,412,158,121,349,358,429,-6,302,354,262,188,97,-27,0,515,244,302,320,214,395,319,449,345,238,318
38054,376,533,650,395,-12,530,384,419,155,120,330,390,431,-1,320,386,275,200,101,-10,38,594,248,311,326,268,469,372,474,367,276,411
38055,355,483,679,354,-13,520,318,438,151,140,341,394,434,-1,339,385,305,216,103,-3,53,609,276,316,333,288,489,425,513,408,320,471
38056,271,498,710,331,-10,602,287,444,155,153,426,383,429,-24,342,323,288,195,77,-2,21,549,206,296,325,246,386,315,442,343,250,363
38057,263,368,681,331,-25,723,255,459,147,182,491,448,431,-10,363,332,312,203,76,-3,21,510,229,303,303,227,352,311,463,348,234,320
38058,268,245,538,320,-38,689,270,527,154,168,532,345,431,-9,344,285,165,176,60,-16,-2,452,229,292,282,214,334,200,447,336,241,341
38059,307,361,615,372,-22,664,284,565,164,167,448,406,433,-17,322,328,200,177,62,-25,-10,425,266,290,276,194,293,170,389,252,161,139
38060,362,442,698,380,-2,611,289,462,158,148,351,274,425,0,344,412,294,181,90,-2,63,418,298,285,308,229,449,194,407,262,166,53
38061,312,455,627,354,-20,596,282,436,163,126,371,272,433,-11,334,435,259,180,81,3,70,473,254,303,321,253,468,155,420,272,184,146
38062,267,463,650,413,-7,592,299,580,168,144,378,380,460,12,345,489,254,192,95,-3,59,469,217,305,323,257,353,181,435,313,217,222
38063,341,452,691,436,14,608,337,615,178,142,395,428,484,5,376,499,258,225,107,7,89,489,254,326,347,280,412,208,445,341,254,254
38064,313,466,576,409,15,588,304,546,157,157,403,424,457,-21,355,478,301,225,100,16,73,430,323,339,358,279,449,242,472,347,263,240
38065,208,541,552,458,-6,590,336,620,177,144,400,452,472,-34,333,475,294,227,99,7,85,389,311,314,334,279,475,215,463,346,249,208
38066,306,534,546,423,-3,661,315,642,169,152,405,398,459,-15,342,446,349,251,98,4,95,535,331,326,349,293,532,276,486,354,256,262
38067,421,559,600,398,5,707,338,553,140,152,462,342,427,-12,369,407,355,236,101,28,90,554,371,345,358,290,511,247,482,353,263,192
38068,491,589,726,344,-5,666,367,461,126,167,464,378,422,-24,383,405,400,251,111,49,96,601,386,363,363,303,489,244,497,390,284,209
38069,534,569,878,308,-6,606,368,423,142,164,468,450,454,-14,381,423,422,287,122,44,92,602,444,378,379,309,401,272,535,429,335,388
38070,552,527,888,304,-8,619,390,365,138,173,462,365,422,-4,386,383,392,246,115,40,91,619,441,377,400,320,373,290,540,417,342,429
38071,509,533,844,316,7,633,415,356,132,179,480,305,413,0,420,433,293,217,128,72,122,608,385,370,410,348,401,392,550,437,353,423
38072,504,574,775,305,14,645,406,334,139,188,567,309,402,8,444,478,228,202,108,67,169,612,324,339,420,350,433,358,518,434,351,424
38073,483,527,768,337,13,647,276,337,134,182,491,288,392,5,425,374,257,176,106,66,122,591,245,338,414,363,412,424,543,463,388,397
38074,447,488,738,337,22,688,223,372,141,202,528,270,412,16,470,469,280,169,102,82,163,628,191,338,414,393,502,406,540,466,384,195
38075,419,438,710,329,0,748,342,387,148,213,606,302,435,15,494,522,295,189,123,104,233,654,216,353,425,400,614,379,546,447,358,265
38076,430,437,712,348,-2,720,465,410,147,191,498,351,446,17,454,526,291,206,128,106,203,663,208,347,432,393,598,292,500,413,322,404
38077,396,501,608,355,-7,621,453,489,156,175,431,415,461,24,427,532,273,229,131,105,165,548,262,359,448,384,494,308,543,448,362,404
38078,388,530,600,352,-12,614,489,478,165,180,438,492,449,40,441,610,177,233,136,122,204,456,285,372,445,390,453,379,547,456,355,395
38079,401,564,717,322,-5,625,466,415,159,195,487,508,442,40,466,600,244,230,155,140,219,527,293,387,447,417,467,336,530,467,384,454
38080,307,562,716,297,-14,638,378,424,146,170,407,378,439,31,415,447,258,215,149,94,165,396,252,378,451,397,418,381,549,486,401,419
38081,138,449,507,367,-21,714,329,633,184,165,393,173,453,43,419,458,141,157,111,67,140,448,179,340,425,373,384,374,528,464,375,351
38082,195,322,384,401,-18,752,295,749,193,184,500,361,470,18,425,472,128,128,99,60,133,496,153,296,399,334,372,193,435,374,283,361
38083,303,313,412,387,2,716,318,622,182,183,585,412,444,4,438,436,154,166,97,48,120,487,188,293,397,339,365,180,440,376,290,404
38084,324,379,504,335,-42,625,306,406,181,145,395,250,428,7,382,446,278,165,97,45,121,633,258,354,412,357,467,287,523,474,389,479
38085,314,388,584,370,-49,616,266,365,173,162,425,185,415,24,404,466,304,147,117,85,151,644,251,348,419,375,489,293,541,487,404,399
38086,329,431,699,320,-29,666,321,309,145,158,503,183,393,17,430,468,241,122,95,96,174,640,202,322,413,383,515,245,513,450,370,322
38087,360,486,799,294,-12,621,312,286,142,150,469,238,388,9,428,500,185,141,96,96,182,674,181,325,433,381,550,255,513,495,402,413
38088,326,455,716,300,-28,609,291,324,157,143,410,257,419,17,418,487,186,168,110,99,180,677,227,353,468,399,520,328,585,564,473,527
38089,298,432,752,320,-19,658,324,381,181,161,393,314,459,37,422,479,232,197,149,108,180,726,299,378,496,433,534,412,613,585,500,578
38090,332,420,791,301,-34,649,299,349,158,143,405,310,433,28,407,421,272,200,153,85,148,614,350,386,465,410,529,544,659,596,489,476
38091,360,407,765,251,-37,580,348,297,145,145,456,275,430,17,411,472,267,169,160,66,167,598,282,371,452,396,559,339,609,559,472,487
38092,323,389,763,234,-11,549,326,312,160,158,456,315,428,35,410,522,239,170,147,96,180,671,267,370,433,387,563,222,572,528,459,509
38093,278,466,691,293,-19,510,303,315,162,132,401,341,426,25,381,451,250,168,151,86,156,645,256,364,446,351,490,272,554,490,420,410
38094,236,472,620,292,-33,541,268,351,159,160,398,441,447,29,383,426,199,191,146,63,135,580,263,364,449,331,458,323,551,479,407,391
38095,257,500,612,303,-27,535,228,404,178,162,433,535,461,37,393,459,210,213,165,80,127,571,293,367,448,358,464,397,594,516,421,417
38096,174,478,494,316,-63,518,190,393,161,144,464,393,450,21,390,450,199,161,128,72,128,500,239,357,430,343,421,337,552,483,383,380
38097,62,427,252,267,-60,556,239,497,182,140,443,180,453,36,402,451,239,131,144,80,138,530,219,344,427,338,464,297,548,455,374,264
38098,-32,361,311,295,-55,568,249,532,195,136,393,147,465,59,399,476,237,152,161,96,167,589,241,353,454,376,561,297,531,442,355,304
38099,59,366,516,352,-72,563,274,503,182,99,307,261,458,38,360,429,173,181,145,64,96,555,245,356,434,319,451,309,508,395,323,324
38100,150,415,476,362,-68,562,292,503,185,119,364,131,436,34,379,492,253,158,137,53,108,480,246,336,414,305,403,237,484,370,281,339
38101,259,376,528,349,-66,580,301,437,162,115,373,125,407,26,382,494,208,134,98,41,109,474,202,333,408,316,392,204,489,409,296,341
38102,337,385,693,332,-58,563,334,314,153,124,340,280,427,11,369,423,230,175,110,27,98,447,258,353,390,289,400,231,522,391,275,7
38103,419,413,733,288,-53,538,351,274,154,126,356,248,425,21,376,427,320,190,148,49,143,464,334,389,396,317,563,185,543,360,282,-233
38104,436,378,702,255,-62,498,312,289,149,108,343,285,423,4,388,460,349,199,141,33,130,506,357,372,405,309,501,173,521,375,304,243
38105,350,317,571,254,-60,570,294,394,168,111,349,318,448,7,367,427,321,217,140,37,90,508,333,368,388,281,379,155,516,385,297,424
38106,318,353,469,282,-64,561,286,572,179,127,335,388,493,29,363,427,252,231,147,17,72,484,360,361,370,260,343,162,514,365,281,364
38107,274,344,491,329,-74,538,250,650,213,128,357,377,507,20,363,421,181,228,156,31,60,503,378,368,370,268,343,257,520,365,292,363
38108,216,261,539,327,-97,589,168,521,192,125,462,366,469,17,380,384,164,216,140,45,66,539,321,374,366,283,393,315,545,434,350,427
38109,203,186,652,327,-67,667,122,390,158,151,542,345,443,14,404,342,213,196,141,30,71,537,325,364,375,282,351,289,531,405,300,330
38110,231,160,706,282,-56,719,239,333,157,162,519,267,413,5,403,371,236,161,105,17,86,541,288,337,362,270,357,253,509,373,285,302
38111,196,258,726,273,-50,692,243,306,144,171,534,268,395,-6,403,433,264,152,82,17,95,509,264,313,361,291,388,302,519,389,303,320
38112,274,491,798,304,-10,628,286,312,142,179,527,335,428,31,419,514,322,192,108,49,140,523,308,339,379,324,415,372,559,434,325,360
38113,286,549,868,293,-24,576,336,354,148,154,404,448,437,33,373,470,306,234,118,45,108,553,343,382,412,307,406,414,599,478,390,414
38114,241,580,855,264,-57,494,396,319,126,131,350,460,422,22,391,489,301,222,126,62,148,636,321,384,404,343,460,420,606,505,416,443
38115,346,593,810,265,-52,486,457,371,132,139,364,403,442,31,421,565,288,218,145,67,179,713,293,387,416,374,502,457,611,502,411,431
38116,292,575,749,295,-45,601,485,407,159,161,426,382,462,34,428,563,349,236,145,80,187,695,331,417,433,375,544,473,611,501,402,381
38117,290,501,712,312,-39,609,514,431,170,165,450,294,432,49,438,616,328,183,135,85,226,674,289,373,433,384,594,382,569,484,392,447
38118,306,407,685,317,-29,505,435,477,148,122,396,286,448,23,407,621,280,167,125,73,182,661,273,370,413,365,535,395,573,491,393,447
38119,246,337,609,305,-46,540,388,457,164,109,380,278,446,24,390,442,311,190,143,55,120,540,284,384,418,339,402,458,598,479,385,323
38120,227,263,584,312,-42,597,389,404,163,144,394,335,476,53,410,458,415,230,182,78,136,569,356,426,446,357,428,466,650,547,469,423
38121,226,277,613,306,-55,613,262,406,165,152,424,339,467,37,414,514,403,254,178,92,147,603,407,460,457,366,489,510,676,572,482,448
38122,273,364,604,279,-28,623,214,404,158,148,483,298,457,34,430,569,311,224,176,92,171,590,390,463,453,380,547,508,681,564,463,349
38123,252,337,481,297,-23,635,224,454,145,171,561,280,458,36,452,554,231,201,163,105,203,658,337,420,436,378,631,349,632,527,446,335
38124,192,319,491,346,-27,612,293,533,186,156,488,298,484,26,419,504,249,196,155,69,163,612,329,402,407,345,551,258,584,499,403,335
38125,201,371,578,342,-60,617,349,450,163,139,370,396,445,-7,376,458,266,200,139,46,106,594,321,393,388,316,437,367,573,496,413,425
38126,305,409,613,343,-37,626,361,447,171,155,439,496,471,25,416,523,253,256,160,65,172,649,372,431,423,350,455,460,644,569,494,530
38127,237,399,571,346,-44,643,330,475,174,152,491,397,491,27,447,581,391,258,162,58,183,587,411,444,432,363,476,509,697,600,524,519
38128,247,410,570,335,-47,620,367,461,147,156,479,181,488,26,448,595,391,231,161,87,201,623,401,453,435,385,524,609,704,605,523,562
38129,302,324,618,327,-57,658,336,517,146,164,496,363,482,28,447,545,361,254,158,74,186,682,365,434,444,372,522,507,628,527,432,502
38130,303,405,603,333,-35,649,348,609,156,189,537,419,510,48,471,576,348,283,186,88,210,662,398,444,473,400,529,513,644,560,482,514
38131,278,496,625,326,-24,607,393,638,155,185,528,408,488,42,455,550,321,267,166,87,195,698,366,438,449,387,529,521,635,536,457,487
38132,256,506,682,309,-46,550,423,487,144,138,444,335,457,24,424,496,300,224,131,78,145,598,337,401,411,338,442,522,605,496,402,365
38133,279,453,753,346,-43,578,410,366,151,152,455,352,443,28,438,481,314,223,130,84,147,627,320,408,434,350,484,532,625,501,413,433
38134,276,454,754,318,-33,614,392,369,146,172,450,356,424,35,429,490,356,197,130,72,139,620,263,381,428,349,513,491,609,509,407,422
38135,319,479,739,248,-43,564,370,323,117,165,423,380,415,15,418,512,371,188,115,76,146,606,278,367,420,346,509,525,630,518,403,367
38136,373,373,743,250,-35,564,314,356,126,160,465,485,448,32,441,519,344,221,135,76,146,675,324,397,429,359,493,548,671,534,436,463
38137,316,297,736,282,-52,678,282,406,133,159,480,555,469,22,437,535,352,255,150,57,129,645,357,414,435,368,493,526,662,529,430,391
38138,280,349,749,213,-53,729,313,389,113,156,476,479,441,-1,433,597,457,229,133,76,161,643,344,398,410,370,561,443,603,495,404,356
38139,235,421,725,289,-40,674,396,408,122,159,479,456,457,23,443,616,348,221,165,109,185,663,313,397,438,394,588,461,618,518,425,442
38140,267,456,701,348,-15,615,424,461,167,147,485,528,491,52,440,591,332,256,159,90,173,596,377,417,433,384,525,460,619,505,408,384
38141,254,489,666,334,-34,572,411,429,151,142,475,398,462,13,420,591,502,234,149,82,160,522,422,416,415,365,543,403,617,497,403,344
38142,150,467,536,292,-47,582,330,380,121,127,497,244,429,-4,427,560,442,196,115,49,156,543,410,380,387,357,558,323,582,474,380,251
38143,100,449,497,321,-42,579,325,409,138,143,478,229,437,29,436,580,463,234,135,62,163,585,498,424,406,372,542,337,632,494,407,332
38144,181,460,551,320,-54,567,370,422,142,151,479,297,459,32,435,554,450,264,171,83,158,588,559,460,433,366,476,396,684,516,439,468
38145,208,400,570,315,-53,592,438,438,135,152,445,313,469,26,440,538,433,283,189,90,172,585,528,465,459,380,480,437,702,547,469,488
38146,243,449,531,301,-53,571,433,388,136,151,404,354,481,33,451,591,421,291,195,97,204,594,558,485,466,422,546,392,702,589,500,536
