,Fp1,Fp2,F7,F3,Fz,F4,F8,FC5,FC1,FC2,FC6,T7,C3,Cz,C4,T8,TP9,CP5,CP1,CP2,CP6,TP10,P7,P3,Pz,P4,P8,PO9,O1,Oz,O2,PO10
60802,593,496,418,104,-42,404,136,360,3,36,-87,-55,357,-86,-43,-283,-230,-57,-1,5,-220,-33,-1,116,-131,16,82,-104,88,-104,-260,-347
60803,594,537,399,81,-49,401,160,351,-4,51,-95,-43,358,-88,-35,-261,-191,-38,8,11,-216,-72,-35,137,-129,42,85,-33,101,-98,-264,-485
60804,572,575,390,74,-51,411,167,335,4,45,-65,-23,382,-64,-11,-217,-310,-15,51,46,-165,-39,-40,178,-68,72,156,15,135,-31,-190,-343
60805,551,616,379,75,-48,439,156,333,4,48,-18,-8,347,-80,-2,-158,-354,-30,41,61,-138,-19,-37,164,-49,92,199,-26,134,-24,-168,-283
60806,535,601,333,63,-42,430,149,318,1,47,-43,18,362,-61,-6,-108,-302,-37,48,87,-117,181,-35,177,-40,129,245,-5,148,23,-83,-138
60807,507,588,282,42,-45,396,123,312,-5,20,-41,-18,355,-73,-23,-139,-319,-42,16,38,-172,83,-61,150,-80,89,200,-104,86,5,-112,-142
60808,480,538,241,-4,-52,403,75,213,-57,14,-5,-213,304,-94,-34,-118,-402,-99,-34,17,-184,35,-102,111,-119,49,156,-98,38,-60,-173,-255
60809,476,443,273,1,-48,394,95,233,-57,20,-8,-152,298,-103,-27,-91,-452,-76,-30,11,-166,62,17,137,-133,32,145,-101,50,-57,-167,-213
60810,481,441,312,37,-30,371,51,275,-31,28,-16,-101,305,-89,-9,-164,-509,-94,-30,0,-193,-6,-31,78,-149,19,107,-162,1,-82,-179,-208
60811,470,489,278,2,-54,375,70,248,-21,53,9,-186,294,-81,22,-112,-547,-164,-22,26,-168,51,-208,39,-173,33,166,-85,-13,-104,-212,-235
60812,436,513,237,20,-49,395,169,195,-16,65,13,-275,293,-75,20,-112,-403,-151,-29,43,-105,116,-155,71,-159,81,311,-85,-9,-110,-258,-262
60813,450,493,227,40,-51,424,204,183,1,64,9,-308,303,-57,25,-155,-311,-137,-13,50,-126,20,-75,91,-142,78,267,-6,35,-79,-233,-380
60814,448,498,263,32,-45,447,266,163,4,78,48,-290,286,-61,41,-107,-358,-143,1,45,-104,3,-125,73,-116,78,173,-22,51,-66,-166,-235
60815,473,477,302,43,-48,438,205,191,-7,60,5,-293,282,-89,12,-141,-343,-152,1,37,-136,7,-126,96,-141,53,114,-33,40,-36,-138,-100
60816,411,501,259,19,-41,386,139,182,-31,33,-33,-302,285,-107,0,-189,-336,-157,-19,23,-177,-38,-102,104,-146,41,87,7,64,-37,-131,-156
60817,348,518,237,-1,-40,391,100,148,-41,18,-50,-303,272,-107,-40,-206,-349,-138,-30,12,-197,-33,-79,112,-134,13,53,34,96,-79,-253,-326
60818,344,541,232,23,-44,352,83,162,-44,0,-102,-302,268,-133,-78,-257,-403,-146,-38,-27,-224,4,-107,115,-153,3,0,-24,69,-113,-310,-372
60819,364,510,234,0,-54,375,116,192,-42,-9,-57,-278,259,-140,-71,-272,-413,-155,-40,-36,-233,-66,-134,98,-149,8,-14,-169,-10,-171,-318,-376
60820,410,481,278,23,-36,411,126,228,-24,8,-50,-208,295,-87,-51,-240,-381,-89,10,11,-190,-16,-72,151,-101,68,96,-179,47,-77,-173,-269
60821,417,506,273,33,-52,412,119,266,-19,16,-58,-173,322,-94,-72,-204,-361,-120,5,24,-164,-1,-160,114,-109,91,155,-254,-28,-78,-98,-104
60822,482,527,320,30,-46,433,180,266,-21,11,-45,-115,328,-117,-54,-118,-318,-118,-3,12,-160,8,-154,105,-118,63,147,-255,-59,-143,-226,-223
60823,509,529,380,72,-30,420,195,270,-19,24,-51,-88,329,-107,-50,-85,-248,-81,-3,19,-151,94,-64,132,-99,50,146,-127,-26,-177,-332,-318
60824,518,574,404,108,-48,417,211,316,0,15,-53,-63,337,-97,-64,-89,-220,-64,0,-18,-166,61,-22,150,-99,73,156,-95,30,-103,-235,-274
60825,499,550,382,117,-57,411,205,353,9,28,-54,-66,341,-97,-67,-24,-175,-45,-5,-1,-162,40,22,175,-76,107,185,-32,94,-23,-167,-241
60826,483,475,347,78,-44,401,172,321,0,34,-23,-66,345,-102,-75,-56,-185,-24,-9,42,-133,80,52,207,-44,137,249,80,161,83,-63,-132
60827,513,450,350,48,-39,382,123,330,-16,16,-20,-33,343,-113,-81,-176,-205,-20,4,40,-113,141,71,222,-34,180,330,80,183,160,43,-23
60828,519,447,350,64,-39,372,112,338,-22,0,-42,-2,359,-128,-81,-194,-168,-8,4,48,-118,195,66,231,-11,191,324,63,188,165,56,-13
60829,548,522,362,82,-58,378,164,375,-22,-5,-46,41,371,-125,-75,-160,-190,25,32,44,-109,263,61,251,10,207,346,26,196,205,116,93
60830,515,501,396,91,-54,369,171,412,1,3,-19,93,410,-99,-55,-148,-184,99,88,65,-105,219,156,306,63,237,357,136,306,260,131,-6
60831,514,470,420,82,-46,405,182,430,32,25,38,106,455,-78,-10,-66,-83,145,134,115,-42,221,253,387,108,288,403,312,408,298,79,-105
60832,494,464,450,75,-29,434,217,468,47,52,93,161,490,-35,45,-3,-90,147,158,175,25,233,258,424,161,370,542,292,423,337,137,-88
60833,473,484,446,72,-56,427,225,475,40,64,89,135,471,-32,48,3,-88,130,153,181,40,166,197,377,183,403,570,86,345,335,156,-191
60834,509,522,521,101,-50,443,263,507,51,76,60,195,483,-12,65,52,-52,152,167,219,77,228,222,383,207,427,544,35,381,402,244,-39
60835,576,588,529,120,-24,465,285,505,68,101,81,143,503,2,90,90,7,173,186,245,80,216,262,432,256,434,489,118,442,463,319,75
60836,545,619,490,101,-24,417,290,469,66,91,38,175,495,-13,76,118,-46,163,176,242,73,202,246,414,254,440,464,177,463,481,338,70
60837,506,528,468,60,-55,398,231,456,49,55,-21,164,478,-40,32,28,-168,128,151,216,68,139,181,391,223,440,469,186,470,498,357,107
60838,516,458,466,69,-46,370,179,447,47,58,-15,110,477,-19,21,-93,-74,135,168,229,49,174,234,413,250,449,471,204,488,552,425,173
60839,510,450,436,52,-39,350,158,400,13,41,-33,66,447,-29,0,-91,-137,107,149,216,24,108,198,383,221,408,439,183,429,459,329,33
60840,543,490,446,45,-36,345,167,418,15,44,-32,102,439,-33,5,-90,-135,110,147,206,23,133,233,389,185,405,428,183,420,424,284,-4
60841,531,496,492,83,-56,345,133,459,16,29,-45,137,448,-47,15,-126,-72,136,138,195,3,165,309,394,191,394,432,138,438,469,355,108
60842,574,549,513,105,-30,353,138,503,34,45,-4,172,474,-3,38,-109,-42,175,164,232,20,212,284,409,191,397,436,236,502,490,320,123
60843,591,565,534,119,-37,383,170,536,54,70,18,208,489,-8,34,-98,-34,156,161,200,4,229,238,395,183,366,394,304,499,408,184,-37
60844,558,586,523,116,-49,364,180,522,36,62,-1,167,465,-12,32,-72,-56,125,142,200,0,213,167,345,166,337,427,199,430,384,178,-32
60845,561,554,523,107,-59,353,180,489,21,50,5,161,449,-23,31,-47,-76,111,125,197,9,256,178,322,135,323,454,183,423,371,169,-38
60846,597,533,563,109,-41,354,103,523,39,65,36,201,458,-24,52,-8,-165,129,119,178,30,258,206,318,126,319,443,229,410,371,221,60
60847,551,537,536,89,-51,347,18,504,6,27,47,148,433,-62,33,33,-205,65,91,157,-11,175,127,285,65,281,371,107,351,282,168,29
60848,587,488,533,110,-26,379,41,499,7,26,53,131,421,-63,30,19,-160,69,94,149,-19,133,142,286,42,261,371,115,329,268,149,15
60849,558,432,507,97,-29,376,43,487,8,28,-14,118,421,-56,16,-31,-125,54,79,125,-48,50,135,262,25,250,367,101,329,246,138,20
60850,548,392,469,65,-40,390,102,496,16,17,-33,73,411,-47,-1,-99,-153,28,90,119,-72,42,154,271,17,236,323,134,341,235,130,15
60851,551,418,443,50,-44,383,156,473,16,48,10,82,415,-46,23,-94,-174,42,88,122,-62,124,113,242,11,242,357,102,311,203,123,12
60852,524,456,444,54,-44,382,171,433,17,63,8,99,441,-29,34,-22,-169,50,115,145,-39,214,90,271,32,285,451,56,304,242,218,164
60853,498,461,436,43,-53,398,182,377,34,82,1,79,436,-12,48,42,-158,49,121,148,-11,157,110,281,36,289,481,63,318,253,256,198
60854,500,431,437,70,-45,394,159,440,55,93,-29,100,465,5,53,11,-222,71,145,157,-33,22,127,259,40,260,412,69,284,161,81,-61
60855,481,425,439,75,-61,355,132,451,66,97,-74,117,486,29,25,-96,-206,81,146,153,-63,64,153,265,39,234,348,134,289,122,32,-94
60856,491,376,436,44,-66,307,61,420,37,45,-147,67,451,-20,-8,-221,-315,35,98,126,-103,33,87,224,-11,178,280,82,201,38,-81,-242
60857,470,334,405,36,-53,300,8,353,11,34,-147,-20,408,-41,-39,-217,-301,-5,84,116,-136,-44,38,207,-20,163,295,56,202,42,-92,-283
60858,425,335,348,27,-30,274,-13,305,1,28,-179,-79,377,-45,-58,-190,-199,-43,63,97,-133,20,24,179,-34,178,312,38,166,27,-72,-268
60859,425,328,323,8,-39,263,-14,288,-9,16,-185,-86,365,-29,-42,-145,-201,-53,63,103,-84,69,-10,162,-28,180,310,-68,126,20,-81,-177
60860,429,321,312,-9,-50,256,-16,267,-2,19,-155,-91,339,-46,-40,-233,-281,-46,37,78,-118,53,-53,147,-48,142,291,-159,64,-11,-101,-175
60861,420,342,309,-14,-52,298,-6,281,-9,24,-165,-63,327,-53,-28,-257,-335,-29,20,80,-137,99,-18,129,-85,121,242,-159,57,-16,-98,-210
60862,434,378,335,11,-56,335,58,282,4,50,-98,-113,341,-49,-3,-183,-282,-35,17,107,-97,71,20,142,-76,142,220,-148,66,10,-89,-221
60863,427,379,305,10,-64,339,77,265,16,75,-37,-176,311,-11,25,-106,-316,-67,23,103,-51,69,-22,110,-79,164,199,-74,70,-21,-111,-263
60864,347,341,276,-7,-44,348,42,267,-19,84,-32,-178,313,-13,26,-112,-329,-91,18,118,-43,141,-63,96,-63,157,235,-47,67,-27,-118,-225
60865,377,373,270,-25,-36,394,76,222,-11,95,-6,-228,314,-7,63,-139,-348,-99,27,156,-20,123,-32,113,-42,190,294,0,97,41,-79,-161
60866,408,359,217,-42,-62,361,85,209,-6,78,-32,-229,286,-22,35,-121,-446,-157,15,127,-40,41,-80,83,-64,163,284,-82,42,-2,-103,-224
60867,365,329,178,-58,-68,340,84,213,-43,66,-54,-235,285,-30,-17,-187,-430,-156,18,99,-92,31,-155,60,-102,112,225,-254,-59,-74,-157,-271
60868,311,335,160,-86,-53,342,127,175,-46,54,-68,-248,266,-57,-24,-182,-444,-190,-13,94,-87,79,-221,20,-105,95,195,-436,-134,-127,-168,-228
60869,308,358,131,-86,-30,337,107,140,-56,45,-93,-253,264,-66,-12,-178,-440,-202,-30,93,-85,-11,-218,26,-85,105,172,-410,-139,-133,-205,-295
60870,303,334,139,-93,-54,358,58,106,-37,67,-77,-213,270,-60,11,-134,-415,-164,1,115,-68,-122,-155,77,-60,117,189,-337,-84,-80,-179,-307
60871,317,347,135,-80,-51,345,81,156,-47,58,-29,-228,261,-61,14,-95,-502,-183,-1,119,-73,-11,-198,57,-50,109,197,-339,-89,-88,-203,-265
60872,357,368,166,-55,-57,371,142,198,-34,89,13,-230,270,-49,27,-75,-501,-174,-2,125,-85,16,-207,74,-39,105,123,-269,-69,-157,-327,-421
60873,340,347,171,-68,-52,376,143,206,-14,100,43,-266,272,-23,46,-50,-473,-165,22,142,-51,41,-174,105,-5,153,178,-218,-20,-78,-219,-309
60874,339,348,160,-46,-56,381,117,205,-13,106,3,-219,285,-21,49,-114,-466,-144,43,143,-65,35,-139,119,0,146,147,-185,0,-82,-218,-379
60875,308,355,190,-22,-43,365,139,201,18,96,-26,-151,298,-17,52,-133,-486,-106,58,143,-57,89,-110,145,12,148,166,-142,51,-39,-186,-301
60876,268,318,200,-37,-43,335,80,200,-1,61,-59,-189,299,-37,24,-152,-406,-118,42,130,-78,102,-63,150,4,127,175,-65,73,27,-117,-232
60877,271,302,222,-34,-52,295,96,203,-41,53,-76,-219,271,-52,-22,-132,-382,-136,14,103,-113,23,-88,109,-40,73,102,-135,-13,-117,-277,-413
60878,315,327,223,-29,-33,325,129,240,-47,46,-16,-167,270,-67,-17,-90,-339,-132,15,96,-109,52,-87,103,-59,62,112,-177,-39,-181,-388,-492
60879,398,385,265,-28,-26,357,109,241,-47,42,-13,-143,298,-66,-7,-63,-354,-114,18,90,-74,69,-75,120,-35,106,170,-211,1,-119,-267,-410
60880,410,378,283,25,-57,345,119,284,-41,34,-36,-136,312,-83,3,-78,-336,-84,21,101,-61,4,-57,126,-35,117,227,-184,4,-111,-241,-368
60881,461,383,268,34,-47,346,147,324,-10,36,-18,-72,338,-58,10,-56,-367,-73,47,128,-30,52,-23,132,-13,147,279,-113,35,-58,-204,-230
60882,503,425,322,60,-42,361,137,350,20,54,30,-44,373,-52,32,-32,-409,-77,57,128,-10,50,-70,147,-7,173,362,-169,22,-35,-163,-233
60883,510,449,341,56,-53,367,68,353,17,45,28,-55,376,-57,14,-23,-375,-67,57,117,-36,-44,-73,140,-22,173,336,-151,32,-33,-142,-274
60884,456,433,366,73,-39,391,115,379,24,82,49,-30,399,-43,20,85,-318,-26,67,137,-31,-29,-28,159,-3,146,204,-119,80,-18,-171,-299
60885,385,431,352,67,-43,413,164,378,28,87,72,-30,407,-11,27,84,-314,-6,89,160,-63,75,19,189,15,160,163,-47,130,50,-117,-221
60886,318,411,294,35,-55,419,140,351,10,78,85,-29,376,-31,30,-26,-307,-29,79,160,-85,81,-8,181,30,158,153,-77,119,48,-100,-186
60887,340,371,305,20,-52,402,132,321,-11,59,36,-32,371,-32,14,-123,-290,-6,76,168,-70,19,-8,196,52,174,245,-62,137,76,-52,-90
60888,351,361,266,12,-51,370,134,338,-14,43,-14,-35,372,-36,-1,-129,-312,-8,94,143,-77,-20,30,222,32,194,294,-60,154,85,-50,-148
60889,389,396,286,9,-39,393,179,356,-4,60,31,-64,359,-35,17,-25,-292,-17,98,147,-41,100,52,223,35,191,351,-60,178,70,-76,-305
60890,416,391,333,8,-31,404,174,360,0,66,28,-34,380,-18,29,-34,-226,16,111,163,-33,105,96,234,66,196,279,6,202,86,-63,-242
60891,445,390,355,19,-40,391,180,378,2,53,-9,-6,385,-36,6,-98,-228,34,114,153,-76,74,117,227,62,180,182,-51,190,98,-82,-217
60892,456,388,387,37,-61,400,188,377,0,58,0,22,389,-32,-11,-68,-203,26,106,143,-76,124,117,246,66,167,212,-49,206,100,-78,-164
60893,487,431,405,47,-52,414,234,376,12,73,23,35,357,-47,0,-53,-179,10,69,134,-73,116,21,228,50,176,259,43,217,109,-54,-167
60894,489,459,409,71,-37,432,258,382,13,81,-56,16,357,-48,4,-57,-191,6,82,148,-52,146,36,239,51,219,318,47,249,169,36,-71
60895,448,493,439,47,-46,421,231,310,14,62,-12,5,346,-52,0,-42,-296,-1,59,129,-45,253,41,243,46,215,317,11,247,171,90,61
60896,477,503,409,64,-48,402,206,337,0,46,-35,1,332,-88,-38,-115,-308,-26,19,75,-108,251,3,172,-24,124,230,-81,156,56,-81,-148
60897,496,491,375,62,-44,366,174,358,-33,19,-63,3,297,-118,-47,-172,-341,-57,-14,41,-151,113,-44,131,-76,61,173,-121,66,-57,-250,-423
60898,453,441,363,39,-51,364,141,322,-48,9,-46,-19,292,-123,-36,-148,-368,-43,-25,53,-152,117,-40,123,-88,92,180,-120,77,-50,-222,-345
60899,428,407,336,47,-52,375,137,332,-37,10,-32,-54,317,-128,-48,-129,-315,-12,-11,57,-135,121,51,170,-65,114,176,24,166,21,-130,-235
60900,411,379,342,50,-59,363,114,334,-18,9,-38,-108,333,-99,-40,-102,-264,-9,28,93,-115,154,135,217,5,144,186,164,280,99,-68,-191
60901,407,412,345,50,-49,344,113,337,-2,12,2,-20,377,-71,-6,-138,-211,32,83,128,-75,156,147,268,39,181,258,148,315,153,1,-154
60902,478,457,355,74,-36,371,115,382,10,45,7,61,388,-65,-2,-97,-240,48,87,129,-75,81,111,272,35,176,251,45,259,101,-40,-193
60903,523,486,413,104,-41,372,155,396,11,66,20,104,396,-37,7,-4,-271,76,99,161,-31,163,153,288,75,223,341,111,289,162,36,-87
60904,545,506,464,84,-55,412,233,381,-9,76,77,109,376,-60,36,47,-295,60,78,160,-8,190,105,271,31,196,332,-9,187,55,-93,-192
60905,498,517,418,53,-58,399,258,306,-18,68,74,43,344,-66,41,9,-231,51,73,148,-10,199,98,259,29,175,295,-8,182,78,-58,-180
60906,411,517,403,51,-38,393,305,295,-19,76,35,7,354,-57,22,9,-231,28,81,171,2,188,97,253,67,220,324,-20,199,139,47,-94
60907,424,485,370,12,-61,363,250,276,-51,51,15,-21,329,-81,-2,5,-299,6,75,150,2,109,66,225,40,230,357,-76,195,192,132,-9
60908,450,470,362,16,-60,347,225,270,-61,40,7,-63,300,-108,-34,27,-274,-10,30,118,-36,83,56,195,12,194,324,-51,191,208,135,72
60909,512,505,386,40,-35,386,208,271,-61,45,15,-65,294,-118,-22,58,-265,-16,18,94,-57,97,95,188,-1,147,245,96,208,100,-87,-128
60910,510,524,374,29,-41,372,153,275,-58,15,0,-58,295,-124,-47,-4,-241,-47,-4,76,-97,69,81,150,-52,104,192,44,122,-46,-251,-406
60911,480,452,346,22,-41,380,142,294,-46,38,-48,-70,322,-100,-49,-37,-218,-29,40,117,-70,115,89,186,-14,186,307,58,207,122,-10,-124
60912,484,445,341,41,-37,408,185,301,-28,36,-26,-81,336,-81,-19,-7,-267,-29,42,133,-54,156,69,195,2,179,291,82,210,115,-33,-134
60913,505,443,340,50,-37,392,216,293,-19,49,12,0,349,-73,2,8,-237,-46,47,136,-25,191,6,183,4,195,272,-60,118,52,-73,-113
60914,501,491,373,31,-44,387,230,293,-3,52,65,28,361,-78,6,21,-253,-50,55,144,3,161,-24,165,24,211,280,-236,49,42,-45,-179
60915,488,481,365,31,-43,439,246,316,-10,50,59,-31,354,-69,8,67,-256,-28,39,123,-37,134,10,201,5,175,246,-162,78,51,-57,-218
60916,454,462,304,27,-39,406,252,283,-19,52,26,-108,334,-90,-23,35,-262,-35,27,102,-46,106,61,184,-11,157,231,-89,110,21,-94,-232
60917,439,441,275,8,-47,386,219,268,-41,17,-9,-109,315,-128,-59,-120,-289,-47,21,74,-94,-90,57,155,-51,119,167,-43,99,-23,-199,-321
60918,374,412,233,-8,-47,392,160,253,-71,0,-57,-119,299,-142,-93,-236,-395,-80,-12,38,-161,-52,13,105,-102,61,117,-55,75,-101,-288,-362
60919,371,402,247,-18,-41,396,95,197,-84,20,-84,-133,290,-136,-100,-289,-367,-113,-32,50,-173,6,-46,71,-96,75,157,-139,44,-99,-184,-203
60920,389,391,281,-16,-61,400,86,180,-72,26,-35,-151,267,-132,-58,-278,-351,-111,-22,56,-144,66,-65,91,-82,80,157,-205,31,-90,-149,-132
60921,392,404,285,9,-55,402,165,258,-50,35,-48,-156,286,-121,-40,-203,-311,-108,-16,70,-149,-29,-29,95,-110,20,62,-154,-10,-170,-326,-465
60922,403,421,306,24,-50,418,222,280,-35,58,-8,-192,296,-104,-22,-151,-268,-121,-9,72,-154,-62,-32,116,-97,26,85,-153,-10,-190,-348,-479
60923,418,458,359,35,-46,436,282,322,-5,67,24,-142,324,-101,5,-123,-276,-98,0,85,-114,45,-31,126,-69,58,151,-132,20,-138,-252,-316
60924,441,519,382,76,-55,443,318,306,12,68,23,-123,334,-80,2,-58,-240,-76,32,100,-60,84,9,141,-40,112,203,-81,53,-52,-158,-150
60925,487,513,363,106,-49,434,313,298,4,52,46,-148,323,-103,0,-28,-277,-78,20,87,-66,78,6,132,-57,96,217,-83,67,-42,-157,-145
60926,437,491,334,65,-49,419,284,290,-22,61,58,-146,312,-118,-21,-67,-316,-106,-12,52,-73,128,-6,103,-106,40,161,-101,38,-84,-191,-265
60927,426,454,313,52,-30,389,240,279,-7,38,41,-141,319,-131,-27,-41,-282,-92,-1,52,-75,148,8,116,-104,56,200,-77,92,-37,-171,-217
60928,388,409,289,55,-35,377,209,302,-18,27,21,-171,321,-141,-24,-20,-323,-97,-14,56,-78,163,-21,111,-89,71,238,-70,93,-16,-108,-135
60929,382,402,273,34,-46,376,224,281,-47,7,-8,-184,286,-153,-27,-79,-362,-103,-29,44,-106,139,-35,87,-100,73,224,-98,71,-41,-117,-115
60930,396,429,263,32,-52,412,222,264,-49,5,3,-199,277,-145,-49,-70,-401,-127,-33,46,-101,23,-34,74,-103,76,190,-130,14,-83,-180,-309
60931,442,448,282,25,-54,395,220,282,-40,24,-18,-146,310,-139,-37,-50,-351,-99,-36,38,-113,21,-12,63,-107,64,156,-109,2,-151,-262,-385
60932,452,409,316,63,-45,407,208,333,-15,53,-5,-72,338,-122,15,-28,-249,-16,-10,48,-94,48,56,116,-90,86,189,-23,82,-82,-205,-337
60933,476,448,349,78,-58,414,192,344,0,50,45,-101,349,-113,16,9,-217,-24,7,65,-73,93,58,130,-91,87,248,-32,98,-47,-157,-335
60934,499,478,384,99,-33,450,154,388,9,64,54,-56,359,-99,32,40,-221,-4,23,100,-58,176,87,159,-51,134,297,-18,133,14,-61,-173
60935,463,459,379,99,-23,435,134,397,20,92,43,13,397,-80,26,39,-289,6,30,99,-39,107,84,167,-44,159,330,-55,138,48,-28,-79
60936,492,454,386,105,-29,413,137,380,13,69,7,20,389,-69,13,-68,-272,10,22,96,-64,51,65,161,-61,103,268,-48,119,-35,-108,-176
60937,436,439,355,72,-38,381,78,338,-23,16,-17,-32,313,-130,-25,-141,-274,-39,-15,29,-175,63,6,82,-151,-17,105,-78,-34,-258,-433,-496
60938,449,442,359,48,-47,389,66,305,-62,5,-3,-42,295,-166,-32,-147,-323,-85,-62,6,-195,10,-36,38,-172,-71,0,-189,-95,-307,-504,-625
60939,448,390,334,42,-52,402,105,329,-60,15,17,-5,301,-138,-2,-105,-301,-70,-42,36,-146,21,-5,68,-162,5,65,-99,-6,-170,-326,-348
60940,455,389,356,20,-52,397,122,302,-54,32,50,31,307,-145,6,-119,-344,-67,-23,39,-143,-8,18,68,-142,30,82,-167,-42,-147,-281,-214
60941,486,448,369,58,-44,370,120,348,-49,42,26,21,331,-128,28,-104,-302,-39,-7,61,-122,-83,66,96,-109,65,151,-237,-13,-100,-175,-109
60942,523,485,414,116,-33,404,152,446,-3,56,-16,119,385,-84,34,-24,-250,-25,36,72,-81,-97,-8,105,-87,88,174,-102,26,-81,-178,-220
60943,529,482,441,76,-64,431,212,436,-15,61,-47,111,375,-88,14,14,-272,-19,20,56,-99,-46,-20,119,-121,38,103,64,65,-140,-329,-435
60944,541,523,460,83,-61,456,297,414,-6,58,97,108,365,-83,57,121,-285,15,14,63,-65,20,49,129,-100,58,98,33,68,-115,-331,-494
60945,583,564,484,104,-41,474,310,392,-2,80,129,32,363,-70,78,135,-241,40,53,106,3,63,92,150,-74,114,222,-64,77,-34,-190,-306
60946,537,564,468,65,-51,492,289,330,-38,71,108,1,341,-98,50,33,-165,-9,30,96,-13,5,43,139,-80,88,248,-38,65,-61,-209,-374
60947,487,533,432,29,-46,454,291,317,-65,28,75,37,329,-126,15,34,-274,-23,3,77,-21,71,0,119,-74,110,308,-50,58,-52,-183,-329
60948,516,449,460,22,-55,423,260,334,-59,22,22,80,335,-131,9,33,-233,-8,12,85,1,131,28,124,-58,131,351,-46,105,-15,-144,-227
60949,466,476,463,6,-61,409,250,352,-55,16,20,79,329,-115,17,26,-152,10,30,104,-22,123,87,157,-56,128,254,-14,127,13,-145,-248
60950,451,495,433,0,-55,411,266,344,-39,27,64,71,344,-95,45,84,-218,-11,65,108,-16,125,16,154,-46,139,192,-137,91,4,-121,-213
60951,457,477,427,29,-34,408,280,328,-15,49,59,57,348,-83,46,68,-149,10,68,133,15,133,46,166,-24,148,226,-93,139,24,-91,-138
