,Fp1,Fp2,F7,F3,Fz,F4,F8,FC5,FC1,FC2,FC6,T7,C3,Cz,C4,T8,TP9,CP5,CP1,CP2,CP6,TP10,P7,P3,Pz,P4,P8,PO9,O1,Oz,O2,PO10
34285,-60,0,569,-243,-55,245,-109,624,-84,-247,214,321,317,81,261,266,236,217,194,432,-82,1,29,88,313,237,345,360,219,70,-47,-311
34286,-161,-75,641,-279,-42,189,-44,557,-69,-259,233,171,328,85,277,335,206,279,190,448,-50,53,82,116,294,235,424,112,160,38,-26,-132
34287,-31,99,737,-185,-40,218,-20,534,-71,-273,234,138,301,74,251,311,159,284,178,426,-121,116,68,102,284,218,386,-194,99,0,-46,-96
34288,34,188,818,-184,-36,470,4,511,-80,-239,268,309,273,74,264,333,172,232,157,425,-137,215,41,67,297,239,397,22,134,69,53,26
34289,-38,243,838,-257,-36,502,33,493,-98,-218,320,394,282,65,278,354,174,229,185,438,-122,173,75,101,325,288,429,37,176,136,143,41
34290,-52,224,887,-276,-33,477,-30,532,-98,-228,304,343,306,62,290,302,193,246,198,463,-78,58,174,120,359,337,461,-43,203,190,197,148
34291,44,183,862,-213,-35,465,-79,526,-90,-228,311,348,309,62,302,272,164,303,221,490,-47,101,337,158,389,378,534,-115,246,262,286,274
34292,62,216,788,-243,-61,400,-37,475,-112,-233,316,419,306,72,271,332,183,314,211,482,-85,122,340,160,393,366,497,-86,250,263,277,339
34293,113,200,772,-266,-54,337,24,526,-117,-267,305,253,288,77,260,361,153,175,180,460,-101,169,-73,94,368,301,417,57,205,190,148,241
34294,166,177,749,-219,-58,236,27,568,-92,-236,268,285,266,61,254,407,169,185,181,443,-90,161,-51,91,361,279,396,-84,165,104,29,40
34295,161,76,711,-237,-66,353,31,514,-90,-219,264,314,254,55,263,369,146,134,160,453,-42,109,-40,46,347,318,522,-10,126,139,130,279
34296,153,-94,746,-225,-48,338,34,514,-90,-217,332,290,261,89,314,388,180,152,197,507,26,79,-64,93,412,391,658,49,220,257,303,641
34297,99,-68,732,-253,-73,313,92,484,-111,-249,298,194,256,84,289,373,171,184,207,494,18,129,22,111,418,394,590,0,243,279,315,743
34298,118,179,673,-189,-54,404,144,536,-98,-255,297,169,275,60,242,299,190,222,202,455,-86,82,75,104,354,250,279,-74,161,108,7,-177
34299,33,223,549,-159,-52,392,41,551,-74,-225,328,179,298,76,261,240,138,242,206,476,-118,144,24,131,373,281,325,-79,216,184,106,-144
34300,-117,183,507,-151,-78,292,-56,559,-89,-215,323,303,313,92,286,327,180,310,219,500,-55,129,240,188,434,351,507,-94,293,317,327,363
34301,-79,121,564,-153,-63,150,0,601,-76,-247,270,328,325,81,258,419,190,298,215,471,-70,103,298,144,405,312,465,30,253,267,224,55
34302,47,151,604,-192,-47,213,67,563,-75,-257,294,286,324,75,259,275,205,260,196,457,-61,163,133,146,365,292,417,78,233,176,65,-118
34303,143,190,662,-207,-60,318,31,545,-93,-237,309,254,327,70,249,83,241,248,212,463,-97,179,100,136,371,271,396,173,243,150,39,-26
34304,160,180,697,-189,-60,364,-4,554,-108,-232,335,276,345,75,231,111,283,318,220,464,-135,119,303,149,367,273,379,117,242,160,50,-14
34305,22,161,679,-88,-49,301,-21,564,-79,-230,369,300,377,90,254,234,323,375,246,494,-86,95,302,209,412,304,394,97,270,202,110,77
34306,-88,223,640,-94,-47,201,-56,619,-58,-239,313,346,383,122,285,293,323,322,254,522,-54,187,112,189,438,344,471,300,321,253,192,195
34307,-212,43,591,-158,-68,397,-47,610,-77,-238,302,416,368,106,262,245,291,302,253,513,-62,164,189,202,421,324,503,155,328,241,181,193
34308,-363,-52,623,-275,-76,520,-34,472,-107,-231,343,226,315,66,257,227,226,273,210,474,-58,46,220,177,379,289,472,-43,247,169,121,135
34309,-262,94,670,-344,-77,356,-89,368,-126,-244,300,211,262,50,247,288,221,210,160,447,-69,38,144,97,333,270,460,172,162,135,101,137
34310,-116,176,682,-315,-92,417,-162,355,-120,-219,306,218,268,77,251,348,224,218,173,460,-72,148,169,104,350,290,530,125,235,184,168,189
34311,62,172,692,-332,-89,467,-230,364,-144,-219,261,232,272,68,262,350,267,274,178,471,-56,187,208,123,359,314,621,179,259,203,186,128
34312,202,104,595,-337,-84,341,-171,444,-124,-243,223,225,301,50,256,346,237,269,194,447,-113,169,119,115,337,276,548,196,248,181,137,210
34313,248,53,516,-322,-95,227,-94,468,-133,-262,234,287,316,32,226,366,201,293,183,417,-160,197,170,145,331,230,477,86,250,175,132,294
34314,230,-79,590,-324,-93,195,-12,430,-123,-245,201,341,329,62,224,453,283,355,211,442,-106,232,261,213,349,275,529,-20,305,240,209,316
34315,98,-48,699,-305,-115,195,-24,462,-132,-281,145,298,304,53,228,385,336,326,193,444,-119,210,297,212,357,284,476,-2,348,295,240,361
34316,113,155,778,-255,-98,220,20,523,-126,-259,193,333,311,49,243,389,342,299,190,458,-69,263,294,143,367,318,582,267,286,276,272,348
34317,121,217,762,-289,-71,129,73,563,-110,-254,211,371,321,47,245,376,290,256,185,457,-50,253,113,117,367,325,601,315,268,250,230,348
34318,107,156,780,-211,-70,196,13,591,-97,-257,220,398,329,56,239,303,311,269,210,444,-59,184,212,168,376,311,548,208,320,281,252,435
34319,76,55,770,-220,-77,242,-96,605,-94,-256,266,434,333,74,232,308,284,314,221,447,-91,181,295,199,370,310,497,227,344,307,298,451
34320,95,156,781,-227,-63,252,-87,578,-79,-257,223,436,342,77,238,319,315,346,220,466,-99,243,342,216,389,327,499,263,388,332,324,485
34321,3,119,720,-250,-71,284,-100,575,-114,-273,197,381,333,49,225,190,336,360,198,444,-126,263,393,220,384,309,490,213,399,343,343,558
34322,-73,-140,580,-223,-83,268,-147,617,-107,-276,258,228,336,32,209,26,267,330,178,421,-170,202,214,151,332,271,420,70,293,274,274,348
34323,-115,-322,574,-169,-63,253,-142,711,-69,-269,254,235,336,32,200,36,243,329,171,419,-196,133,216,93,318,250,386,70,249,253,257,176
34324,-197,-57,548,-92,-57,409,-144,703,-62,-260,263,275,339,38,210,164,203,310,171,406,-171,79,262,103,310,234,416,-64,198,212,229,234
34325,-246,144,483,-149,-60,464,-129,546,-86,-256,257,321,293,39,198,260,153,194,141,380,-166,29,77,67,288,209,398,-6,146,123,78,283
34326,-168,128,606,-141,-50,347,-29,559,-59,-250,258,350,322,76,226,363,207,203,196,428,-116,32,36,103,332,273,474,186,253,213,197,536
34327,25,59,752,-145,-50,267,26,562,-55,-258,265,338,323,84,234,373,237,226,208,436,-130,28,89,115,343,265,415,214,282,235,191,284
34328,78,152,794,-255,-68,269,-7,551,-84,-252,272,330,302,55,216,311,172,216,193,408,-146,-9,47,97,318,215,300,67,174,83,11,-103
34329,41,314,771,-322,-79,271,-45,604,-98,-277,258,317,315,64,211,187,196,233,201,411,-150,16,94,119,307,210,304,-141,113,24,3,-83
34330,94,205,743,-201,-64,278,-99,589,-40,-275,224,325,352,62,202,182,248,320,237,422,-191,84,237,159,342,245,377,11,261,167,125,97
34331,53,-62,730,-142,-68,228,-133,503,-32,-276,128,330,353,54,186,216,247,383,232,431,-134,76,283,183,359,273,414,-24,260,210,199,248
34332,9,137,725,-211,-44,70,-21,476,-66,-254,158,248,331,74,211,151,241,316,234,452,-119,138,2,150,361,287,405,108,243,199,200,213
34333,95,168,690,-376,-42,146,-31,503,-106,-240,304,236,337,67,253,182,224,295,223,476,-130,246,64,135,393,335,478,100,238,235,255,351
34334,-1,155,710,-362,-60,386,-161,524,-113,-239,271,355,334,57,247,303,235,303,200,465,-105,244,216,126,391,344,524,16,211,194,221,397
34335,50,189,835,-275,-79,331,-167,536,-102,-256,198,370,310,56,241,311,225,238,220,470,-96,137,133,120,388,326,456,161,264,246,227,373
34336,156,260,823,-236,-73,315,-60,584,-86,-280,217,367,318,82,262,290,197,232,238,492,-94,146,115,139,381,300,429,145,259,220,136,125
34337,174,265,700,-234,-69,362,13,589,-85,-263,217,358,331,89,242,396,235,247,226,485,-101,206,139,136,384,329,550,130,234,174,125,263
34338,153,187,654,-218,-66,313,-7,581,-84,-256,231,347,318,90,232,391,215,239,232,495,-88,91,113,137,405,363,620,68,236,197,239,270
34339,136,191,637,-226,-75,190,-21,577,-71,-254,238,332,303,103,253,415,204,221,233,497,-94,-23,140,176,428,330,501,-84,279,252,270,372
34340,147,135,655,-227,-78,197,-27,503,-93,-272,217,394,296,98,239,362,178,221,229,487,-126,-7,147,158,421,303,408,21,307,274,254,407
34341,191,130,709,-271,-84,216,-9,548,-108,-311,192,324,280,74,169,92,228,244,195,407,-269,-30,209,107,319,142,113,138,212,77,-118,-475
34342,146,182,727,-260,-72,187,24,546,-110,-309,177,219,282,67,151,-31,209,245,193,394,-287,23,121,92,319,146,149,97,179,59,-140,-457
34343,6,155,702,-264,-67,285,51,539,-110,-270,246,211,305,97,184,154,172,237,230,445,-185,25,24,133,358,228,330,-84,208,138,15,-112
34344,-47,95,699,-298,-93,284,-22,552,-115,-290,257,165,287,81,217,375,132,216,205,460,-129,-49,32,106,364,256,425,-7,195,142,62,-22
34345,-88,-39,758,-205,-84,163,-88,609,-83,-301,207,290,343,86,206,312,202,309,220,463,-130,-2,398,156,391,272,424,2,238,170,138,128
34346,-177,-161,678,-158,-79,277,-204,605,-70,-243,193,281,333,95,228,188,199,263,245,462,-151,34,249,171,384,247,284,-13,266,187,113,103
34347,-75,26,553,-131,-74,276,-211,563,-90,-236,237,314,299,65,225,-5,129,167,216,451,-184,51,-111,137,382,242,271,41,278,192,87,26
34348,83,-56,461,-104,-65,250,-141,627,-66,-254,234,201,321,53,220,-139,141,187,224,450,-191,83,-10,166,386,262,324,47,285,221,145,156
34349,60,-193,477,-201,-81,528,-85,563,-75,-236,246,117,322,66,244,-104,138,226,218,467,-135,127,88,157,393,314,424,123,318,302,278,423
34350,77,23,596,-193,-65,486,-82,469,-54,-221,277,225,332,88,290,251,136,273,240,499,-38,125,179,181,431,378,579,113,376,370,397,641
34351,150,258,743,-195,-48,392,-74,468,-80,-239,296,285,333,65,283,474,170,292,228,479,-49,140,237,197,417,352,542,22,303,263,245,378
34352,234,270,800,-217,-42,312,0,524,-100,-250,296,360,309,48,279,548,265,253,236,473,-59,209,98,161,415,352,564,232,319,237,142,4
34353,243,304,868,-194,-30,253,104,529,-53,-243,303,404,352,81,323,556,339,338,274,526,11,234,303,234,461,385,619,209,420,305,204,83
34354,77,317,880,-270,-58,194,132,524,-75,-266,267,333,349,96,285,487,279,362,274,521,-12,245,267,266,458,364,494,161,409,298,235,111
34355,29,289,866,-290,-69,119,126,521,-99,-286,251,303,331,93,273,441,219,328,274,514,-17,230,184,258,473,407,516,208,412,321,277,90
34356,162,232,890,-291,-33,38,131,580,-56,-266,270,440,369,115,294,456,233,366,294,541,39,265,352,254,484,433,607,310,429,365,306,226
34357,98,-2,800,-157,-65,227,24,608,-76,-258,274,409,379,99,252,385,271,397,280,511,-26,328,474,259,448,384,533,154,400,330,265,352
34358,28,27,667,-74,-48,377,46,593,-83,-253,309,328,374,103,242,213,356,387,279,502,-128,345,298,235,441,357,518,176,367,313,288,357
34359,96,213,554,-95,-48,345,65,629,-63,-260,257,348,387,112,247,108,369,345,282,504,-68,322,166,224,446,395,654,277,378,358,385,518
34360,173,296,558,-196,-65,342,0,605,-64,-260,224,304,350,97,251,196,292,280,270,509,-21,414,133,205,452,434,795,251,390,442,488,720
34361,183,244,697,-249,-79,314,-53,520,-79,-282,231,294,297,87,232,361,299,240,247,468,-52,238,178,180,425,389,693,182,362,366,391,421
34362,78,209,751,-191,-58,310,-9,546,-67,-279,239,256,352,115,234,427,280,265,251,472,-59,145,163,200,426,360,590,172,340,317,309,122
34363,47,154,692,-220,-68,272,-13,522,-61,-258,239,299,363,122,228,525,268,319,259,457,-78,167,248,227,415,337,526,75,329,224,188,185
34364,16,60,544,-192,-102,291,-81,501,-61,-255,217,401,365,98,201,388,299,410,281,445,-131,139,561,267,425,310,478,-23,335,208,166,264
34365,-174,30,461,-82,-101,262,-194,491,-61,-281,227,333,363,82,201,213,279,413,294,442,-103,140,579,264,405,350,514,0,329,278,271,423
34366,-56,177,524,-130,-55,185,-300,578,-38,-294,190,212,364,96,205,147,250,272,268,449,-123,150,54,172,374,332,488,300,332,300,277,366
34367,33,177,604,-194,-57,241,-277,529,-69,-318,154,193,313,62,192,174,264,169,197,418,-132,63,-19,111,357,291,494,461,299,229,196,120
34368,-25,61,643,-251,-77,328,-112,478,-85,-292,184,215,294,39,186,115,244,224,162,400,-145,-24,69,83,318,270,447,306,223,116,112,37
34369,26,42,664,-304,-69,358,29,502,-77,-271,212,210,320,58,199,217,223,269,219,432,-130,37,100,147,335,291,479,154,227,140,158,187
34370,133,37,682,-289,-71,344,-30,461,-48,-277,238,242,330,62,207,372,215,279,214,423,-137,129,120,152,344,284,456,61,226,159,178,225
34371,197,111,654,-286,-81,84,-68,462,-73,-317,155,306,290,40,168,361,206,195,179,381,-182,146,26,65,312,249,424,133,223,148,169,222
34372,186,174,657,-248,-81,-80,-100,499,-80,-318,114,298,293,21,168,335,224,175,177,381,-198,114,47,106,299,220,384,120,217,147,138,176
34373,156,124,671,-228,-98,281,-106,460,-86,-298,114,297,275,34,141,240,204,214,182,357,-231,41,156,99,278,168,320,22,165,94,66,96
34374,124,54,651,-241,-91,347,-78,442,-73,-291,106,308,284,41,130,208,177,225,185,362,-240,46,185,71,283,167,301,11,158,88,78,99
34375,88,-34,675,-245,-64,267,-55,524,-68,-285,127,292,322,41,129,94,194,238,188,363,-253,21,209,81,289,174,300,-41,137,101,88,128
34376,13,-57,647,-216,-77,227,-10,513,-68,-300,137,159,298,56,134,31,119,133,167,366,-257,27,-117,33,284,174,343,-26,122,110,93,139
34377,-48,-70,498,-168,-66,281,-57,518,-55,-255,140,110,282,42,146,-55,120,128,155,359,-273,49,-172,40,284,151,353,7,118,82,63,123
34378,-179,-171,423,-89,-68,307,-213,508,-51,-262,109,186,309,47,127,-232,131,223,173,365,-297,60,-23,66,275,163,245,-27,111,52,39,121
34379,-181,-25,493,-113,-56,355,-256,504,-57,-244,159,160,311,65,155,-223,133,262,189,378,-276,143,21,73,309,200,286,-78,109,93,100,172
34380,-187,105,515,-123,-54,390,-256,528,-94,-248,202,265,295,27,143,-26,63,245,161,362,-308,101,146,67,269,142,288,-295,53,20,36,404
34381,-290,79,528,-88,-63,251,-242,603,-99,-301,132,269,285,7,132,191,17,167,119,340,-262,-29,95,6,228,116,307,-226,-16,-62,-105,310
34382,-206,45,576,-177,-39,329,-240,560,-94,-279,172,242,279,27,172,394,41,81,125,372,-237,-36,-61,-46,242,141,320,10,13,-38,-110,-66
34383,-112,10,685,-239,-40,336,-215,528,-115,-276,136,297,293,26,154,236,132,170,131,355,-290,-65,120,30,255,100,176,-39,59,-60,-190,-388
34384,45,31,691,-240,-66,332,-207,461,-110,-316,101,324,265,9,108,98,142,236,134,329,-323,-125,254,73,236,104,143,-124,96,-14,-102,-19
34385,132,135,658,-206,-57,244,-217,432,-80,-308,77,250,259,31,103,168,105,191,146,347,-300,-25,111,90,260,170,278,-112,149,115,119,466
34386,72,201,742,-199,-48,271,-241,445,-52,-287,135,221,268,45,140,127,132,192,162,382,-229,-39,49,111,308,219,387,-130,190,177,190,465
34387,113,187,820,-210,-60,196,-171,487,-91,-279,164,168,265,21,146,72,190,180,131,375,-198,-116,24,67,284,197,374,-47,143,42,9,-318
34388,138,88,863,-181,-26,45,-63,546,-72,-281,173,184,294,43,169,131,223,221,153,392,-174,-66,76,118,308,191,345,-55,135,-18,-134,-538
34389,132,-15,843,-176,-36,165,-10,532,-85,-262,195,224,280,27,190,256,247,157,155,388,-196,17,-25,91,297,201,293,67,223,102,-12,-5
34390,148,123,780,-166,-49,117,8,568,-99,-238,294,271,277,44,193,308,257,136,156,419,-227,70,-13,74,318,228,292,163,255,191,99,153
34391,65,48,647,-156,-50,274,-32,650,-115,-250,234,282,266,32,191,354,216,110,144,414,-196,75,-9,41,319,247,350,174,187,183,152,138
34392,86,-3,535,-151,-44,367,-53,645,-105,-265,229,267,269,35,218,354,196,127,140,432,-165,92,-1,67,334,275,422,122,229,204,203,216
34393,208,129,590,-202,-36,326,-3,537,-109,-267,213,233,262,43,207,326,207,182,139,431,-158,94,147,85,330,278,447,44,203,154,171,341
34394,115,101,667,-207,-66,278,-19,479,-100,-283,189,243,289,51,171,264,293,246,139,399,-184,30,388,113,330,262,398,2,209,160,163,351
34395,-183,-17,564,-101,-80,310,-60,539,-108,-308,184,179,260,25,154,5,202,195,127,385,-252,41,115,65,300,222,310,65,215,161,125,178
34396,-197,45,589,12,-57,390,-101,585,-89,-277,214,171,287,49,181,-230,185,178,141,390,-248,146,-26,67,315,207,270,125,208,133,43,-112
34397,-112,129,597,-122,-92,386,-240,483,-112,-274,246,248,262,30,183,-152,176,105,128,388,-225,181,-2,35,286,210,286,75,141,95,26,-68
34398,60,190,717,-269,-84,359,-123,421,-125,-273,263,299,240,48,217,172,193,114,129,419,-186,238,44,58,309,274,377,140,226,187,162,158
34399,127,186,747,-233,-53,321,-22,422,-114,-285,259,287,257,73,217,380,247,160,143,458,-143,158,141,103,342,295,424,145,274,230,208,253
34400,234,164,705,-233,-58,276,7,435,-116,-288,232,223,266,74,215,443,232,206,161,439,-126,73,171,115,351,303,423,37,221,187,190,274
34401,181,161,680,-237,-77,238,-43,418,-108,-315,173,163,250,66,174,284,211,213,170,407,-179,91,82,99,331,265,376,14,194,105,74,110
34402,53,186,691,-264,-81,242,-80,423,-116,-318,167,198,275,62,185,285,231,180,162,417,-176,51,19,109,329,276,336,113,217,125,94,32
34403,47,169,636,-265,-69,344,-39,450,-107,-281,194,239,297,68,200,293,235,237,189,435,-150,-18,142,151,354,291,324,-99,247,125,104,9
34404,79,175,616,-186,-87,335,-75,409,-98,-275,183,276,297,58,211,222,241,247,182,439,-174,-42,175,149,334,276,292,-75,180,80,55,-100
34405,204,210,589,-232,-103,247,-134,394,-125,-283,211,301,274,68,215,107,258,181,159,450,-167,-40,54,74,339,291,314,264,185,119,105,-32
34406,27,68,588,-207,-96,155,-243,430,-103,-274,209,295,313,99,225,94,232,208,190,456,-110,-8,137,132,374,332,355,148,242,213,238,368
34407,-156,-150,490,-170,-102,116,-341,535,-63,-281,142,299,374,112,213,68,273,330,232,475,-108,2,419,220,404,327,386,-68,254,216,258,491
34408,-102,-127,436,-159,-101,120,-299,587,-55,-300,114,147,370,101,195,49,290,323,225,464,-192,-15,316,191,378,270,361,-10,232,109,85,112
34409,-16,-68,533,-236,-100,34,-245,462,-79,-314,124,189,312,88,203,269,246,219,219,477,-166,5,168,125,387,296,393,147,204,144,125,171
34410,-18,-182,588,-226,-94,147,-166,381,-79,-271,252,218,257,80,244,267,198,110,174,455,-132,45,1,80,366,315,460,42,159,158,192,492
34411,-19,-60,574,-218,-91,185,-90,365,-86,-262,239,177,231,63,233,204,203,54,123,425,-134,26,-113,23,308,260,390,41,80,11,21,274
34412,136,304,584,-265,-66,348,-64,431,-80,-257,246,177,254,65,219,158,204,98,129,414,-162,2,-39,29,303,235,303,102,96,-7,-64,-174
34413,265,363,606,-268,-43,361,-4,473,-75,-263,212,257,308,84,211,148,265,179,184,446,-187,94,95,106,349,271,370,113,168,109,98,88
34414,226,232,639,-223,-83,359,-56,461,-84,-260,223,244,287,73,219,174,248,205,183,450,-143,31,150,120,350,280,418,58,161,115,110,278
34415,160,189,600,-154,-71,397,-74,486,-99,-271,250,236,280,54,231,172,192,194,158,420,-172,5,49,56,295,205,330,35,98,-4,-58,-206
34416,221,204,549,-124,-31,396,20,547,-80,-268,236,213,306,67,240,226,222,208,171,435,-172,107,68,83,325,243,429,53,140,52,15,-187
34417,140,177,568,-74,-28,433,40,585,-59,-272,278,177,335,77,264,354,235,325,205,457,-92,-18,279,135,342,288,518,-5,153,55,62,63
34418,110,288,573,-18,-35,409,14,587,-58,-267,271,222,362,84,250,350,200,326,224,454,-126,-41,158,178,341,258,412,-85,166,41,19,53
34419,111,325,594,-24,-55,358,10,526,-57,-278,272,356,364,92,227,296,228,259,232,437,-199,-15,129,186,347,216,230,-58,193,37,-32,-115
34420,33,137,654,-71,-74,324,3,465,-80,-292,257,362,323,84,209,163,260,185,180,410,-200,-55,111,100,331,198,224,307,148,45,0,-53
34421,129,297,697,-88,-65,354,9,422,-82,-288,200,286,315,106,187,133,272,197,185,425,-208,-60,72,108,341,214,277,457,261,104,41,3
34422,318,428,719,-196,-51,257,-37,521,-60,-275,212,235,357,109,198,173,309,276,209,441,-238,-39,183,170,376,222,267,413,278,115,56,-9
34423,365,460,674,-105,-54,241,-122,598,-29,-293,238,287,372,104,202,179,275,317,217,435,-209,-15,210,165,366,237,285,156,237,105,30,-2
34424,266,515,638,-70,-60,331,-140,635,-27,-290,279,271,345,85,198,164,181,259,186,413,-187,-44,98,123,328,217,347,-163,128,29,10,-11
34425,199,435,706,-159,-29,356,-79,599,-68,-272,313,233,316,73,209,227,214,182,166,417,-174,-72,-4,58,298,199,349,15,100,23,34,37
34426,217,385,727,-112,-25,412,-4,637,-41,-266,282,257,334,84,207,191,195,226,183,416,-189,-96,89,92,312,193,306,-198,77,-22,-14,16
34427,291,344,712,-68,-41,318,22,689,-24,-295,210,383,363,82,156,84,204,360,229,391,-247,-125,454,164,323,175,228,-419,65,-74,-51,-60
34428,238,203,733,-83,-58,335,25,646,-58,-287,230,407,349,74,168,154,243,336,195,391,-225,-118,544,105,313,191,295,-144,62,-21,-9,-106
34429,129,137,702,-56,-78,300,-6,586,-60,-288,195,393,336,75,170,199,91,250,182,396,-247,-65,180,59,314,204,287,-42,99,43,22,79
34430,82,163,653,-42,-53,145,-40,500,-36,-286,153,308,306,78,186,208,106,150,198,417,-214,-48,-79,58,321,219,309,-5,121,84,63,188
34431,62,110,513,-90,-55,285,-72,391,-62,-277,194,232,245,52,179,13,137,72,155,413,-202,-52,-172,2,305,204,297,-36,58,25,45,176
34432,113,-253,513,-223,-80,534,-95,385,-107,-277,229,141,235,65,146,-257,121,92,165,396,-332,72,-42,45,314,162,232,-169,79,-9,20,251
34433,183,-164,549,-243,-81,415,-86,408,-110,-282,196,212,245,79,142,-185,122,102,160,403,-346,53,98,54,320,182,311,-46,88,69,86,267
34434,246,229,601,-189,-82,371,-61,434,-116,-284,139,161,252,82,170,49,124,112,151,397,-245,-59,109,41,321,179,364,-21,62,37,-15,4
