,Fp1,Fp2,F7,F3,Fz,F4,F8,FC5,FC1,FC2,FC6,T7,C3,Cz,C4,T8,TP9,CP5,CP1,CP2,CP6,TP10,P7,P3,Pz,P4,P8,PO9,O1,Oz,O2,PO10
102434,-371,90,-258,-51,-26,-45,296,288,-83,-75,234,68,272,-196,-21,199,-135,-137,-95,-247,-507,335,61,-68,-43,101,329,-90,80,-127,-43,103
102435,-364,49,-251,-52,-53,10,260,265,-75,-73,211,43,241,-185,-52,187,-187,-177,-121,-269,-535,277,-12,-82,-72,64,282,-130,27,-160,-93,83
102436,-331,69,-253,-36,-43,14,237,245,-93,-63,214,33,241,-192,-60,150,-221,-208,-134,-280,-554,219,-42,-139,-100,41,240,-191,-29,-239,-136,-17
102437,-337,86,-281,-38,-31,-41,192,243,-96,-73,215,18,248,-204,-48,96,-218,-192,-146,-270,-551,207,-29,-146,-99,51,257,-124,20,-198,-82,6
102438,-384,55,-300,-25,-41,-48,159,232,-107,-83,207,16,229,-175,-69,60,-223,-192,-146,-281,-569,182,-15,-138,-110,29,232,-101,12,-180,-89,-1
102439,-365,30,-277,-23,-53,-52,165,230,-107,-94,210,34,244,-189,-73,99,-208,-186,-128,-277,-563,147,-5,-129,-102,40,232,-87,9,-198,-114,-16
102440,-367,29,-268,-44,-54,-49,165,252,-121,-83,179,36,264,-181,-36,136,-185,-172,-105,-241,-524,199,17,-86,-41,71,261,-72,55,-154,-32,54
102441,-375,75,-267,-36,-42,-33,189,272,-115,-91,150,43,275,-176,-17,163,-116,-129,-70,-226,-505,225,84,-40,-1,132,295,60,141,-76,41,136
102442,-334,86,-243,-27,-29,-12,205,274,-105,-74,165,49,264,-156,-2,163,-119,-135,-62,-200,-473,209,74,-36,13,151,308,79,120,-90,35,107
102443,-366,71,-299,-59,-44,-15,190,260,-118,-73,170,26,244,-156,-15,127,-118,-157,-77,-196,-492,208,78,-37,27,158,322,140,143,-60,47,119
102444,-375,103,-299,-60,-43,9,212,249,-134,-80,191,16,230,-143,-9,135,-183,-177,-80,-203,-488,231,15,-50,30,149,313,-59,99,-72,33,102
102445,-303,149,-236,-33,-4,48,274,274,-94,-57,213,48,265,-124,21,170,-187,-175,-55,-187,-458,293,-19,-49,37,173,338,-316,37,-107,9,103
102446,-324,150,-254,-41,-44,44,266,250,-126,-55,212,55,261,-146,0,152,-158,-147,-42,-191,-463,281,33,-35,42,176,345,-209,66,-97,16,120
102447,-328,153,-235,-28,-34,70,281,284,-120,-49,228,95,295,-144,15,164,-130,-99,-11,-174,-455,192,92,13,77,203,341,-109,108,-80,35,105
102448,-329,132,-234,-23,-34,63,281,309,-91,-72,213,103,328,-157,3,169,-99,-75,18,-150,-456,217,136,50,91,220,339,5,190,-11,64,127
102449,-279,158,-192,17,-8,69,267,328,-74,-61,211,138,350,-161,1,147,-84,-62,24,-149,-454,255,118,57,75,214,334,-21,188,-16,69,98
102450,-255,176,-189,29,1,56,253,321,-72,-70,214,126,349,-159,-4,118,-91,-45,18,-189,-464,264,148,82,85,201,332,38,242,25,120,131
102451,-249,140,-215,5,0,33,210,320,-93,-95,172,126,337,-168,-37,50,-72,-43,13,-199,-508,217,173,89,83,182,313,93,290,32,121,114
102452,-257,149,-214,5,7,31,190,317,-87,-93,169,144,329,-179,-43,46,-47,-31,-7,-208,-505,215,189,100,91,191,316,176,335,92,129,136
102453,-255,174,-186,25,27,36,180,345,-65,-79,166,166,338,-183,-33,89,-28,-2,13,-191,-494,259,215,120,89,212,327,178,375,131,181,181
102454,-236,193,-157,40,26,40,206,354,-63,-84,171,200,358,-193,-26,150,-11,1,20,-181,-453,276,241,123,93,233,367,127,362,119,204,197
102455,-216,215,-137,62,39,31,254,380,-51,-38,215,195,371,-151,15,205,-1,19,22,-180,-411,316,221,130,114,243,409,12,246,37,153,189
102456,-246,251,-156,63,38,-22,251,380,-59,-41,237,187,376,-163,22,218,10,22,35,-159,-411,341,246,134,122,265,439,93,298,73,172,220
102457,-274,213,-204,26,26,36,256,344,-66,-39,236,150,352,-189,16,220,-32,-22,13,-160,-392,365,209,104,101,260,423,53,269,53,161,206
102458,-268,180,-239,9,11,39,249,319,-79,-26,222,100,328,-167,27,212,-67,-46,-2,-154,-398,311,130,81,96,245,404,-23,207,19,144,215
102459,-298,153,-260,-12,12,23,241,296,-89,-35,227,96,313,-168,23,206,-52,-41,-12,-164,-399,234,105,51,84,237,383,-46,200,22,134,166
102460,-332,67,-296,-17,0,40,234,283,-101,-16,221,114,323,-160,68,223,-28,-5,14,-128,-348,299,194,100,120,288,432,135,292,92,221,214
102461,-366,25,-296,-22,10,2,207,307,-95,-20,219,142,358,-131,89,237,7,21,81,-68,-309,331,300,161,189,349,486,303,382,169,284,259
102462,-350,24,-278,-33,-10,-54,195,321,-91,-15,213,152,368,-117,97,267,-24,27,82,-55,-297,366,258,168,196,382,527,165,342,158,291,302
102463,-264,56,-175,10,-2,19,201,358,-94,-2,209,199,372,-129,101,266,-49,34,77,-67,-277,364,213,154,188,369,520,-65,278,110,259,300
102464,-213,98,-109,14,-5,33,200,358,-101,-40,218,207,374,-151,92,242,-43,16,54,-94,-285,324,174,127,159,348,524,-91,275,110,277,282
102465,-191,122,-70,38,-14,-23,188,350,-100,-56,226,218,365,-169,61,222,-14,29,43,-102,-307,319,202,135,153,350,524,17,312,144,284,298
102466,-215,179,-56,52,4,-9,210,353,-97,-33,240,223,348,-163,55,214,-3,23,39,-109,-308,382,205,137,147,349,509,23,282,139,258,286
102467,-206,194,-45,71,21,37,271,367,-82,-18,266,213,364,-147,82,197,33,28,35,-109,-316,398,212,146,160,359,528,71,300,138,274,289
102468,-174,177,-74,65,6,39,250,376,-79,-18,261,217,364,-137,74,191,34,42,37,-96,-333,363,234,155,158,356,524,121,351,175,278,293
102469,-135,194,-30,73,30,46,261,408,-56,-10,262,241,396,-148,98,220,48,53,59,-100,-311,377,298,189,169,338,530,240,442,230,298,327
102470,-123,207,-26,43,14,26,252,387,-82,-15,211,238,367,-166,54,237,26,42,54,-124,-357,386,320,199,152,302,512,357,461,234,290,341
102471,-161,204,-25,24,8,24,224,403,-99,-11,200,268,376,-148,25,194,76,45,48,-147,-406,310,335,181,150,287,467,323,418,187,258,282
102472,-177,184,-39,30,-6,1,206,395,-94,-13,190,290,401,-140,9,118,137,81,72,-150,-422,294,400,216,164,282,449,420,470,213,298,264
102473,-203,180,-70,7,-25,-28,186,384,-106,-20,181,257,381,-139,-14,75,104,75,60,-150,-441,280,379,203,166,283,450,424,474,224,297,287
102474,-191,213,-46,11,-3,2,185,396,-89,-30,175,244,387,-137,-23,101,40,48,49,-152,-449,267,276,150,155,259,446,160,371,153,236,227
102475,-121,265,-29,35,23,35,232,406,-74,-4,185,257,391,-112,-3,163,3,44,66,-149,-442,301,221,147,152,263,445,22,278,101,222,236
102476,-118,246,-23,34,5,13,193,412,-93,-18,142,249,402,-108,-6,141,23,55,87,-143,-433,304,239,168,158,261,462,100,308,113,231,296
102477,-132,235,-19,16,-18,-21,170,424,-85,-28,131,235,394,-105,-12,122,1,51,83,-124,-439,263,221,150,164,252,426,34,268,79,207,248
102478,-149,243,-44,19,-2,-105,165,394,-78,-31,147,233,392,-104,21,151,-8,21,66,-96,-416,226,219,150,178,271,425,95,318,104,245,190
102479,-101,226,-20,48,0,-31,179,375,-100,-17,160,213,365,-95,25,149,-31,2,60,-104,-404,225,187,112,161,271,430,-8,256,85,219,172
102480,-87,233,-21,33,-1,-20,171,367,-111,-12,164,191,334,-117,18,137,-43,-14,42,-118,-405,236,162,77,149,267,425,-76,209,47,180,175
102481,-130,222,-60,12,-11,-11,166,331,-127,-8,151,180,346,-118,7,120,-41,-16,31,-106,-429,242,202,105,150,254,387,24,246,69,187,178
102482,-127,185,-30,27,0,7,156,361,-108,-22,135,188,362,-123,-6,89,-33,3,42,-104,-454,199,217,117,145,249,339,-26,226,41,149,142
102483,-127,197,-36,60,4,32,170,380,-98,-15,164,227,392,-120,-7,87,18,33,64,-113,-441,157,291,173,182,265,343,103,283,81,175,168
102484,-108,229,11,66,10,50,202,401,-89,-14,205,254,403,-121,9,79,18,56,98,-105,-433,210,289,181,206,278,352,55,282,116,218,192
102485,-90,258,35,48,2,43,235,406,-79,-37,215,244,402,-135,33,68,23,57,103,-111,-413,228,281,194,205,280,373,10,285,99,227,192
102486,-61,288,45,65,16,36,260,438,-50,-24,218,279,441,-107,44,125,84,106,130,-77,-373,277,349,239,235,321,402,169,374,157,237,208
102487,-76,259,21,82,9,34,248,433,-58,-23,218,306,461,-97,68,186,94,121,140,-41,-329,357,365,263,251,352,440,255,409,176,238,220
102488,-112,234,-4,88,0,-18,237,422,-46,-39,210,286,438,-117,46,209,50,99,120,-64,-358,270,349,231,227,322,406,261,384,146,227,192
102489,-124,219,-19,92,1,-96,229,409,-40,-42,188,262,430,-124,40,211,12,83,86,-77,-374,229,336,195,201,309,401,278,380,145,219,200
102490,-140,208,-26,92,-22,-22,237,438,-35,-42,190,258,422,-100,55,206,45,78,96,-85,-360,252,342,211,207,325,392,270,373,155,223,165
102491,-157,180,-10,76,-19,1,222,463,-26,-20,191,250,443,-81,51,194,59,76,116,-69,-367,237,304,206,226,329,402,131,315,128,211,169
102492,-174,145,-2,41,-34,-19,232,463,-17,-39,206,243,480,-79,53,188,65,112,150,-57,-363,240,335,239,224,347,417,208,339,150,243,202
102493,-174,143,11,53,-54,-54,221,491,-33,-44,179,249,484,-89,42,168,51,105,171,-50,-365,262,306,238,215,342,413,142,315,130,239,198
102494,-186,151,22,55,-58,-43,201,493,-33,-49,188,247,478,-69,35,154,53,111,173,-51,-354,283,297,226,242,358,426,138,318,133,250,205
102495,-169,150,20,35,-58,-14,196,475,-46,-27,164,246,464,-73,32,158,64,109,157,-38,-366,276,307,235,233,349,421,175,358,163,266,209
102496,-193,131,-6,7,-60,-23,160,445,-80,-22,137,218,411,-87,15,140,42,65,106,-85,-388,219,255,188,186,322,397,109,312,138,243,203
102497,-216,99,-26,28,-52,-29,132,419,-82,-13,144,208,387,-110,25,111,30,52,94,-82,-376,223,276,167,200,332,413,131,316,136,250,218
102498,-265,73,-57,-10,-61,-53,110,394,-77,-17,123,190,388,-115,13,13,-4,35,93,-94,-378,243,271,171,193,318,415,138,292,91,218,208
102499,-252,42,-51,-37,-36,-47,134,377,-97,-9,126,206,394,-110,8,47,46,56,88,-67,-371,230,288,186,200,330,443,231,349,158,260,240
102500,-221,58,-70,-47,-47,-49,142,353,-109,-16,118,197,376,-133,26,120,31,60,94,-76,-377,240,267,194,214,329,458,93,309,139,260,244
102501,-221,104,-59,-30,-47,-109,170,336,-99,-33,155,191,379,-139,22,166,28,47,85,-77,-379,303,261,172,209,317,470,6,263,106,235,235
102502,-194,138,-39,-14,-46,-57,207,361,-79,-16,205,229,410,-99,56,218,63,91,125,-37,-316,302,318,230,238,351,496,223,371,187,311,295
102503,-200,162,-46,7,-33,8,196,357,-67,-13,199,199,422,-91,57,234,38,97,129,-48,-303,291,304,221,251,373,493,211,367,197,325,326
102504,-224,161,-58,1,-23,-5,175,352,-71,-24,189,170,365,-123,62,199,15,54,94,-84,-349,332,258,188,226,348,491,126,320,153,306,329
102505,-227,129,-91,-13,-45,-26,176,331,-84,-23,202,178,360,-119,64,193,29,26,89,-79,-340,324,277,186,210,341,505,218,349,176,303,346
102506,-226,120,-112,-18,-52,-58,147,314,-86,-26,179,147,354,-111,26,170,-42,4,87,-98,-361,266,233,137,187,314,463,181,296,115,241,273
102507,-245,123,-111,-26,-60,-60,129,305,-102,-40,138,105,330,-130,24,162,-39,-3,74,-116,-365,270,217,129,178,315,457,170,285,120,250,250
102508,-227,143,-132,-2,-47,-56,159,324,-93,-24,165,96,359,-108,52,191,-50,-4,85,-87,-328,282,165,134,190,335,478,37,274,134,289,284
102509,-201,144,-114,-9,-43,-38,178,360,-78,-1,188,125,393,-90,71,192,-27,15,77,-47,-312,307,176,142,215,341,480,36,278,157,302,290
102510,-231,95,-120,-60,-58,-67,119,342,-89,-14,163,110,374,-102,67,160,-56,5,73,-49,-333,284,178,159,212,352,480,81,310,166,270,261
102511,-276,92,-138,-56,-69,-57,121,344,-97,4,179,131,370,-83,74,164,-62,6,92,-39,-305,301,214,176,220,365,486,175,355,190,293,257
102512,-343,80,-157,-62,-93,-42,110,339,-123,-12,186,129,362,-89,68,81,-32,21,84,-59,-337,246,265,203,203,335,416,247,355,169,278,197
102513,-398,73,-167,-90,-85,-77,90,323,-139,-19,185,111,359,-87,50,-85,-77,12,75,-76,-373,240,227,188,182,323,365,134,304,132,225,148
102514,-334,62,-180,-74,-75,-134,84,308,-134,-7,190,105,355,-88,69,-107,-114,1,85,-51,-330,282,177,172,185,320,391,15,319,155,256,186
102515,-311,37,-179,-43,-78,-28,95,304,-123,-6,188,106,352,-97,67,-41,-97,-2,69,-64,-340,260,165,171,181,301,392,-62,253,129,224,165
102516,-336,36,-153,-23,-51,19,102,316,-111,0,218,128,360,-103,65,86,-63,10,71,-61,-346,239,178,160,182,308,398,6,237,81,196,153
102517,-241,89,-113,-13,-42,31,121,351,-86,-2,186,143,356,-109,44,172,-58,29,77,-87,-351,271,176,178,185,310,406,24,272,104,209,155
102518,-231,95,-119,-9,-47,1,132,349,-86,-17,142,125,367,-117,25,214,-63,24,61,-119,-364,270,186,180,165,288,424,16,314,148,238,174
102519,-233,91,-114,-13,-38,-18,147,372,-74,-29,130,151,376,-112,8,210,-62,40,58,-133,-387,283,238,207,154,287,410,61,353,167,242,159
102520,-227,101,-125,14,-29,-48,154,403,-63,-48,120,176,388,-109,13,195,-51,59,76,-136,-387,269,272,223,147,268,429,103,391,206,276,193
102521,-266,121,-132,4,-40,-49,150,386,-75,-25,123,192,383,-125,7,171,-30,72,65,-144,-409,224,298,233,141,245,405,132,409,224,279,179
102522,-308,96,-150,-19,-59,-53,157,374,-85,-22,108,190,386,-113,-9,107,-2,81,74,-151,-446,246,340,249,149,238,385,264,481,255,313,208
102523,-325,90,-141,-36,-72,-35,158,354,-82,-24,139,165,383,-115,11,109,-36,49,59,-157,-450,232,268,207,146,224,368,85,405,213,295,133
102524,-344,62,-146,-57,-82,-38,156,355,-119,-13,181,158,357,-111,23,135,-40,14,40,-146,-421,246,249,174,132,245,385,-53,365,202,287,143
102525,-349,77,-130,-54,-80,-27,179,358,-114,-8,184,182,367,-114,25,176,-39,17,38,-118,-394,306,241,151,155,286,443,-62,356,204,302,245
102526,-334,116,-121,-65,-77,-37,213,334,-113,-2,204,176,365,-102,79,230,-8,19,56,-96,-338,331,249,173,173,311,486,6,405,224,343,303
102527,-318,89,-122,-58,-85,-104,198,321,-123,-6,189,167,368,-109,72,230,3,22,57,-84,-327,302,267,197,175,348,491,103,414,239,350,309
102528,-283,117,-91,-33,-70,-6,211,332,-116,7,200,182,388,-78,89,243,31,64,82,-61,-321,305,299,229,215,357,515,149,452,270,385,332
102529,-292,115,-122,-59,-86,-27,199,313,-138,-6,188,146,347,-117,65,214,-16,15,61,-91,-355,290,239,191,167,322,464,32,384,205,343,251
102530,-304,89,-147,-77,-92,-79,174,283,-152,-36,193,126,325,-124,21,179,-53,4,22,-123,-356,262,227,174,161,308,441,11,342,196,279,229
102531,-273,97,-114,-51,-75,-50,147,297,-121,-28,212,142,352,-106,41,177,-23,18,44,-112,-363,264,269,207,173,316,470,125,399,202,288,240
102532,-237,94,-94,-34,-61,-48,172,338,-96,-8,208,162,376,-97,46,177,-6,46,83,-112,-356,253,300,218,194,324,474,204,453,201,321,251
102533,-232,131,-127,-30,-49,-32,193,321,-90,-28,205,154,368,-115,11,182,-23,53,87,-107,-354,214,309,215,214,333,469,180,455,197,304,270
102534,-273,125,-159,-71,-84,-55,186,290,-126,-46,190,121,351,-124,6,150,-49,36,81,-108,-388,205,309,226,189,314,434,169,432,203,274,231
102535,-273,147,-162,-89,-81,-52,197,310,-143,-48,188,92,350,-123,5,132,-62,12,88,-124,-385,234,301,232,189,287,416,192,447,178,237,237
102536,-252,167,-175,-100,-72,-65,206,317,-125,-34,203,102,350,-129,24,137,4,27,82,-109,-379,234,332,239,202,307,439,297,493,186,270,241
102537,-257,186,-144,-78,-72,-38,229,296,-117,-41,214,93,348,-111,43,168,41,17,86,-95,-363,228,347,240,205,310,427,342,486,203,261,237
102538,-276,171,-163,-38,-55,-31,241,301,-122,-22,244,99,367,-120,79,212,32,52,90,-96,-334,241,369,240,208,320,441,327,467,202,238,249
102539,-237,222,-147,7,-33,31,289,315,-101,-11,285,120,377,-122,117,238,-28,46,97,-78,-297,296,288,225,212,335,461,111,381,137,204,221
102540,-212,252,-119,-19,-25,38,309,332,-126,0,280,130,356,-135,101,234,-73,10,76,-68,-312,310,191,174,163,304,437,-152,260,32,121,154
102541,-236,249,-137,-52,-27,25,316,334,-126,15,296,157,372,-119,113,253,-13,61,100,-50,-277,306,305,223,196,339,470,54,373,110,194,207
102542,-274,222,-133,-45,-35,-7,311,318,-117,-7,282,159,372,-104,114,291,-4,65,96,-57,-259,318,306,225,184,331,476,93,385,132,200,238
102543,-273,186,-116,-36,-52,-42,304,320,-132,-21,278,173,349,-127,77,258,-21,37,70,-80,-288,317,286,192,154,302,461,85,338,82,187,227
102544,-241,186,-94,-24,-41,60,313,353,-119,-11,302,217,355,-115,100,287,24,73,70,-73,-274,369,342,206,167,323,492,179,370,114,219,276
102545,-197,218,-27,16,-7,66,349,400,-104,5,367,252,382,-95,126,350,98,96,100,-70,-224,464,395,230,188,343,551,253,419,153,261,337
102546,-155,246,9,29,-14,68,409,435,-121,9,370,292,404,-115,121,339,143,117,120,-62,-220,529,385,244,198,377,581,264,443,180,277,345
102547,-127,271,36,75,10,110,448,452,-74,10,351,314,436,-81,161,368,199,166,156,-30,-188,599,416,278,244,421,638,300,475,239,338,391
102548,-130,261,31,58,0,85,433,443,-84,-3,338,314,438,-94,151,365,178,180,152,-29,-198,521,445,292,242,384,592,393,506,253,336,390
102549,-135,222,21,33,7,54,432,420,-87,15,367,292,433,-98,157,362,160,140,138,-43,-195,534,450,311,235,380,571,452,526,252,317,381
102550,-159,244,-12,14,-1,-10,380,425,-69,4,357,274,425,-98,150,345,139,113,141,-38,-192,547,413,285,230,375,592,344,456,218,297,392
102551,-176,245,-18,8,-4,55,353,423,-79,23,363,280,428,-100,153,308,135,120,141,-37,-210,547,406,266,229,387,601,307,437,209,313,402
102552,-162,290,8,60,25,91,356,435,-71,33,386,314,453,-83,176,249,200,145,144,-32,-211,548,473,279,218,386,595,424,470,223,310,385
102553,-166,266,-1,58,-1,32,323,433,-76,30,342,288,448,-88,146,206,163,132,141,-58,-242,476,436,260,192,337,541,448,448,187,259,324
102554,-182,236,-15,48,-23,36,299,430,-90,21,326,245,428,-88,132,152,73,98,97,-75,-275,478,303,212,164,319,518,170,349,126,221,303
102555,-143,253,1,36,15,55,305,440,-67,29,367,256,427,-91,151,105,58,99,120,-63,-301,459,284,205,155,325,501,47,323,121,247,287
102556,-151,246,-5,15,-2,47,298,431,-84,26,332,247,420,-91,129,128,56,95,128,-74,-293,448,305,200,176,317,508,132,330,126,229,280
102557,-155,250,7,27,-9,53,299,430,-89,18,276,258,407,-113,89,208,37,72,93,-97,-305,430,288,173,150,285,487,135,292,99,195,272
102558,-167,240,-7,15,2,58,297,415,-86,10,267,240,393,-134,72,297,26,58,82,-119,-316,405,302,183,115,276,478,242,334,100,201,273
102559,-179,225,-47,10,-21,15,258,384,-93,9,257,231,376,-137,68,295,4,28,57,-135,-315,360,269,154,93,268,462,213,309,86,167,256
102560,-193,227,-37,10,-11,14,258,378,-99,13,249,214,374,-137,78,292,18,51,58,-122,-315,368,297,166,98,278,469,301,343,113,184,268
102561,-211,213,-15,18,3,38,254,390,-93,33,285,198,372,-135,105,302,-8,34,39,-112,-287,399,232,150,96,285,480,161,313,94,222,288
102562,-228,203,-43,10,1,46,262,373,-112,35,299,184,343,-155,99,308,-51,8,10,-126,-301,396,194,135,104,285,507,66,294,95,238,291
102563,-199,259,-7,39,25,89,307,399,-105,30,311,181,343,-171,103,326,-33,0,16,-124,-283,419,187,117,102,293,524,25,244,37,191,245
102564,-119,295,24,84,45,107,333,417,-90,43,322,198,350,-149,120,324,-29,1,18,-113,-275,388,143,99,95,307,495,-125,131,-57,127,201
102565,-161,269,-28,61,39,97,310,395,-103,47,306,194,328,-163,118,306,-33,-19,4,-107,-256,362,161,116,114,326,507,-48,206,6,176,219
102566,-250,221,-65,5,24,78,278,366,-106,43,271,160,307,-167,105,285,-31,-39,9,-96,-263,338,189,110,115,332,517,29,231,48,227,237
102567,-258,222,-61,9,24,74,258,374,-113,30,277,178,299,-157,103,282,-41,-52,13,-97,-260,350,205,124,107,336,528,29,247,57,234,279
102568,-208,230,-39,-4,11,44,237,369,-125,12,263,177,299,-156,100,258,-66,-27,14,-93,-254,301,226,129,110,350,517,104,291,114,259,288
102569,-169,259,-26,6,42,61,255,358,-119,31,268,207,332,-142,111,257,-27,-5,29,-87,-249,268,238,135,140,363,523,124,314,120,258,306
102570,-167,243,-41,13,24,41,249,374,-108,14,267,220,339,-147,82,218,3,15,34,-111,-297,287,253,147,139,331,485,181,352,123,253,233
102571,-160,211,-31,51,31,46,254,380,-99,18,290,245,349,-151,101,239,25,32,49,-87,-287,362,257,155,127,349,502,109,329,127,266,298
102572,-135,166,-33,50,30,21,254,363,-105,35,274,236,346,-135,106,239,35,46,57,-84,-278,356,285,163,134,357,523,139,360,160,287,310
102573,-109,180,-23,13,27,35,267,385,-107,29,283,246,369,-124,131,275,64,63,78,-80,-248,388,295,199,173,360,554,233,405,196,315,338
102574,-127,211,-44,23,35,-26,280,388,-98,29,289,242,372,-146,139,280,76,82,91,-53,-235,439,340,202,186,391,574,297,462,241,354,368
102575,-172,224,-56,19,13,-27,270,365,-123,28,298,230,366,-140,119,282,72,81,103,-74,-259,447,352,219,188,378,570,357,514,296,378,348
102576,-192,240,-56,10,9,0,257,347,-104,28,303,257,382,-133,114,274,98,78,102,-83,-273,357,362,219,188,347,538,341,464,262,341,322
102577,-185,291,-57,27,31,-29,279,351,-82,33,324,240,371,-146,126,296,58,67,93,-74,-257,340,312,206,192,367,536,194,400,233,328,331
102578,-176,293,-63,16,19,77,303,351,-112,40,344,235,369,-145,141,306,17,51,95,-57,-244,369,264,201,214,379,558,60,375,220,325,293
102579,-174,281,-57,19,22,74,277,353,-111,33,366,217,353,-133,162,317,6,42,81,-53,-228,382,257,180,209,378,544,36,328,175,274,247
102580,-162,277,-63,22,38,77,274,365,-121,26,384,194,345,-133,157,320,17,17,75,-56,-210,400,291,170,212,383,550,141,339,168,275,301
102581,-171,272,-101,7,25,86,291,357,-118,17,340,158,318,-133,139,300,-25,-11,63,-65,-228,359,261,138,179,369,518,186,353,165,270,318
102582,-168,263,-104,24,0,54,258,349,-106,5,293,142,323,-128,115,194,-43,-30,30,-68,-263,303,230,130,174,347,493,181,310,125,263,250
102583,-191,247,-108,15,-5,17,256,360,-103,-10,221,138,313,-139,78,71,-53,-43,17,-101,-292,307,220,128,171,320,453,55,263,81,235,227
