,Fp1,Fp2,F7,F3,Fz,F4,F8,FC5,FC1,FC2,FC6,T7,C3,Cz,C4,T8,TP9,CP5,CP1,CP2,CP6,TP10,P7,P3,Pz,P4,P8,PO9,O1,Oz,O2,PO10
106300,-85,65,457,152,-177,231,-266,239,37,31,20,119,281,-152,145,65,214,-74,-5,1016,-60,247,297,197,141,79,301,-86,264,42,-66,162
106301,-69,113,475,161,-175,199,-288,272,24,36,-20,144,272,-155,152,100,7,-112,-20,1020,-35,241,147,133,103,84,351,-410,77,-76,-100,151
106302,-58,46,510,169,-155,255,-310,333,31,42,-70,137,259,-143,170,105,49,-113,-3,1034,14,226,250,180,127,134,394,-98,245,71,7,235
106303,-49,42,481,217,-143,274,-237,377,52,30,-49,124,290,-154,161,96,187,-100,1,1046,5,328,330,176,142,130,421,-56,254,100,25,329
106304,-57,80,296,152,-161,307,-114,297,47,20,-48,201,279,-149,119,56,180,-67,-16,1015,-57,260,289,185,134,79,365,-35,241,46,-88,121
106305,-58,143,368,175,-142,76,-229,363,71,43,15,157,298,-155,113,18,124,-78,-10,1012,-100,279,258,187,119,38,214,-9,215,-41,-189,-41
106306,-157,151,356,261,-161,-102,-329,397,71,11,-48,93,300,-154,91,0,51,-62,-3,1010,-67,252,280,183,135,41,267,-16,226,-16,-149,4
106307,-167,115,264,228,-176,248,-282,381,54,16,-144,59,248,-180,51,-14,83,-153,-56,955,-120,77,251,117,72,6,203,-68,164,-82,-212,-120
106308,-76,-38,263,156,-148,219,-223,398,47,19,-157,80,233,-170,59,-67,152,-160,-47,967,-150,155,242,121,79,18,173,-117,184,-44,-160,-49
106309,-34,-126,388,185,-159,109,-226,371,48,22,-109,88,231,-163,109,-158,-21,-120,-39,999,-68,173,156,145,121,44,192,-18,286,50,-127,-45
106310,-26,-125,471,148,-176,223,-253,250,25,2,-167,59,224,-140,149,-178,-13,-166,-36,1017,92,101,154,159,121,76,291,-21,270,42,-119,-51
106311,-46,4,376,124,-162,321,-295,167,22,14,-117,96,221,-146,132,-30,49,-150,-35,999,-30,173,172,135,97,41,218,-119,171,-51,-170,-16
106312,-119,122,308,144,-151,478,-436,216,13,38,16,77,218,-153,128,38,15,-154,-51,988,-196,221,165,119,89,8,141,-140,201,-27,-152,13
106313,-113,129,344,180,-147,302,-292,355,25,17,-146,6,228,-174,100,-38,-27,-151,-44,978,-131,24,97,107,72,1,177,-142,136,-77,-210,-62
106314,-145,70,352,176,-147,221,-189,423,56,0,-102,-33,257,-175,57,25,-50,-141,-46,954,-199,-21,79,133,64,-41,95,-121,149,-94,-252,-166
106315,-151,58,231,177,-135,295,-222,452,37,3,-13,-46,225,-176,90,-26,-110,-211,-65,942,-145,123,131,114,56,-16,103,-83,193,-42,-193,-72
106316,-126,36,211,217,-131,266,-212,424,44,29,-63,84,217,-162,114,53,26,-249,-41,976,-89,142,232,134,83,33,175,72,285,44,-118,-54
106317,-195,-44,221,250,-164,231,-309,307,28,33,-127,20,232,-155,123,47,125,-209,-36,1011,-46,129,190,163,108,93,303,1,299,78,-56,2
106318,-159,38,258,191,-136,329,-241,306,52,38,-98,-82,260,-137,131,-11,15,-133,-17,1002,-99,185,140,158,115,59,288,-141,241,27,-93,52
106319,-145,65,287,240,-132,268,-180,259,28,7,-152,-28,232,-141,101,24,-14,-158,-35,986,-81,238,107,115,97,37,289,-235,187,-52,-154,-14
106320,-234,1,308,244,-137,245,-184,294,37,15,-141,-48,217,-161,110,17,-35,-213,-44,976,-83,141,96,107,65,38,258,-234,131,-45,-147,-25
106321,-248,0,265,188,-166,246,-236,290,55,30,-101,-149,242,-177,107,-9,27,-203,-58,970,-105,135,137,81,39,23,171,-180,106,-64,-142,56
106322,-215,14,191,96,-165,290,-403,268,61,38,-40,-151,270,-148,130,-56,0,-156,-16,994,-90,43,167,129,86,49,209,-72,206,-18,-147,-21
106323,-190,-63,217,43,-204,238,-579,145,43,30,-14,-78,217,-140,139,-21,-77,-207,2,1029,-83,167,160,136,118,63,216,-105,252,21,-124,24
106324,-237,-142,219,22,-227,146,-398,61,29,13,-261,3,217,-122,132,7,32,-163,25,1046,-76,200,239,176,141,101,258,0,295,67,-77,92
106325,-275,-37,187,45,-195,190,-326,89,19,26,-111,11,218,-129,145,-19,7,-149,-15,1021,-64,39,188,157,125,91,235,-13,276,39,-106,61
106326,-157,104,232,64,-164,258,-230,141,4,31,-46,-25,167,-160,141,-7,-125,-217,-57,1004,-79,67,92,84,81,49,189,-274,131,-73,-191,-16
106327,4,91,299,85,-118,250,-186,132,-3,39,-42,-14,145,-156,155,19,-192,-237,-85,1011,-76,4,85,60,54,51,186,-221,136,-78,-198,-35
106328,141,133,377,76,-129,304,-190,154,-14,42,-109,-17,164,-156,143,-26,-54,-220,-64,991,-97,199,116,94,61,40,175,-41,199,-38,-167,-53
106329,39,154,352,101,-149,205,-164,193,-1,30,-128,-104,165,-152,146,-47,-110,-235,-67,1001,-87,119,110,102,81,52,177,-57,236,-11,-174,-100
106330,-46,7,209,108,-140,58,-164,98,-4,44,-120,-148,157,-147,169,-47,-38,-238,-58,1025,-61,-34,139,102,103,68,170,-51,247,6,-146,-79
106331,-51,15,201,117,-130,152,-189,131,4,32,-169,-176,186,-150,148,-64,-86,-218,-45,1015,-94,19,81,86,99,46,185,-261,169,-22,-153,-39
106332,-106,25,195,113,-127,235,-145,134,4,41,-143,-186,171,-152,123,-71,-280,-244,-59,1011,-122,100,28,66,65,23,165,-341,125,-81,-206,-70
106333,-82,129,186,142,-149,328,-125,139,9,27,-110,-165,174,-157,134,-118,-218,-237,-62,991,-107,115,66,90,49,-1,165,-245,129,-90,-197,-20
106334,7,217,208,167,-139,393,-152,178,14,13,-128,-187,163,-183,107,-81,-270,-272,-83,961,-127,48,-2,47,38,-22,122,-350,100,-120,-243,-101
106335,29,221,216,166,-116,387,-151,215,26,32,-90,-62,222,-176,116,-79,-210,-236,-66,956,-127,-53,34,82,59,-7,93,-244,158,-90,-255,-147
106336,-25,214,178,139,-118,334,-180,155,16,19,-77,-170,197,-196,101,-121,-287,-250,-79,952,-142,-71,44,93,54,-31,88,-127,198,-77,-258,-124
106337,-18,222,154,170,-97,373,-176,172,38,46,-29,-319,178,-181,140,-79,-167,-277,-75,974,-107,35,88,99,39,-13,111,-89,223,-57,-253,-155
106338,12,291,202,202,-80,345,-142,200,36,70,-44,-202,188,-162,143,-62,-75,-245,-74,954,-118,-43,102,103,45,-15,108,-168,202,-48,-234,-133
106339,161,336,294,300,-63,290,-66,277,64,22,-45,-72,220,-168,115,-1,-105,-188,-41,954,-121,13,126,116,64,-17,127,-168,197,-46,-211,-81
106340,215,184,307,240,-82,326,-166,312,57,19,-82,-24,240,-178,108,21,-93,-163,-52,992,-104,88,119,131,77,11,183,-227,161,-60,-192,-8
106341,199,206,262,140,-105,303,-141,218,25,26,-92,-68,210,-195,90,-35,-153,-235,-100,941,-180,1,74,67,22,-49,91,-402,34,-174,-283,-113
106342,77,204,219,127,-122,159,-210,83,23,7,-127,-53,203,-192,70,-41,-212,-250,-87,928,-172,126,135,71,24,-37,129,-272,95,-139,-248,-58
106343,1,226,127,184,-124,270,-234,234,45,-5,-155,-147,221,-175,61,-236,-176,-219,-73,930,-172,-61,89,84,35,-42,96,-231,185,-80,-222,-100
106344,44,248,133,185,-120,323,-257,209,33,6,-151,-267,210,-184,89,-134,-116,-223,-69,929,-122,-97,-49,62,46,-26,101,-325,115,-137,-263,-134
106345,61,239,210,221,-112,331,-235,210,35,11,-156,-196,218,-165,88,34,-70,-221,-64,951,-127,-39,30,92,66,-23,172,-258,122,-131,-254,-116
106346,74,228,243,262,-118,307,-254,293,42,2,-132,-185,211,-142,84,40,-90,-229,-55,970,-151,17,68,129,91,-21,148,-145,222,-51,-217,-201
106347,109,251,204,234,-117,295,-214,277,26,10,-115,-174,198,-153,85,-153,-146,-213,-48,985,-168,27,99,137,98,13,150,-70,261,4,-140,-37
106348,118,288,225,162,-98,291,-221,263,40,41,-37,-90,228,-157,146,38,-101,-206,-56,994,-48,-5,44,78,87,52,236,-384,121,-92,-205,-58
106349,83,224,149,123,-123,447,-358,262,29,58,132,-40,225,-163,145,-76,-105,-200,-61,981,-101,-10,106,89,90,23,185,-268,178,-44,-183,-104
106350,44,230,256,156,-118,446,-389,333,28,55,172,59,218,-166,113,-89,-141,-211,-74,957,-176,-76,95,77,65,6,108,-199,164,-81,-190,-66
106351,21,243,275,265,-104,330,-350,392,55,63,-62,56,218,-176,117,-63,-94,-279,-64,963,-141,6,116,69,51,19,138,-100,198,-94,-224,-106
106352,-4,146,-8,241,-88,421,-388,445,17,106,-11,-273,182,-181,169,-119,-129,-316,-86,974,-83,83,114,68,47,5,202,-175,197,-61,-187,-18
106353,74,81,80,210,-100,462,-367,611,23,81,-124,-368,223,-170,147,-108,-96,-228,-87,945,-91,-15,63,57,27,-12,205,-306,129,-112,-246,-90
106354,74,62,88,203,-126,416,-380,476,32,74,-112,-157,220,-150,140,-62,-212,-226,-70,961,-72,-36,47,65,55,23,274,-270,141,-90,-189,-117
106355,74,126,120,191,-116,30,-401,305,29,77,-101,-33,227,-134,159,-89,-150,-173,-50,991,-77,54,122,115,86,62,218,-108,269,53,-96,68
106356,114,181,196,183,-96,58,-376,287,35,53,-116,-32,225,-140,142,-107,-21,-179,-40,981,-107,54,181,114,47,51,149,-41,307,51,-114,103
106357,162,179,227,160,-101,231,-334,173,31,41,-126,-88,209,-146,150,-142,-49,-215,-53,972,-50,2,153,94,37,12,171,-180,191,-79,-205,-14
106358,125,118,194,126,-103,379,-249,174,16,56,-92,-102,209,-145,199,-139,-41,-243,-60,985,78,36,146,76,38,30,232,-192,165,-125,-255,-114
106359,67,155,138,134,-126,380,-221,148,17,31,-159,-9,212,-161,160,-6,-10,-219,-78,955,-72,78,128,58,20,3,208,-176,119,-145,-256,-112
106360,107,208,193,161,-118,317,-102,193,45,22,-163,-48,220,-151,110,19,-89,-189,-61,937,-269,69,150,85,19,-18,97,-102,188,-98,-264,-131
106361,112,253,207,160,-141,276,-142,220,39,28,-134,-121,237,-150,136,-96,-133,-174,-45,988,-98,14,185,108,38,32,139,-41,238,-40,-176,-81
106362,122,267,218,130,-117,300,-136,246,58,50,-97,-49,261,-140,156,-55,-65,-148,-55,997,-90,79,139,93,56,42,204,-279,156,-81,-170,3
106363,80,247,219,53,-153,325,-96,195,31,44,-71,-46,214,-152,173,13,-51,-197,-60,974,-55,103,107,68,46,35,227,-347,143,-83,-168,51
106364,45,250,219,29,-167,350,-148,97,6,23,-70,-7,190,-156,172,65,-126,-218,-57,977,-67,59,156,99,49,36,204,-100,239,-14,-144,43
106365,66,208,199,147,-136,393,-280,195,29,16,-150,-1,217,-175,125,62,-105,-199,-66,963,-81,-97,161,105,41,20,210,-100,210,-71,-163,76
106366,62,164,237,269,-127,377,-316,273,44,30,-117,-127,233,-154,139,70,-73,-181,-52,978,-44,-13,102,79,40,41,273,-226,151,-92,-182,118
106367,102,172,240,208,-144,336,-254,224,40,54,-13,-98,243,-154,126,-99,-176,-197,-69,941,-130,84,116,83,25,-16,117,-230,192,-93,-232,-109
106368,122,176,276,158,-121,240,-317,144,41,47,23,-37,219,-192,105,-54,-104,-182,-88,904,-177,-25,102,57,-20,-72,-10,-361,111,-167,-365,-409
106369,88,117,268,86,-111,11,-296,86,35,52,20,-78,213,-172,120,10,-116,-213,-76,922,-142,-16,67,47,-28,-47,109,-457,33,-188,-313,-207
106370,13,-78,287,60,-133,212,-317,-37,28,59,-133,-46,204,-143,96,-22,-143,-205,-56,932,-143,52,140,83,17,-4,146,-247,168,-67,-196,-5
106371,-43,-125,283,145,-163,392,-330,254,25,66,-65,-29,211,-157,99,-94,-116,-221,-74,910,-164,-98,101,59,-24,-52,79,-231,111,-136,-274,-99
106372,-18,30,240,152,-132,399,-313,338,25,62,60,-70,211,-161,143,-87,-231,-258,-99,925,-170,35,7,10,-33,-57,76,-352,52,-197,-276,-124
106373,82,183,230,192,-126,229,-291,342,34,70,123,-111,215,-130,137,-24,-155,-234,-79,958,-100,125,83,42,0,-23,128,-301,99,-146,-239,-75
106374,0,131,132,138,-134,288,-291,380,52,72,-54,-144,215,-132,157,50,-45,-227,-62,959,-58,92,103,53,1,0,172,-291,105,-133,-219,-77
106375,-35,98,70,193,-135,417,-306,354,49,67,-149,-176,221,-143,151,-42,-128,-208,-63,951,-126,47,78,44,14,-22,111,-226,134,-121,-220,-125
106376,22,121,113,261,-113,280,-282,458,54,68,-181,-182,263,-131,146,-97,-90,-165,-61,957,-101,22,100,66,31,-24,97,-171,167,-97,-233,-189
106377,48,161,226,288,-109,-24,-212,395,35,50,-247,-168,212,-135,138,3,-102,-252,-68,959,-74,-63,101,63,35,-16,114,-178,156,-69,-217,-231
106378,113,228,287,220,-126,58,-158,240,20,23,-185,-152,175,-152,83,67,-81,-287,-78,954,-147,-47,86,50,30,-10,85,-239,128,-96,-209,-128
106379,84,146,181,199,-166,208,-208,264,15,2,-146,-108,176,-171,107,37,-148,-305,-85,943,-93,10,24,35,24,13,235,-303,117,-108,-202,-158
106380,87,143,204,243,-155,277,-286,331,62,35,-100,-52,243,-139,93,-148,-186,-219,-44,970,-173,-74,81,81,68,4,38,-207,185,-42,-149,-54
106381,27,178,214,171,-123,310,-377,323,52,68,28,-94,237,-125,136,-113,-195,-187,-30,990,-157,-21,120,108,91,28,16,-142,240,-11,-114,-37
106382,5,117,204,120,-168,266,-331,284,40,28,-156,-124,233,-143,117,-8,-141,-207,-50,991,-119,59,118,111,90,34,113,-94,268,-11,-136,-101
106383,4,81,257,93,-170,260,-234,209,49,20,-259,-78,235,-127,132,18,-36,-209,-42,997,-103,42,109,111,93,27,112,-160,205,-37,-175,-130
106384,-80,59,140,85,-176,321,-254,218,41,37,-122,-42,213,-117,173,33,-36,-261,-37,1002,-67,13,111,103,100,44,120,-220,169,-65,-172,-118
106385,-111,30,130,115,-183,290,-293,299,15,14,-122,48,209,-128,121,-227,-80,-230,-16,1005,-148,-5,156,154,97,53,126,-23,304,49,-71,-16
106386,-89,59,113,97,-162,172,-373,282,28,37,-135,-17,240,-111,141,-150,-103,-200,-13,1035,-96,-42,183,173,125,87,151,-16,326,82,-46,-11
106387,14,142,168,27,-158,78,-284,135,34,48,-113,-180,246,-106,165,-140,-121,-179,-7,1049,-64,13,166,186,146,134,200,-110,331,90,-21,-24
106388,82,220,263,71,-154,237,-260,125,43,59,-37,-30,256,-102,195,-97,-54,-155,14,1079,-5,120,142,188,168,185,257,-164,360,133,18,49
106389,25,184,269,71,-168,285,-279,155,41,48,-71,7,251,-125,172,-14,-37,-183,16,1064,1,146,214,230,176,190,329,45,440,203,85,184
106390,-8,171,320,186,-161,400,-326,221,26,46,-65,-59,251,-121,174,33,-40,-126,36,1056,6,164,253,263,208,194,362,128,522,278,162,185
106391,-11,160,282,209,-148,400,-314,280,26,64,-7,-47,263,-119,189,67,-29,-116,27,1060,8,40,198,266,185,200,338,40,535,285,155,137
106392,-22,77,101,164,-178,343,-339,163,14,34,0,-1,234,-143,171,23,-56,-191,-34,1012,-34,135,90,170,109,145,294,-309,291,85,-3,104
106393,3,49,77,192,-168,420,-268,216,23,74,111,-59,225,-137,187,135,-34,-176,-48,1004,15,214,107,159,110,141,324,-303,235,23,-68,79
106394,9,35,204,160,-158,472,-382,266,13,90,214,-116,201,-146,187,56,23,-168,-21,1009,-40,113,203,193,123,118,267,-102,346,108,13,165
106395,-20,39,151,93,-145,394,-443,206,4,82,115,-104,204,-146,184,58,-29,-178,-41,999,-31,81,174,191,99,88,289,-3,379,112,-11,178
106396,30,18,90,127,-129,324,-346,364,27,72,-70,-125,224,-175,160,-127,-144,-183,-46,983,-52,142,157,174,88,94,299,47,396,109,-30,125
106397,8,-10,61,196,-128,316,-253,380,21,51,-85,-130,214,-175,149,18,-249,-203,-38,972,-51,202,111,148,75,70,303,-278,303,80,-24,153
106398,-24,79,79,228,-118,190,-137,253,4,18,-162,-90,198,-159,108,95,-20,-200,-64,961,-114,261,133,133,56,51,307,-319,291,74,-15,223
106399,54,181,157,176,-101,25,-85,231,5,48,-155,-52,196,-157,126,20,25,-191,-56,986,-56,242,235,149,69,73,314,-30,383,109,-28,99
106400,40,204,235,155,-142,179,-95,206,20,34,-136,-20,214,-165,140,64,6,-169,-60,1004,-8,238,236,128,67,65,416,-53,333,58,-100,10
106401,30,217,315,150,-142,392,-97,184,23,34,-94,-31,208,-151,161,95,53,-144,-60,1010,-15,77,264,148,63,64,351,-14,335,51,-65,96
106402,7,210,396,174,-127,301,-110,134,21,48,-70,-23,230,-141,169,130,139,-125,-42,1017,-27,35,241,149,55,50,229,-6,358,82,-28,218
106403,98,276,391,124,-112,135,-69,97,13,55,-69,12,242,-144,183,94,51,-142,-48,1011,-11,170,201,139,71,57,343,-89,315,76,-56,177
106404,135,245,309,116,-139,286,-70,287,28,70,-48,24,252,-145,186,124,164,-114,-38,989,-11,229,240,171,63,48,308,8,351,76,-47,108
106405,162,183,283,153,-152,319,-94,390,53,66,-30,-16,282,-148,173,100,126,-74,-39,977,-40,140,238,185,43,39,302,94,424,106,-44,61
106406,140,163,264,144,-156,320,-124,401,33,44,-58,-63,230,-176,148,55,31,-174,-72,956,-72,150,231,142,20,11,287,108,406,110,-84,88
106407,94,185,293,111,-132,387,-162,228,42,63,10,-50,217,-165,177,84,33,-181,-67,971,-22,185,295,146,37,24,318,85,370,67,-63,123
106408,64,188,285,138,-137,447,-293,167,26,89,169,-12,215,-156,194,123,24,-148,-60,981,-14,195,217,132,35,24,318,-68,272,4,-101,144
106409,97,186,289,208,-148,460,-249,208,41,75,150,-5,236,-162,192,49,16,-179,-56,989,-27,171,121,103,31,22,331,-173,201,1,-90,187
106410,35,63,237,160,-136,405,-258,236,39,65,166,-102,232,-175,189,12,62,-143,-57,980,-22,193,248,123,40,40,341,18,273,46,-58,187
106411,22,3,272,89,-149,399,-367,305,39,84,162,-108,214,-161,173,-88,119,-171,-78,972,-35,123,260,93,21,7,302,-22,228,-9,-108,119
106412,92,91,310,144,-125,447,-193,379,33,80,66,66,232,-159,210,12,72,-141,-67,990,-2,139,230,103,29,8,309,-106,223,-27,-123,107
106413,167,212,327,45,-119,394,-62,404,37,80,-63,185,238,-147,168,172,102,-90,-45,972,-50,244,297,147,65,8,351,50,306,58,-86,141
106414,147,302,291,64,-119,261,-128,282,15,67,23,112,227,-130,165,94,15,-134,-25,974,-49,240,291,116,61,13,273,147,332,80,-55,135
106415,145,264,329,153,-111,229,-194,239,7,72,10,93,213,-130,163,28,-92,-162,-35,1003,-56,138,225,101,71,25,251,52,276,63,-41,184
106416,77,134,303,209,-123,304,-259,281,10,77,-34,39,196,-145,172,73,-15,-213,-82,981,-64,88,140,33,19,-4,244,-158,105,-89,-153,99
106417,5,126,162,212,-125,383,-171,276,12,62,-50,-26,204,-146,184,48,-18,-215,-76,996,1,205,196,89,30,36,325,7,208,-11,-100,125
106418,52,278,188,247,-107,364,-65,359,55,76,1,49,229,-153,191,-3,39,-219,-65,989,15,174,205,80,43,39,316,-84,145,-73,-146,76
106419,51,283,191,264,-104,473,-111,486,22,86,90,0,235,-158,192,92,-43,-252,-79,971,-29,216,139,41,37,7,219,-145,116,-84,-172,84
106420,-18,123,199,232,-110,501,-278,508,34,112,120,-152,255,-143,211,201,-40,-187,-53,1002,9,187,178,108,66,52,285,-27,215,9,-88,171
106421,-28,73,155,216,-115,360,-283,368,50,90,40,-190,253,-145,193,96,-51,-200,-39,1013,-13,65,116,89,75,63,293,-176,151,-4,-92,194
106422,-53,114,131,256,-129,338,-255,302,16,50,-98,-188,231,-154,170,2,-64,-234,-54,990,-71,115,99,77,74,62,256,-194,153,-39,-138,126
106423,-15,34,102,237,-117,190,-232,295,41,79,-84,-122,253,-151,197,67,25,-205,-54,1011,-3,145,150,97,67,64,300,-143,190,-47,-177,64
106424,-47,48,140,195,-112,196,-169,273,70,76,-30,-110,248,-157,209,108,-38,-181,-54,1021,14,125,157,111,74,63,273,-43,186,-61,-166,126
106425,-34,86,189,202,-127,198,-129,270,63,74,-23,-50,244,-158,188,97,-44,-167,-52,1007,-40,109,158,120,85,55,207,-35,205,-27,-162,82
106426,76,143,192,209,-119,325,-188,209,45,71,12,-53,237,-169,209,138,-65,-227,-63,1012,-20,220,70,83,68,65,251,-294,100,-89,-219,-115
106427,127,221,225,128,-122,260,-150,165,54,61,12,-64,227,-163,210,80,-74,-237,-55,1024,-12,273,95,81,88,99,240,-217,92,-113,-227,-89
106428,131,314,333,127,-130,173,-109,191,38,64,-24,-54,235,-151,196,102,1,-206,-50,1029,-45,186,159,96,100,65,190,-133,92,-119,-226,-27
106429,150,332,291,210,-115,319,-152,229,64,59,-49,-2,259,-133,223,138,-28,-163,-22,1074,33,200,150,131,129,103,260,-236,139,-50,-142,90
106430,138,296,252,137,-131,394,-89,148,40,74,-15,61,243,-131,246,-9,-26,-153,-22,1087,116,75,143,144,139,144,321,-277,151,-35,-135,131
106431,94,219,300,42,-136,356,-79,128,6,70,-43,0,222,-137,269,0,26,-172,-9,1098,239,72,171,133,148,165,311,-208,185,-43,-147,40
106432,80,171,280,101,-128,372,-82,185,-4,46,-6,-53,213,-160,195,186,-19,-190,-42,1036,-45,147,146,117,119,69,173,-242,118,-113,-243,-101
106433,58,203,260,143,-135,351,-76,207,-6,59,36,-68,231,-139,214,129,-102,-183,-27,1063,-96,99,162,156,152,106,214,-150,163,-60,-220,-113
106434,63,177,208,166,-139,341,-156,302,27,68,-13,-1,264,-118,248,87,-63,-131,5,1102,55,9,198,205,167,153,274,-136,252,8,-129,-3
106435,63,125,187,181,-134,281,-178,394,32,63,-30,-4,280,-113,201,78,-80,-105,4,1077,-45,109,183,199,187,112,189,-87,277,21,-133,38
106436,42,158,153,152,-126,326,-185,329,20,64,-12,-146,232,-127,198,20,44,-199,3,1092,-39,38,228,191,194,121,233,22,311,39,-112,38
106437,-31,126,116,98,-119,384,-326,292,23,75,95,-177,230,-142,211,22,-44,-221,-16,1047,-36,-10,174,153,147,102,220,-83,233,-10,-150,21
106438,-30,188,197,84,-123,316,-378,207,9,84,198,-93,219,-155,248,76,-136,-202,-38,1042,-4,50,99,133,145,95,224,-261,177,-23,-130,32
106439,-21,224,237,69,-134,362,-332,134,7,63,29,86,245,-144,199,4,-105,-194,-18,1064,-4,36,119,175,178,145,287,-189,245,42,-51,91
106440,-31,172,249,82,-132,521,-236,176,46,104,-14,41,274,-135,228,126,-18,-190,12,1070,24,43,236,204,204,165,321,18,303,39,-77,99
106441,-76,81,240,153,-155,488,-305,191,28,84,220,-234,225,-142,232,193,-151,-203,-8,1048,-7,55,182,186,170,98,242,77,309,23,-134,52
106442,-13,125,157,222,-162,137,-405,307,55,71,158,-248,263,-127,217,40,-118,-172,-2,1067,-8,68,151,204,169,106,250,-75,252,29,-92,127
106443,28,158,185,252,-138,56,-285,414,55,76,-63,-136,280,-131,231,-48,9,-156,9,1062,-24,54,131,184,174,120,237,-244,173,-11,-137,47
106444,-15,101,139,252,-127,395,-234,421,59,71,-100,-77,267,-114,198,55,63,-158,-12,1075,-51,81,171,182,177,104,211,-201,214,7,-135,-28
106445,-29,141,134,207,-124,383,-188,303,52,68,-113,-37,248,-122,163,109,-17,-151,-12,1064,-45,48,175,177,159,97,235,-211,201,-10,-136,72
106446,-23,161,110,158,-131,214,-237,218,18,62,-102,-45,228,-127,185,56,-74,-146,0,1058,-19,46,192,219,179,109,304,-20,321,60,-104,42
106447,-1,139,174,144,-148,298,-302,199,16,51,-126,-46,232,-116,184,-91,-32,-154,-13,1049,-41,24,155,192,159,85,346,-174,263,12,-153,-131
106448,41,165,178,143,-150,225,-261,167,22,61,-77,66,217,-106,193,-44,2,-166,-2,1033,-58,107,155,198,169,65,138,-290,225,-5,-126,31
106449,26,121,225,165,-163,214,-283,282,29,45,-84,10,225,-111,197,48,-42,-186,3,1058,-38,171,181,211,179,80,197,-154,301,50,-89,28
