,Fp1,Fp2,F7,F3,Fz,F4,F8,FC5,FC1,FC2,FC6,T7,C3,Cz,C4,T8,TP9,CP5,CP1,CP2,CP6,TP10,P7,P3,Pz,P4,P8,PO9,O1,Oz,O2,PO10
46798,-392,-347,366,-42,-46,295,-68,538,174,51,184,410,522,220,237,205,157,147,276,345,101,403,388,291,-141,374,368,82,379,322,309,305
46799,-405,-298,393,-59,-58,323,-85,503,166,59,221,424,501,234,229,228,152,154,277,330,102,369,432,293,-153,363,343,180,411,329,297,258
46800,-439,-279,350,-71,-54,301,-149,536,143,41,166,398,506,216,226,178,190,160,254,324,86,399,474,316,-141,380,361,264,490,405,347,353
46801,-426,-295,316,-52,-65,321,-192,563,150,35,176,312,488,181,228,141,163,119,217,294,60,396,371,249,-193,342,339,24,352,305,247,322
46802,-355,-278,357,-7,-62,307,-128,559,166,21,178,322,472,159,198,137,226,96,182,245,30,310,349,207,-256,270,292,-14,285,206,141,195
46803,-326,-266,354,-27,-57,314,-108,554,158,12,162,316,448,129,188,273,168,66,154,210,17,266,325,158,-288,238,308,-7,250,167,106,61
46804,-328,-236,328,-41,-48,305,-71,509,139,14,163,306,418,125,197,199,53,48,133,198,28,267,334,162,-326,224,335,16,304,203,142,50
46805,-389,-278,292,-50,-41,311,-92,518,108,8,153,258,379,84,147,55,103,25,88,150,-27,290,292,113,-377,164,278,-104,220,157,115,144
46806,-393,-309,340,-48,-41,322,-91,478,81,-17,121,282,366,57,123,12,170,31,68,104,-59,162,296,88,-416,144,244,-70,206,123,61,113
46807,-352,-297,360,-73,-49,334,-52,475,82,-7,150,347,374,52,136,77,103,65,82,106,-55,213,336,104,-403,145,249,30,282,143,67,35
46808,-353,-301,361,-67,-72,327,-74,523,88,-14,150,375,390,80,149,119,64,71,98,134,-30,264,348,146,-387,177,240,122,330,195,129,18
46809,-356,-303,342,-62,-55,345,-50,479,105,17,199,449,410,103,177,132,83,83,120,195,20,132,363,153,-350,229,283,79,324,238,209,161
46810,-329,-347,326,-63,-52,329,-30,472,121,11,155,397,420,95,185,107,17,60,132,172,4,286,332,164,-325,237,298,60,314,250,239,254
46811,-322,-374,304,-72,-68,334,-67,493,100,3,118,309,422,99,173,117,52,66,138,173,13,187,311,164,-335,246,352,61,327,243,271,249
46812,-328,-328,309,-61,-43,357,-77,476,103,27,159,301,423,120,201,122,68,77,142,196,42,243,311,176,-329,264,368,43,338,300,313,266
46813,-313,-263,303,-53,-60,326,-103,506,112,9,190,296,405,93,195,117,37,49,126,198,46,409,280,155,-340,285,335,-74,274,277,313,331
46814,-281,-246,353,-37,-55,303,-41,481,125,38,227,291,414,123,222,221,109,57,158,245,104,498,315,162,-299,328,430,28,337,320,345,339
46815,-273,-296,351,-79,-59,334,0,453,104,32,211,279,379,124,232,275,106,23,121,242,117,499,277,130,-329,331,500,43,311,303,326,297
46816,-327,-236,335,-96,-55,333,3,419,73,3,215,215,345,100,224,215,33,-37,92,221,105,448,210,89,-369,314,468,-56,222,265,302,319
46817,-289,-213,358,-81,-48,319,31,410,69,17,306,196,348,116,225,169,33,-29,92,234,86,437,226,90,-339,314,448,-51,246,277,333,376
46818,-284,-249,398,-79,-64,312,16,426,77,6,260,165,341,103,225,163,72,-45,92,239,78,340,243,67,-328,328,451,-56,233,253,318,328
46819,-229,-226,425,-52,-46,340,41,461,93,11,249,239,363,111,223,222,70,-32,93,233,73,378,281,96,-322,327,430,-36,234,253,262,203
46820,-218,-179,383,-53,-56,325,63,475,100,25,253,279,387,117,226,250,146,23,118,252,97,293,342,147,-271,349,401,94,334,330,324,326
46821,-225,-171,400,-44,-51,373,92,480,112,42,291,328,408,138,264,294,170,59,153,283,136,322,419,187,-235,400,440,259,422,411,405,394
46822,-239,-228,375,-54,-49,379,81,496,91,38,288,292,384,106,272,271,145,43,115,277,127,361,409,182,-254,395,433,265,423,403,396,291
46823,-251,-211,348,-65,-63,358,83,501,94,27,276,296,381,94,264,263,41,24,115,271,131,98,365,164,-264,382,402,161,377,379,377,312
46824,-319,-199,382,-37,-57,340,74,501,88,27,273,292,383,92,244,300,11,31,122,265,116,74,366,186,-253,380,355,149,373,355,352,261
46825,-347,-254,399,-32,-46,361,-6,473,81,25,236,302,369,94,234,298,143,44,132,234,77,194,411,200,-246,334,255,164,379,324,277,178
46826,-307,-264,391,-58,-50,360,-14,430,91,53,253,271,374,111,261,276,57,20,147,247,68,279,315,175,-268,317,303,-6,326,302,276,235
46827,-263,-242,376,-87,-53,373,17,462,79,55,226,229,346,134,255,283,1,-16,127,270,84,312,253,140,-281,322,372,-46,285,258,233,125
46828,-317,-282,361,-101,-69,339,21,468,43,45,253,160,347,128,240,270,-49,-20,117,248,47,272,234,139,-279,297,284,-42,286,260,222,136
46829,-330,-282,357,-71,-54,362,8,496,98,69,255,236,382,158,259,235,48,30,168,292,67,326,326,221,-222,324,268,30,366,308,255,150
46830,-336,-315,332,-80,-60,334,-28,498,84,46,240,247,382,151,260,104,65,44,154,279,53,256,342,217,-202,318,215,101,397,319,262,131
46831,-334,-310,345,-92,-62,324,-6,481,86,47,223,266,403,170,254,123,68,30,181,310,52,269,305,187,-186,326,216,77,332,284,228,153
46832,-368,-286,386,-43,-37,351,-4,500,133,82,270,323,433,181,287,134,89,48,203,317,67,302,336,231,-172,331,214,83,340,263,200,110
46833,-375,-310,377,-59,-53,310,-24,552,98,41,265,281,400,154,237,98,59,55,162,272,-6,227,291,190,-231,246,138,-90,251,155,96,12
46834,-355,-310,384,-74,-69,315,-16,538,92,31,232,321,407,128,206,112,155,80,149,249,-48,188,348,180,-254,217,112,1,270,150,86,27
46835,-342,-275,381,-85,-64,338,-5,512,110,25,210,381,444,154,200,151,165,134,177,239,-40,136,451,246,-225,222,115,211,380,197,101,-8
46836,-322,-255,374,-52,-56,316,-11,565,107,16,149,407,465,141,185,89,123,153,188,233,-54,185,503,270,-229,196,120,225,399,222,117,-16
46837,-334,-248,394,-20,-60,312,-49,597,100,11,183,400,467,123,196,50,76,143,182,207,-68,251,433,238,-264,170,101,141,370,239,138,118
46838,-301,-241,425,-47,-75,309,-21,579,84,-26,163,396,457,100,153,-65,145,102,144,161,-119,169,362,198,-297,99,-32,181,322,141,32,11
46839,-307,-236,374,-23,-53,339,-24,588,115,8,212,444,460,111,180,-89,255,137,167,186,-84,141,429,237,-304,108,-12,314,386,165,52,32
46840,-315,-226,340,-21,-51,365,0,616,118,22,233,414,482,131,208,-12,175,140,178,193,-53,133,383,220,-317,127,37,207,321,125,-2,-5
46841,-245,-229,438,-4,-57,336,39,638,145,19,175,379,477,139,187,91,107,102,151,182,-47,141,270,144,-348,99,50,-205,145,-14,-114,-129
46842,-268,-262,477,-4,-49,324,0,629,131,28,194,403,460,129,197,159,120,99,146,200,-28,162,282,149,-335,114,109,-95,200,40,-45,-40
46843,-277,-265,477,-12,-51,349,-3,578,123,25,166,455,448,124,188,131,157,109,140,179,-38,161,338,157,-338,117,155,45,254,80,-16,26
46844,-267,-234,449,-28,-54,364,4,565,110,44,155,475,434,121,174,152,158,90,121,146,-57,160,298,122,-380,84,160,-35,221,24,-51,-61
46845,-322,-239,442,-50,-50,368,48,524,92,30,288,392,389,97,182,42,95,42,80,122,-91,132,265,71,-424,51,74,-30,196,-5,-71,-105
46846,-327,-221,452,-58,-53,353,77,524,81,6,202,366,382,83,162,28,53,10,60,86,-116,176,245,32,-446,8,-7,-55,144,-5,-76,-40
46847,-320,-203,487,-58,-63,352,58,564,87,3,166,404,413,81,151,18,114,31,53,86,-149,153,268,46,-446,10,-26,-48,127,4,-56,6
46848,-341,-187,479,-53,-71,334,83,571,68,-7,174,465,397,81,155,114,150,56,59,116,-105,162,285,70,-416,50,45,-35,124,23,-19,61
46849,-297,-210,476,-68,-70,351,92,552,78,5,244,498,409,97,213,300,168,93,84,149,-30,302,365,105,-384,137,206,93,227,117,88,87
46850,-253,-202,498,-39,-52,373,140,598,98,34,258,524,440,121,241,377,176,135,119,184,14,378,392,120,-352,191,309,83,250,166,153,113
46851,-291,-206,469,-30,-30,372,155,600,112,54,276,514,441,146,229,316,162,138,134,171,49,382,400,144,-353,194,306,90,222,159,161,162
46852,-342,-233,451,-50,-43,354,120,546,99,36,281,468,418,129,218,234,173,145,121,171,40,281,396,119,-365,196,261,93,217,172,185,215
46853,-358,-296,428,-73,-54,373,66,552,86,33,297,417,404,137,233,245,192,115,111,197,57,308,413,114,-393,206,254,-42,194,137,167,212
46854,-383,-271,426,-97,-50,363,24,563,80,43,306,419,393,126,257,223,90,80,100,202,74,361,365,121,-390,221,290,-14,246,176,192,202
46855,-399,-272,401,-92,-63,327,-106,482,67,26,342,388,389,121,230,208,107,51,83,192,60,423,319,99,-387,224,352,-20,223,173,231,229
46856,-401,-262,374,-87,-64,349,-84,459,87,39,325,342,385,128,244,239,131,43,103,216,111,479,311,100,-352,258,456,26,265,197,260,277
46857,-345,-253,343,-98,-49,360,-19,524,95,69,365,352,405,131,273,371,124,66,136,256,183,351,355,133,-322,318,521,139,343,247,315,267
46858,-303,-225,360,-121,-45,372,65,511,82,70,361,369,410,149,280,404,83,72,139,277,214,448,341,137,-310,339,540,92,334,259,293,241
46859,-309,-219,351,-124,-68,357,178,494,88,69,362,365,393,150,297,374,90,51,139,302,247,638,370,137,-290,365,520,127,352,276,314,311
46860,-335,-232,361,-129,-53,372,194,501,75,72,357,351,398,164,302,362,81,41,150,299,238,571,366,133,-302,380,465,164,360,282,304,297
46861,-251,-187,416,-120,-24,393,238,495,104,87,372,342,423,200,330,376,36,41,168,332,254,497,346,152,-248,402,495,131,358,296,338,296
46862,-256,-207,357,-126,-37,395,218,470,93,83,358,297,411,171,337,359,61,16,163,339,231,423,294,146,-255,407,474,127,358,315,339,351
46863,-315,-222,315,-146,-72,366,165,454,82,60,237,274,386,166,294,356,21,-6,154,328,206,475,244,121,-273,412,474,61,330,297,317,324
46864,-337,-195,278,-142,-58,365,134,454,76,58,241,252,389,162,287,331,-4,-15,151,298,191,520,226,116,-266,388,455,64,294,270,307,285
46865,-367,-209,262,-131,-44,384,120,417,69,62,289,171,380,163,298,321,11,-50,144,295,172,514,250,118,-243,375,408,161,315,268,277,233
46866,-358,-251,256,-167,-59,356,85,384,56,61,290,112,328,142,292,335,35,-52,136,296,169,447,260,121,-250,361,373,209,332,282,290,220
46867,-328,-213,263,-184,-62,367,92,357,48,73,318,72,312,156,293,351,-28,-83,118,293,180,452,170,89,-253,354,381,-9,238,246,302,299
46868,-354,-220,268,-156,-24,388,93,349,58,89,327,68,335,169,295,306,5,-58,140,312,153,467,245,135,-221,377,381,119,348,326,334,300
46869,-370,-244,264,-147,-64,352,51,380,58,85,283,87,351,164,288,372,35,-9,171,311,149,397,337,192,-200,372,376,302,461,399,335,229
46870,-354,-244,281,-130,-59,343,32,405,76,95,295,111,360,192,311,347,-2,-4,190,322,165,356,332,218,-160,394,372,237,445,363,314,278
46871,-388,-304,294,-108,-37,368,27,387,79,99,311,83,366,205,324,286,34,-11,201,325,147,351,342,222,-158,405,397,246,415,343,324,339
46872,-390,-359,223,-127,-56,372,33,372,62,92,273,71,338,194,303,205,-11,-51,172,293,109,275,287,164,-203,369,391,91,317,275,258,301
46873,-367,-312,248,-147,-42,357,50,331,90,89,270,165,348,210,281,183,25,-6,183,311,112,247,324,186,-189,360,434,50,342,294,253,322
46874,-364,-295,260,-151,-27,382,-12,354,88,89,290,195,355,208,288,248,10,6,179,295,103,316,304,167,-216,320,381,-1,247,195,131,120
46875,-411,-284,194,-146,-59,351,-152,370,77,63,218,163,362,183,249,303,-48,-24,163,244,66,201,261,110,-262,246,307,-196,87,59,57,89
46876,-466,-284,148,-128,-52,365,-276,371,86,66,362,182,370,199,277,204,-35,-4,165,237,55,167,292,126,-253,236,285,-55,185,94,72,110
46877,-492,-364,160,-123,-66,353,-218,377,69,53,334,138,359,183,248,185,-68,0,163,231,39,202,252,93,-274,206,225,51,213,95,63,7
46878,-474,-411,238,-147,-81,339,-179,382,58,25,225,131,331,144,207,59,-61,-51,129,183,-57,172,183,28,-330,124,77,-198,63,-15,-29,1
46879,-466,-412,230,-151,-73,306,-138,376,61,18,153,86,325,141,190,-35,-72,-58,97,131,-117,98,158,23,-357,52,-86,-293,6,-84,-128,-105
46880,-414,-417,241,-128,-57,263,-65,374,59,25,137,109,336,137,178,51,-106,-43,101,145,-127,59,168,47,-366,55,-74,-278,26,-57,-137,-108
46881,-396,-398,282,-131,-49,283,-43,362,79,4,87,139,349,142,165,30,-9,-3,124,139,-133,115,204,72,-357,93,11,-179,78,6,-49,4
46882,-365,-401,261,-109,-63,297,-79,376,88,8,90,123,355,143,158,-30,-29,1,117,150,-124,261,242,96,-352,94,81,-29,141,44,-15,25
46883,-334,-365,241,-121,-48,297,-117,347,82,22,121,230,355,125,158,-71,47,40,125,164,-90,309,328,111,-337,121,115,133,254,133,59,36
46884,-356,-368,284,-131,-43,313,-103,373,89,26,136,328,363,136,155,-78,62,44,120,154,-131,204,347,118,-323,111,66,139,252,142,46,49
46885,-337,-357,307,-113,-48,283,-97,455,75,-4,89,288,365,110,137,-60,0,19,100,135,-143,190,254,59,-377,69,9,-116,103,37,-49,8
46886,-306,-319,331,-92,-44,278,-79,461,58,-28,66,243,362,93,107,-15,-1,23,60,95,-159,163,244,31,-430,32,-41,-199,70,-34,-121,-51
46887,-317,-307,350,-72,-47,283,-33,480,87,-1,116,242,384,97,124,125,54,40,97,114,-115,161,300,76,-394,82,60,-91,147,22,-59,31
46888,-332,-332,344,-64,-54,291,15,475,92,-5,151,256,383,97,147,218,50,33,95,132,-66,103,307,77,-362,109,139,-38,174,77,-2,21
46889,-349,-376,328,-90,-69,309,-10,478,92,-1,157,295,397,99,161,171,37,58,114,147,-40,81,325,118,-367,127,118,52,236,118,55,90
46890,-408,-399,315,-67,-54,314,-43,508,98,19,186,304,429,115,177,83,104,92,131,162,-19,85,392,133,-379,141,121,82,267,126,56,100
46891,-431,-366,330,-69,-58,224,-97,479,92,15,110,321,425,119,164,123,122,116,138,179,-11,168,429,147,-351,173,200,-2,287,158,94,83
46892,-415,-382,350,-49,-53,258,-205,503,110,2,131,329,426,118,175,73,44,119,150,194,4,54,341,149,-345,154,150,66,273,134,48,9
46893,-432,-354,363,-15,-48,322,-206,535,120,24,190,343,431,140,181,107,28,101,145,192,12,28,282,139,-365,159,102,58,242,111,49,-12
46894,-409,-316,361,-19,-46,287,-129,567,105,12,158,409,424,136,180,222,78,87,149,194,34,321,332,130,-346,185,243,8,228,116,70,-16
46895,-360,-288,412,-41,-50,284,-39,585,135,15,183,356,436,130,195,210,105,107,149,192,42,317,358,135,-343,199,313,35,246,136,108,113
46896,-390,-339,402,-64,-67,288,-44,541,117,10,196,318,427,118,174,142,167,79,135,168,24,317,361,124,-372,195,269,86,291,145,113,101
46897,-410,-351,388,-81,-52,308,-40,442,91,9,211,352,399,129,182,155,221,93,144,174,39,332,417,150,-352,203,247,158,301,158,118,79
46898,-381,-366,364,-71,-50,303,-12,507,109,0,185,370,423,124,196,190,214,151,148,190,53,352,490,198,-314,228,307,304,399,232,196,212
46899,-329,-381,416,-45,-64,270,-37,575,137,-13,117,477,463,145,199,237,255,202,194,218,60,420,525,221,-266,260,329,322,444,287,278,296
46900,-338,-453,418,-45,-58,300,-56,595,119,-3,130,475,456,157,220,316,268,179,178,240,73,475,459,202,-268,283,346,149,374,249,258,257
46901,-362,-392,359,-61,-44,305,-81,570,109,8,197,403,455,164,212,328,268,150,189,253,114,540,434,219,-264,305,414,177,379,299,290,336
46902,-392,-335,342,-69,-52,309,-52,564,115,21,225,410,453,138,218,230,265,153,204,241,116,576,420,199,-259,294,432,152,356,306,285,303
46903,-358,-396,344,-75,-45,348,-41,566,111,24,209,440,458,144,221,269,266,183,184,238,113,523,454,209,-245,317,427,240,391,324,297,258
46904,-367,-424,336,-84,-45,343,-22,559,98,23,279,425,450,149,219,259,234,157,174,223,67,432,426,201,-264,263,326,187,368,271,236,253
46905,-354,-446,311,-106,-59,366,-13,520,97,42,307,391,422,149,230,294,217,154,177,238,80,463,419,209,-251,294,338,215,398,344,291,303
46906,-373,-420,298,-74,-45,369,-43,486,104,35,242,417,413,132,233,356,180,125,183,252,97,375,411,218,-235,315,354,220,369,305,260,244
46907,-427,-423,291,-81,-54,340,-103,450,98,16,200,482,395,135,225,235,247,129,182,252,90,376,437,233,-245,320,374,300,407,289,270,281
46908,-475,-449,260,-100,-46,326,-109,465,107,17,168,390,404,147,237,205,124,100,191,248,106,443,408,221,-256,325,389,242,370,313,289,296
46909,-520,-433,225,-105,-49,328,-81,483,105,30,198,322,401,158,255,236,109,83,195,261,131,525,404,222,-233,353,433,204,365,315,288,341
46910,-486,-359,235,-114,-55,332,-83,450,86,35,243,237,365,153,267,232,102,63,141,266,126,489,391,191,-253,326,455,182,355,290,248,305
46911,-382,-223,261,-123,-46,366,-1,436,86,31,289,237,368,137,270,314,62,52,131,245,110,400,386,185,-286,305,440,230,379,290,229,157
46912,-241,-111,306,-129,-61,356,58,401,50,-3,251,156,317,86,233,267,3,-15,89,194,50,376,259,110,-352,233,339,41,264,193,151,121
46913,-161,-48,270,-118,-51,356,36,361,39,-6,242,54,304,80,219,289,-35,-73,58,163,7,182,172,35,-379,162,186,-201,118,77,56,71
46914,-116,5,201,-136,-44,371,66,305,41,8,238,-18,270,58,186,271,-124,-117,53,141,-17,166,99,-3,-420,138,137,-300,66,20,40,67
46915,-95,47,209,-136,-42,386,63,302,35,-3,200,-33,267,60,179,161,-159,-153,40,148,-17,200,65,12,-410,158,225,-331,38,0,50,107
46916,-22,105,232,-94,-44,378,58,338,24,12,211,-6,274,65,182,97,-140,-129,61,148,-10,245,104,24,-401,160,256,-241,78,18,34,-17
46917,49,120,227,-87,-54,371,54,316,22,16,150,3,267,44,151,79,-166,-111,53,132,-35,198,153,40,-392,138,206,-173,101,34,32,-30
46918,155,192,265,-68,-53,389,51,316,15,-13,137,-36,259,39,119,50,-248,-128,49,121,-53,134,129,35,-388,128,178,-44,152,70,39,-40
46919,150,299,238,-87,-75,384,46,297,-18,-42,141,-86,225,-1,85,-16,-241,-173,9,72,-108,42,64,-2,-434,102,88,-84,116,24,-9,-126
46920,192,396,184,-74,-64,416,63,292,3,-19,137,-91,213,9,92,-34,-277,-220,-15,54,-122,9,-36,-59,-464,73,70,-411,-3,-59,-54,-90
46921,291,446,220,-89,-50,443,77,272,-11,-22,147,-107,203,6,89,9,-351,-226,-13,44,-144,49,-28,-69,-449,48,6,-422,-19,-88,-108,-112
46922,327,402,208,-103,-47,422,37,260,-19,-50,146,-96,201,0,52,59,-338,-235,-36,35,-202,58,-13,-95,-477,-13,-68,-369,-45,-152,-175,-226
46923,358,458,211,-100,-45,418,34,206,-27,-71,140,-82,163,-12,29,44,-284,-252,-39,9,-216,-1,-15,-92,-519,-26,-76,-335,-30,-166,-210,-258
46924,423,559,259,-65,-32,441,87,229,-22,-39,173,-41,175,0,41,82,-226,-230,-39,26,-177,68,48,-61,-512,-7,-1,-259,1,-106,-178,-178
46925,423,600,290,-50,-38,441,107,276,-27,-42,194,-43,161,-15,48,21,-230,-214,-63,14,-188,42,64,-73,-510,-21,-13,-263,-9,-138,-170,-189
46926,406,624,269,-35,-60,405,43,321,-33,-54,245,-37,161,-24,73,-100,-231,-207,-82,21,-187,48,68,-66,-492,-11,-14,-201,27,-101,-149,-193
46927,394,527,199,-59,-59,437,0,294,-21,-43,270,-137,164,-5,105,-51,-255,-220,-70,33,-149,45,90,-60,-476,9,5,-148,59,-58,-152,-252
46928,372,500,208,-43,-31,427,16,274,-11,-40,213,-157,188,-6,99,-59,-234,-222,-42,58,-154,-41,90,-61,-451,33,-21,-195,64,-50,-137,-250
46929,311,482,184,-73,-54,404,-61,228,-35,-48,142,-96,201,-6,97,-93,-202,-184,-24,75,-169,-52,127,-37,-455,37,-42,-148,96,-16,-89,-111
46930,306,481,216,-98,-63,408,-27,209,-25,-27,124,-109,185,-7,86,-91,-228,-200,-27,73,-184,-6,92,-36,-458,24,-64,-147,81,-30,-120,-180
46931,301,455,193,-100,-39,398,14,242,-18,-33,110,-94,183,12,59,-168,-288,-227,-37,60,-215,-1,76,-51,-471,-5,-119,-117,65,-81,-173,-284
46932,260,405,165,-102,-65,383,4,258,-28,-48,111,-58,196,16,81,-167,-348,-199,-21,56,-221,-6,125,-46,-497,-18,-127,-149,77,-64,-158,-258
46933,274,395,193,-66,-40,392,-34,294,6,-29,115,-31,223,34,97,-116,-257,-165,-19,63,-200,-26,123,-73,-511,-27,-139,-271,40,-75,-177,-250
46934,268,375,188,-60,-24,391,-69,286,13,-39,73,-20,205,42,106,49,-216,-184,-50,48,-163,-23,48,-102,-544,-15,-84,-213,10,-99,-150,-164
46935,291,379,238,-58,-36,425,-64,303,15,-46,127,-10,215,8,114,91,-186,-173,-61,49,-151,15,47,-104,-558,-18,-19,-205,19,-113,-134,-115
46936,236,335,234,-59,-45,423,-34,325,17,-22,218,-7,231,21,130,86,-107,-117,-41,55,-148,68,163,-60,-563,4,84,-31,118,-59,-128,-192
46937,214,262,192,-65,-54,389,-114,345,-1,-36,114,0,219,12,116,202,-117,-125,-62,31,-103,-3,188,-60,-586,11,85,85,155,-20,-97,-268
46938,174,285,180,-79,-42,371,-142,342,1,-41,75,47,235,0,114,65,-110,-126,-42,19,-123,0,199,-41,-573,3,39,96,191,30,-30,-104
46939,173,318,135,-87,-51,397,-114,291,-3,-16,117,64,237,-2,131,-148,-175,-130,-38,29,-136,28,174,-52,-552,1,45,-24,171,59,-15,-42
46940,227,281,154,-82,-56,400,-62,270,6,-33,103,82,253,0,116,-129,-202,-118,-42,37,-127,16,155,-55,-560,16,125,-108,164,61,-4,-34
46941,249,340,239,-64,-53,394,-59,366,31,-16,141,86,266,22,116,-54,-126,-114,-28,42,-91,84,120,-70,-550,48,217,-153,65,-38,-70,-186
46942,248,390,287,-45,-49,417,-23,362,44,-11,172,110,267,25,142,0,-144,-106,3,57,-104,109,115,-56,-546,50,105,-155,63,-66,-117,-191
46943,258,364,260,-68,-44,426,-13,326,30,-3,172,-6,267,23,141,27,-174,-132,3,42,-125,149,105,-47,-531,12,-61,-163,82,-18,-52,55
46944,279,398,268,-65,-56,438,31,294,6,4,193,2,240,17,150,63,-168,-159,-14,20,-118,175,51,-87,-545,9,-61,-360,-29,-82,-78,7
46945,266,438,300,-58,-27,473,130,304,38,29,255,111,263,25,167,173,-153,-123,4,69,-80,112,111,-60,-504,51,32,-294,9,-38,-28,-25
46946,265,447,230,-57,-25,436,148,357,31,28,252,111,283,48,168,300,-54,-93,19,81,-56,88,175,-37,-488,57,11,-98,74,-2,-33,-58
46947,220,421,185,-56,-59,417,170,361,16,0,291,44,267,47,193,222,-102,-123,-6,67,-55,162,152,-35,-495,77,44,-54,136,41,14,1
