,Fp1,Fp2,F7,F3,Fz,F4,F8,FC5,FC1,FC2,FC6,T7,C3,Cz,C4,T8,TP9,CP5,CP1,CP2,CP6,TP10,P7,P3,Pz,P4,P8,PO9,O1,Oz,O2,PO10
115004,14,128,77,83,-159,328,132,357,205,-101,288,3,493,135,81,-38,-186,-58,83,-126,-10,27,233,297,129,130,51,-241,226,345,154,93
115005,33,207,36,95,-168,311,148,392,222,-93,275,45,520,136,63,-65,-135,-37,97,-116,1,49,272,307,161,118,68,-42,281,355,203,112
115006,21,283,113,83,-158,251,153,426,237,-113,226,118,527,124,38,-332,-140,-8,107,-133,-3,-6,278,351,158,97,31,46,309,347,172,14
115007,31,344,202,78,-177,208,171,388,225,-141,202,179,538,131,50,-478,-118,5,121,-121,37,-4,308,366,155,102,27,105,354,361,127,-84
115008,65,311,226,115,-156,196,175,433,241,-137,211,274,578,122,38,-154,-171,30,116,-132,12,71,277,356,156,85,19,-113,294,341,105,-86
115009,132,258,240,85,-151,248,197,484,255,-141,269,243,565,121,41,181,-123,49,103,-125,-69,152,306,362,168,75,57,19,324,368,147,1
115010,79,191,271,70,-166,249,185,387,228,-145,272,97,510,104,51,121,-92,-5,95,-165,-70,133,287,340,132,80,52,74,317,358,182,12
115011,56,158,173,55,-157,269,128,326,220,-137,323,87,509,98,71,13,-20,-24,67,-156,-5,95,293,333,138,82,66,83,329,337,187,-6
115012,64,153,104,73,-135,312,100,371,247,-126,338,9,487,99,67,-92,-7,-36,56,-129,11,54,262,306,121,77,83,83,311,313,136,-41
115013,38,77,55,79,-131,334,43,341,246,-115,311,-48,482,86,68,-218,-12,-80,36,-154,9,-19,207,270,94,75,72,-37,230,238,69,-205
115014,38,104,41,109,-131,364,98,405,249,-108,273,104,498,90,74,-29,-10,-59,49,-150,56,25,218,264,103,77,141,-34,218,258,87,-148
115015,80,192,104,109,-126,343,186,428,247,-128,302,83,519,113,84,142,13,-35,66,-155,12,32,257,287,113,110,154,-79,224,267,129,30
115016,114,207,208,121,-114,290,184,432,257,-125,333,202,542,96,52,128,31,25,78,-147,-17,115,327,313,135,110,138,-130,233,285,151,165
115017,78,146,218,101,-137,291,177,414,248,-117,334,156,518,107,97,73,24,14,82,-134,32,129,359,315,121,92,160,-106,259,318,120,151
115018,59,131,274,37,-156,374,150,290,233,-97,402,13,472,107,136,70,-43,-25,55,-114,40,124,346,311,131,112,158,-75,246,281,101,108
115019,38,180,286,26,-163,331,95,269,222,-108,376,3,476,124,139,99,-62,-25,63,-105,77,260,345,303,151,148,212,-81,248,281,140,200
115020,45,218,307,18,-156,318,21,269,209,-114,381,41,477,120,138,109,22,-4,78,-96,90,286,372,318,151,147,250,-3,262,322,137,259
115021,23,184,315,7,-155,369,88,274,212,-84,400,121,496,124,143,104,62,7,90,-87,79,180,369,355,155,144,210,60,280,319,107,181
115022,44,144,261,28,-159,345,173,345,233,-88,357,170,518,139,148,147,42,45,95,-63,97,152,396,378,170,178,288,145,330,345,176,62
115023,-60,98,209,50,-144,398,150,337,238,-99,341,98,515,145,171,186,86,67,113,-52,139,251,453,407,211,228,467,276,347,350,186,75
115024,-100,101,202,59,-147,485,177,348,212,-106,370,21,496,122,166,157,76,5,100,-78,104,239,383,375,165,174,354,261,316,291,124,183
115025,0,-28,252,78,-131,427,194,404,220,-80,345,99,538,127,165,147,65,23,117,-55,97,282,344,384,189,168,242,170,337,317,154,359
115026,49,37,244,73,-140,350,93,365,231,-103,323,168,534,140,156,135,126,44,159,-32,100,298,361,396,216,193,297,148,371,398,190,521
115027,66,175,239,16,-139,357,23,320,225,-109,366,206,519,159,164,137,65,34,147,-38,99,281,296,357,204,191,350,166,328,374,199,459
115028,34,127,198,7,-157,350,12,304,219,-111,372,171,516,164,164,97,-28,20,129,-42,104,309,281,362,192,181,326,132,330,356,211,413
115029,59,-13,219,60,-151,395,41,320,219,-99,340,129,520,166,157,147,-17,18,125,-43,122,298,260,353,199,186,305,116,312,341,174,356
115030,75,58,248,35,-150,320,129,331,229,-130,309,82,509,157,156,117,9,-1,132,-46,110,302,239,338,203,154,277,80,236,272,113,237
115031,77,133,229,47,-141,323,223,352,229,-125,319,36,511,147,166,129,2,-25,108,-35,120,364,244,332,193,165,280,75,202,228,69,181
115032,46,211,230,75,-162,284,200,402,248,-114,336,84,541,143,161,113,-18,1,142,-21,135,301,252,354,216,196,286,64,225,276,102,241
115033,3,198,219,86,-161,217,151,371,253,-122,295,135,540,151,153,55,18,31,164,-17,118,216,319,383,252,215,234,123,310,326,153,177
115034,-54,78,127,90,-175,280,30,384,232,-111,312,146,531,164,150,-121,26,29,151,-8,165,297,333,411,248,236,308,122,342,355,181,256
115035,-110,-23,88,112,-168,316,-38,527,232,-115,298,156,566,167,139,-355,70,35,153,-8,179,273,363,423,243,223,297,144,350,361,169,226
115036,-195,-77,28,74,-185,345,2,485,221,-142,287,130,525,147,128,-212,14,-6,114,-50,110,182,296,341,193,157,199,71,265,278,112,91
115037,-142,-84,44,76,-184,332,71,411,218,-150,304,78,514,131,92,-17,-12,-26,93,-84,-4,156,262,293,146,107,124,2,175,208,11,63
115038,-118,-45,27,31,-190,340,33,359,209,-133,306,35,480,119,99,114,-15,-60,50,-109,-32,188,225,266,100,91,126,-17,134,182,-39,80
115039,-88,55,106,12,-181,292,67,346,207,-113,273,-9,473,143,83,177,-5,-85,68,-103,-14,266,183,261,98,96,177,-52,117,193,6,163
115040,-50,162,94,20,-165,242,72,321,205,-122,283,7,480,143,54,127,-31,-50,65,-119,-57,246,223,269,95,87,157,2,127,204,23,176
115041,-52,209,123,13,-170,326,117,289,190,-121,300,-40,470,130,76,66,-35,-57,38,-134,-16,246,238,247,97,83,132,0,124,176,6,79
115042,-2,247,189,-1,-140,302,169,284,203,-116,334,-75,475,145,108,93,-24,-64,54,-91,24,281,239,274,120,116,203,-65,149,196,49,132
115043,55,230,248,-7,-141,266,182,313,198,-118,322,104,497,149,105,72,3,-38,97,-87,35,282,260,302,135,118,250,-45,158,188,0,118
115044,85,220,280,-3,-157,296,190,311,207,-123,296,71,493,155,111,41,-7,-17,91,-115,10,157,300,314,129,82,186,-43,172,174,-9,-5
115045,60,223,222,-12,-154,315,249,327,201,-116,318,134,508,156,121,77,-59,-19,102,-88,16,81,275,317,135,115,135,-119,179,192,18,-37
115046,24,164,162,32,-144,272,214,387,218,-104,266,241,540,147,99,38,-8,45,120,-88,25,40,341,359,159,111,118,1,247,232,78,21
115047,11,73,109,50,-156,242,122,364,209,-113,263,177,507,145,87,30,37,19,111,-87,11,107,348,345,156,108,124,-9,227,239,61,77
115048,18,71,170,25,-134,301,155,291,216,-106,364,27,477,168,129,34,38,-19,109,-63,57,152,306,349,176,159,165,-51,222,274,76,151
115049,8,37,214,32,-124,328,119,291,222,-92,374,-7,499,158,135,14,21,-57,104,-50,37,57,246,317,169,131,115,-72,182,235,55,-20
115050,-58,78,218,39,-131,325,90,335,217,-100,309,27,491,165,101,36,-47,-80,93,-63,49,98,204,310,174,124,156,-94,155,228,28,-6
115051,-89,62,242,25,-138,257,89,257,191,-119,199,25,465,167,81,39,-61,-77,97,-74,44,121,211,287,165,130,167,-127,134,214,26,-4
115052,-36,-72,207,63,-123,284,57,267,196,-117,231,19,481,174,77,-14,-26,-47,101,-65,20,96,284,311,182,122,136,-76,157,220,45,-11
115053,-34,15,209,85,-122,290,44,295,214,-124,238,22,515,177,61,-37,5,-24,106,-66,-27,68,305,301,178,100,85,-327,123,172,11,-37
115054,-60,100,147,51,-157,236,-8,320,205,-135,217,38,507,174,57,-71,-112,-17,108,-61,-37,80,353,310,170,96,102,-233,148,184,-1,7
115055,-54,78,81,22,-179,233,-51,286,213,-129,290,29,488,170,75,-64,-123,-31,118,-53,-10,55,360,311,187,114,158,-125,186,212,61,109
115056,-56,-9,87,-15,-168,276,-23,224,208,-116,313,-39,471,172,94,-12,-107,-70,122,-48,4,36,296,315,196,149,211,-112,169,232,72,119
115057,-89,-113,81,-49,-183,334,-15,239,192,-117,317,-89,461,176,94,-65,-166,-118,90,-65,-8,10,202,287,178,138,211,-128,131,196,3,-75
115058,-123,-109,48,46,-194,328,-5,303,219,-117,245,-33,492,181,104,-346,-159,-106,124,-55,39,-8,166,304,209,161,215,-141,126,194,14,-64
115059,-100,-39,75,73,-182,281,-42,277,241,-114,184,-41,507,210,94,-350,-90,-75,138,-27,65,31,183,317,232,171,192,-26,204,253,50,57
115060,-57,12,101,34,-176,275,10,298,232,-130,153,-52,489,207,73,-153,-103,-90,129,-48,10,63,124,307,214,141,94,-33,192,241,74,18
115061,3,103,150,35,-154,255,91,362,231,-130,140,-21,510,188,63,54,-44,-66,142,-55,-48,47,179,322,228,120,66,-11,210,262,99,4
115062,37,148,179,21,-174,192,63,344,211,-147,152,-7,506,185,59,83,-42,-52,140,-69,-34,25,199,338,221,142,71,14,220,280,98,51
115063,73,163,197,37,-169,205,131,305,222,-143,214,25,503,189,73,150,-22,-26,138,-53,-55,143,232,353,234,154,131,57,258,325,143,166
115064,61,139,188,23,-172,229,91,318,212,-144,195,53,500,164,45,56,-9,-24,129,-73,-35,98,241,356,221,153,112,79,256,297,128,137
115065,-11,78,169,11,-178,290,3,314,203,-119,272,133,521,182,96,46,-24,-20,144,-54,-2,101,267,372,229,161,118,96,282,302,132,76
115066,-46,-36,165,8,-168,402,-75,276,212,-91,311,148,521,201,120,8,7,3,154,-45,9,149,283,383,247,181,167,87,292,330,145,118
115067,-56,-46,153,20,-193,375,-42,266,195,-79,333,94,503,200,112,-36,4,-1,143,-48,11,150,278,362,237,176,211,71,291,335,152,97
115068,-10,84,142,20,-170,272,43,279,209,-99,316,100,519,201,110,-20,-10,2,152,-41,3,170,317,376,222,179,253,74,306,329,151,-75
115069,-2,157,164,13,-161,242,45,292,205,-132,241,105,523,190,111,28,-18,25,160,-33,37,202,326,394,234,198,334,85,321,345,166,-46
115070,21,235,167,20,-164,234,170,304,203,-119,266,114,515,192,83,39,-1,23,164,-50,26,134,324,393,237,180,238,47,322,340,146,44
115071,34,250,166,23,-157,220,211,309,215,-124,249,21,514,189,93,17,85,27,179,-32,8,119,377,415,243,177,141,80,355,371,203,209
115072,-9,250,176,36,-159,263,237,343,222,-119,288,-74,518,202,105,-4,128,38,182,-37,22,113,422,443,260,194,144,86,372,372,203,196
115073,-113,177,119,67,-151,304,127,369,228,-88,255,57,551,210,107,5,113,56,200,-15,33,183,439,449,276,204,199,67,385,374,204,136
115074,-129,11,21,44,-200,269,35,391,215,-104,246,-28,523,195,88,-30,11,-6,164,-24,7,170,350,391,237,167,203,46,365,369,174,176
115075,-124,-10,28,47,-190,261,5,378,207,-115,286,-58,509,179,76,-92,-97,-47,141,-66,-35,92,251,345,208,145,127,-49,271,298,72,66
115076,-75,56,74,57,-174,284,36,353,228,-122,296,-30,517,176,86,-100,-75,-29,130,-52,-34,147,250,352,192,139,114,43,262,285,140,76
115077,-57,49,85,14,-202,259,40,309,209,-139,264,-78,506,176,95,-79,-123,-58,106,-48,-29,175,192,324,208,143,145,-37,218,292,111,175
115078,-35,77,163,78,-180,254,11,341,232,-106,270,7,524,204,122,-64,-115,-17,134,-25,-36,49,230,350,225,160,133,-4,253,318,139,168
115079,-10,-78,152,80,-170,335,-35,354,217,-104,248,53,507,175,103,-98,-149,9,121,-39,-42,11,307,349,210,129,106,8,252,282,96,55
115080,-7,-186,161,51,-169,399,13,304,216,-114,251,63,481,202,101,-98,-116,-4,116,-50,-42,62,317,346,193,125,138,-18,234,267,95,75
115081,35,-43,206,20,-173,365,70,288,185,-117,218,69,487,183,109,-90,26,14,117,-53,-59,72,360,350,204,144,114,56,266,290,114,61
115082,-13,35,181,22,-182,250,35,252,189,-129,184,79,475,176,98,-158,18,-25,117,-53,-70,72,331,319,190,131,95,-18,266,255,80,31
115083,-18,115,151,55,-178,239,42,303,200,-121,205,115,475,183,116,-299,-47,-41,110,-44,-10,97,309,322,178,125,94,-76,231,236,58,23
115084,-67,126,129,31,-191,232,1,297,195,-125,187,81,464,158,108,-224,-51,-55,93,-56,-6,72,289,277,154,92,80,-103,191,206,34,-4
115085,-57,89,156,26,-194,227,-31,339,201,-103,207,27,488,194,107,3,-27,-53,100,-52,-6,142,278,294,164,126,123,-63,196,245,71,99
115086,-2,157,208,26,-174,251,10,385,210,-109,232,-25,495,201,86,-109,-42,-34,127,-57,-14,116,283,302,177,126,141,1,204,249,77,88
115087,-15,190,207,6,-185,257,6,347,182,-111,261,-11,447,186,85,-332,-10,-64,86,-76,54,116,238,260,158,135,198,-24,181,244,68,-27
115088,-38,98,211,4,-179,316,112,256,163,-105,312,-21,399,188,93,-12,-41,-87,65,-79,59,148,223,251,155,132,214,-44,186,249,59,-42
115089,-13,47,210,1,-162,424,108,203,169,-65,386,-69,399,166,105,334,-141,-125,55,-88,-55,151,188,233,148,113,152,-107,173,223,64,74
115090,5,92,184,-27,-169,341,86,211,172,-59,375,-57,440,188,122,231,-46,-102,77,-47,-36,103,269,282,173,134,136,0,242,295,122,97
115091,-1,112,119,-36,-155,298,52,263,184,-67,265,-80,455,209,102,75,-18,-57,135,-59,23,111,305,319,187,165,222,66,275,326,136,17
115092,-1,101,92,-26,-150,284,37,252,184,-87,256,-44,451,189,84,9,-73,-74,125,-62,-24,195,241,297,182,155,190,1,234,299,112,36
115093,4,172,155,1,-148,262,103,275,195,-88,271,-11,487,185,83,-34,-58,-54,108,-55,-37,162,232,302,174,146,144,20,244,301,135,166
115094,54,210,201,1,-155,257,98,258,202,-86,283,64,480,172,89,-13,-52,-56,115,-54,-24,146,226,308,169,145,128,42,246,304,124,209
115095,61,72,231,-65,-148,302,110,246,177,-83,326,131,444,177,93,-10,-51,-51,107,-50,-17,110,236,314,189,144,104,3,240,305,120,146
115096,-34,-9,103,-22,-169,299,66,298,192,-70,292,41,486,205,127,23,-69,-55,120,-16,27,172,240,345,245,201,153,-58,249,330,152,169
115097,-125,2,-15,-4,-173,228,18,347,194,-97,137,-58,495,217,113,-21,-49,-48,158,-17,25,129,267,352,262,201,115,-75,241,327,125,72
115098,-82,125,61,-12,-191,228,59,327,183,-111,202,-51,474,192,110,-35,-38,-33,130,-37,17,29,286,354,253,163,73,-58,256,302,105,-19
115099,-7,235,123,-2,-195,247,160,286,179,-73,284,0,474,199,139,32,-50,-22,141,-11,36,91,304,367,255,179,136,-20,273,311,128,37
115100,66,285,154,-26,-174,287,196,251,164,-77,307,5,448,178,144,35,-55,-67,123,-48,27,177,257,318,207,170,167,-26,238,295,102,112
115101,42,140,121,-30,-150,419,176,215,167,-73,370,-40,427,160,130,1,-108,-91,96,-75,34,211,220,317,178,162,181,-47,232,268,87,135
115102,52,107,155,-22,-124,360,130,190,168,-60,336,-41,423,158,112,-27,-131,-101,75,-64,-4,59,189,301,175,130,87,-70,221,232,52,-39
115103,68,142,186,-36,-142,268,83,175,173,-100,309,-43,413,155,109,-75,-134,-103,66,-58,-16,45,209,317,164,116,98,9,238,277,102,-9
115104,21,124,199,-11,-120,291,92,187,184,-70,313,-40,416,193,114,-38,-90,-81,84,-51,19,93,228,311,188,158,138,5,260,304,118,72
115105,-27,146,151,-7,-155,268,58,192,160,-84,273,-38,407,164,105,-36,-114,-119,62,-73,-12,83,198,273,162,135,112,-64,215,240,71,16
115106,-64,96,140,16,-180,284,32,240,172,-86,283,33,438,175,116,-71,-72,-83,76,-63,-16,108,228,303,187,131,140,31,272,286,100,44
115107,-64,94,189,34,-179,280,31,281,189,-82,244,73,463,172,93,-216,-42,-37,106,-79,11,68,306,336,193,140,181,112,317,311,131,-65
115108,-52,48,174,36,-172,282,87,317,196,-84,249,39,484,165,114,-312,-17,-17,96,-64,88,32,359,354,189,175,309,73,310,326,158,-99
115109,-63,69,97,31,-159,339,155,310,176,-66,319,3,461,137,150,-19,-21,-38,73,-57,141,48,315,333,188,193,378,-38,290,346,166,85
115110,-45,104,82,36,-161,361,156,351,188,-75,307,2,478,160,109,176,18,-28,91,-54,68,-5,316,326,183,148,200,21,314,370,193,133
115111,-141,88,-52,34,-184,377,52,451,200,-73,301,12,507,162,89,59,-34,-38,107,-65,-16,24,281,317,189,134,109,-15,279,337,180,154
115112,-195,69,-10,84,-190,313,-55,462,223,-90,269,77,521,175,133,2,-90,-1,125,-32,58,141,300,344,222,202,215,90,325,342,193,205
115113,-122,69,118,86,-157,295,-42,420,226,-96,254,115,546,209,131,31,-64,23,130,-23,83,103,301,357,224,192,221,115,336,345,166,136
115114,-112,67,67,19,-166,319,27,321,202,-82,309,-43,506,194,141,11,-50,-30,129,-22,70,156,303,338,224,190,224,23,288,335,155,158
115115,-61,100,141,19,-156,271,92,316,207,-87,327,126,504,179,132,13,-48,-1,128,-39,67,174,301,345,211,177,191,6,308,328,182,147
115116,-41,169,172,59,-148,219,76,447,228,-99,300,266,552,192,131,-90,0,82,149,-22,96,246,428,393,218,183,207,35,372,357,202,178
115117,-52,142,148,55,-161,305,5,488,227,-95,290,178,554,180,144,-331,35,83,161,-33,129,175,446,401,193,182,178,76,344,330,128,117
115118,-118,120,157,23,-165,307,62,343,190,-90,376,27,508,170,164,-25,24,6,143,-54,169,171,368,373,194,201,238,48,311,336,136,76
115119,-170,27,129,34,-161,367,139,314,184,-90,402,-1,505,158,154,300,-54,-17,134,-50,104,231,311,364,195,207,307,-28,287,315,165,45
115120,-91,-63,170,50,-151,314,160,342,180,-96,344,112,525,170,136,309,24,29,126,-51,80,230,370,358,179,171,332,76,301,312,139,52
115121,-31,-64,256,29,-149,315,157,296,171,-99,329,137,488,156,137,155,10,31,113,-60,114,196,361,346,174,169,299,43,296,310,137,67
115122,35,99,272,1,-123,308,204,298,163,-93,318,127,470,153,138,131,89,20,106,-63,85,192,363,343,164,165,256,-31,271,290,89,162
115123,95,222,301,21,-101,293,242,283,180,-73,312,220,516,176,158,159,231,72,138,-46,124,263,489,406,210,195,320,0,332,352,179,275
115124,63,250,215,-2,-136,284,210,318,178,-87,304,211,511,162,146,177,141,101,150,-47,137,299,542,421,214,203,302,73,340,342,162,235
115125,36,212,181,1,-166,287,239,304,153,-96,316,89,477,161,146,166,63,59,126,-51,133,227,510,386,190,173,229,39,306,299,118,201
115126,82,252,273,-6,-139,304,197,295,157,-85,317,133,500,205,179,129,185,86,160,-16,134,205,554,407,224,202,200,78,362,355,165,235
115127,51,225,253,-72,-153,315,153,245,144,-89,349,101,468,165,176,81,105,30,130,-31,113,202,461,382,208,178,188,68,308,338,153,227
115128,-29,129,204,-10,-168,355,95,273,162,-77,394,66,472,168,179,108,2,12,122,-56,111,138,407,356,193,175,176,79,280,298,117,144
115129,-55,117,149,-4,-159,412,18,300,163,-49,453,43,485,184,188,94,48,20,123,-70,119,179,420,352,179,161,205,67,294,277,107,159
115130,-59,103,116,15,-151,362,-25,328,178,-70,429,61,498,173,161,26,19,-4,118,-77,88,201,371,334,152,126,197,82,269,254,78,151
115131,-93,-16,144,38,-164,321,-85,340,177,-82,382,50,470,153,137,-39,-63,-60,80,-94,52,141,268,282,123,96,172,-41,173,218,26,82
115132,-50,32,142,75,-149,287,-25,362,183,-95,294,29,476,152,113,-12,-46,-67,77,-92,44,228,196,254,117,106,192,47,173,212,20,107
115133,2,129,155,85,-114,292,95,376,174,-105,313,54,483,150,118,10,-29,-63,88,-105,39,189,192,255,131,96,172,86,189,211,55,119
115134,13,164,179,65,-140,248,145,366,172,-136,271,85,491,138,86,-68,-39,-33,111,-109,28,219,220,289,149,121,202,115,220,265,86,175
115135,31,230,220,71,-139,232,176,411,205,-115,248,211,528,185,107,-97,63,21,156,-79,96,267,290,349,201,160,232,128,284,328,131,218
115136,-28,154,178,63,-153,245,158,424,202,-113,278,364,538,187,123,-96,13,62,161,-63,149,185,366,356,206,175,219,49,275,289,142,157
115137,-61,-23,163,31,-155,382,144,381,200,-90,338,301,546,174,122,31,-40,52,154,-67,126,214,398,349,196,165,244,-81,250,258,122,84
115138,-70,-39,95,42,-152,475,175,339,187,-79,364,127,517,151,113,233,23,30,144,-98,77,234,423,342,189,149,319,17,283,286,122,56
115139,-56,38,97,71,-129,349,176,383,192,-105,311,127,525,141,59,206,106,44,118,-126,9,187,453,350,174,117,320,45,264,276,110,-6
115140,-81,90,99,89,-121,291,183,489,225,-110,315,85,529,163,88,108,120,54,131,-93,41,217,439,359,210,131,294,40,275,322,146,204
115141,-117,133,36,85,-137,262,199,531,232,-117,267,-8,532,173,90,76,29,2,135,-101,26,179,304,321,188,116,169,108,259,302,113,219
115142,-87,216,118,98,-126,164,178,393,226,-136,254,3,506,164,80,113,-22,-25,116,-97,11,133,201,298,176,103,119,61,201,255,86,115
115143,-72,224,201,52,-155,139,160,284,191,-143,267,33,478,168,75,132,16,-18,122,-86,46,138,270,315,180,113,113,112,245,305,109,73
115144,-84,163,217,16,-156,248,186,260,185,-103,294,31,477,197,117,82,-5,-28,145,-57,77,192,282,337,212,154,184,121,284,362,147,47
115145,-106,29,195,-17,-169,315,140,248,184,-97,293,9,463,192,151,-271,-20,-41,127,-60,119,172,249,324,222,197,265,118,300,381,194,157
115146,-106,-62,192,4,-163,301,60,259,187,-121,227,33,444,195,121,-296,21,-65,134,-45,130,191,249,307,221,187,229,138,313,381,176,176
115147,-26,39,278,27,-152,250,109,249,186,-128,218,102,455,177,85,56,10,-73,118,-72,57,90,242,300,200,150,115,125,274,320,127,106
115148,-19,156,267,12,-161,223,117,246,171,-140,317,79,423,174,84,268,-55,-83,102,-88,-24,105,199,271,172,98,98,85,230,278,72,117
115149,-64,176,192,-20,-176,190,54,224,158,-155,253,37,432,172,92,164,-73,-78,111,-87,37,199,194,280,179,118,170,99,224,298,94,215
115150,-75,122,156,-30,-195,194,-13,192,177,-126,264,-42,428,195,115,66,-16,-98,116,-74,64,205,242,299,194,141,204,134,252,305,140,222
115151,-88,93,177,-34,-189,211,-62,178,161,-118,312,-81,427,199,133,66,-48,-91,114,-69,50,139,265,295,196,130,215,66,257,284,117,93
115152,-111,62,136,-39,-183,188,-21,155,153,-124,323,-89,407,181,104,9,-123,-82,93,-92,38,10,274,269,161,97,186,52,218,241,57,43
115153,-91,83,123,-6,-167,231,48,194,180,-113,327,-72,414,185,107,22,-85,-108,71,-100,31,10,203,234,145,78,186,-93,132,200,4,105
