,Fp1,Fp2,F7,F3,Fz,F4,F8,FC5,FC1,FC2,FC6,T7,C3,Cz,C4,T8,TP9,CP5,CP1,CP2,CP6,TP10,P7,P3,Pz,P4,P8,PO9,O1,Oz,O2,PO10
86144,-486,-1272,59,409,-87,183,-291,398,-45,59,214,21,331,-117,147,92,228,-39,-15,-114,109,-115,61,28,-39,-52,202,23,70,98,-139,78
86145,-477,-1250,8,421,-79,143,-325,377,-25,50,74,-22,341,-112,128,62,259,-3,-6,-95,153,-87,76,42,-5,-5,278,73,134,159,-71,305
86146,-556,-1259,10,446,-87,133,-291,342,-47,1,94,49,312,-137,34,-324,227,-17,-9,-120,187,-87,75,39,-8,3,295,90,146,185,-57,319
86147,-612,-1266,-19,470,-67,131,-292,388,-25,16,89,94,324,-127,94,-595,268,-12,-2,-102,355,-83,101,54,4,16,321,158,172,189,-55,55
86148,-508,-1273,59,466,-82,120,-268,263,-35,12,18,25,349,-117,73,255,252,-45,-8,-89,280,-4,79,65,30,25,391,164,197,235,-9,160
86149,-478,-1266,45,480,-81,150,-220,-22,-15,17,102,-170,423,-135,31,732,203,-28,-7,-137,-77,46,109,53,-6,-54,314,144,186,208,-68,198
86150,-441,-1262,25,465,-75,157,-232,147,-11,22,107,-210,426,-134,71,321,185,64,15,-114,43,8,233,88,12,-15,331,60,221,250,-1,332
86151,-387,-1231,25,441,-74,202,-216,646,-79,49,130,105,235,-133,127,210,228,42,-29,-83,152,-30,285,99,41,25,333,183,277,312,31,371
86152,-438,-1246,-89,427,-53,237,-215,408,-96,75,139,264,215,-125,135,80,282,-90,-48,-93,160,-35,79,37,13,32,261,251,218,274,3,187
86153,-470,-1248,-64,431,-78,230,-243,265,-99,67,130,206,190,-146,136,-31,249,-309,-80,-119,167,1,-120,-74,-23,-11,191,167,138,194,-86,-109
86154,-471,-1238,-70,446,-67,241,-259,268,-96,58,158,51,197,-135,139,130,223,-222,-79,-97,129,81,-57,-44,-16,-6,222,137,146,183,-96,8
86155,-497,-1242,-24,435,-30,254,-198,239,-92,70,185,23,184,-138,113,-6,213,-238,-82,-99,83,82,-50,-26,0,-12,216,105,169,194,-69,-10
86156,-571,-1260,-76,422,-58,241,-202,243,-92,73,191,45,202,-146,155,-106,207,-221,-71,-88,157,13,12,-8,19,8,264,156,173,184,-78,-192
86157,-590,-1264,-139,405,-77,244,-203,237,-95,54,178,5,179,-150,142,16,172,-228,-94,-107,142,-72,10,4,-5,-8,204,149,183,179,-79,-169
86158,-575,-1276,-134,376,-81,266,-190,241,-105,57,228,-25,159,-157,148,222,144,-271,-100,-111,137,-62,-69,-28,-10,-44,139,76,168,183,-115,54
86159,-522,-1262,-113,357,-90,240,-226,197,-114,64,215,-236,135,-146,159,201,105,-312,-115,-101,148,-36,-131,-28,-12,-33,172,40,199,242,-12,189
86160,-511,-1270,-101,365,-90,246,-209,200,-106,82,203,-190,172,-117,163,161,128,-277,-79,-95,143,-126,-71,7,-23,-45,125,51,174,157,-116,71
86161,-569,-1343,-140,383,-84,223,-267,250,-96,56,184,190,261,-138,167,103,136,-154,-56,-93,132,-215,-9,77,-4,-56,87,-113,168,130,-143,30
86162,-636,-1390,-111,392,-75,221,-254,224,-84,40,135,-33,233,-145,151,-22,152,-196,-78,-100,114,-207,-69,23,-16,-80,35,10,141,86,-218,-138
86163,-678,-1430,-90,405,-74,240,-238,280,-91,47,125,20,240,-118,123,-88,170,-184,-57,-114,100,-165,-50,51,-8,-89,-30,182,160,92,-262,-220
86164,-638,-1308,-70,362,-73,209,-249,286,-98,55,133,71,242,-123,126,-229,188,-120,-30,-99,92,-152,39,105,10,-74,-3,213,255,156,-196,-132
86165,-607,-1234,-54,340,-95,138,-234,210,-87,38,138,57,270,-112,151,-355,227,-49,7,-85,137,-176,118,155,47,-44,65,286,340,245,-108,-50
86166,-619,-1236,-23,367,-113,173,-267,243,-74,36,168,-51,302,-101,167,-150,216,-8,23,-69,156,-252,197,165,50,-36,73,245,304,198,-149,-155
86167,-587,-1252,-30,367,-119,198,-280,290,-86,59,192,-53,302,-106,172,211,176,-21,18,-84,83,-159,113,165,30,-55,51,48,157,66,-220,-107
86168,-707,-1304,-93,337,-142,179,-354,292,-88,35,87,54,311,-105,133,120,142,-11,16,-99,66,-185,65,151,42,-57,65,-117,146,100,-146,67
86169,-787,-1340,-129,293,-152,137,-405,271,-110,33,15,44,298,-100,210,-278,129,-46,23,-46,213,-259,39,157,77,10,148,3,222,215,-19,206
86170,-681,-1336,-140,288,-148,150,-414,298,-106,44,94,95,283,-107,261,-533,160,-53,23,-48,259,-316,17,143,72,20,148,46,194,167,-105,74
86171,-591,-1312,-135,325,-122,182,-363,311,-63,68,176,67,306,-83,198,-22,178,-1,54,-39,251,-283,154,191,88,11,149,16,197,131,-143,-31
86172,-566,-1300,-144,321,-138,213,-252,208,-68,54,61,79,308,-63,152,97,189,35,67,-45,211,-275,249,241,101,5,108,-79,200,124,-151,-37
86173,-565,-1318,-278,324,-131,207,-254,233,-73,55,123,53,317,-55,117,110,177,71,74,-61,125,-288,217,263,91,-2,110,-180,193,145,-102,103
86174,-655,-1345,-283,316,-144,210,-297,231,-97,80,198,16,283,-90,129,209,143,-25,37,-79,-42,-286,23,117,64,-11,125,61,154,153,-78,52
86175,-645,-1305,-144,326,-123,230,-290,252,-98,82,141,-1,303,-74,117,-171,143,-38,24,-79,-4,-270,-19,112,39,-17,62,110,137,132,-116,-219
86176,-649,-1342,-139,348,-128,219,-325,152,-83,60,125,-57,347,-93,110,-106,133,-35,24,-87,4,-335,-19,120,23,-67,-1,10,114,76,-168,-334
86177,-679,-1368,-171,366,-132,156,-350,-137,-64,69,89,-157,420,-82,106,-99,128,-7,34,-96,1,-369,48,122,12,-40,9,67,125,52,-185,-143
86178,-704,-1408,-189,376,-148,143,-349,122,-70,46,37,-53,427,-65,105,-65,106,20,61,-85,44,-374,141,146,36,-16,72,-12,157,90,-156,-49
86179,-695,-1417,-65,342,-142,192,-301,579,-107,72,159,150,228,-88,143,56,156,-28,29,-76,106,-356,149,137,67,12,137,94,203,155,-91,-150
86180,-684,-1383,-18,320,-128,184,-294,320,-105,70,143,172,232,-98,138,55,178,-71,4,-99,83,-369,11,74,28,-21,90,107,86,79,-156,-147
86181,-664,-1375,-4,350,-111,164,-368,277,-77,58,122,123,281,-92,137,33,154,-23,14,-89,54,-381,-48,55,4,-61,36,-150,-46,-35,-207,-63
86182,-634,-1352,-85,350,-117,174,-338,275,-75,50,68,33,318,-82,117,-87,170,67,28,-105,32,-392,49,106,2,-82,-70,-79,18,-29,-274,-308
86183,-623,-1383,-123,347,-111,157,-357,265,-63,41,18,126,348,-94,90,-344,210,94,19,-110,69,-392,73,110,0,-81,-47,-7,49,-12,-253,-261
86184,-597,-1485,-46,382,-92,139,-366,321,-38,41,14,206,300,-95,93,-468,215,-72,-17,-129,64,-370,7,25,-16,-81,-54,17,23,-5,-249,-274
86185,-629,-1365,-23,366,-127,112,-288,245,-48,32,55,-48,245,-111,91,-143,221,-199,-23,-141,-5,-286,-25,-9,-30,-96,-58,15,19,13,-223,-196
86186,-683,-1316,5,377,-102,104,-374,318,-46,16,49,60,287,-103,62,-12,205,-83,-34,-153,-35,-333,24,-2,-47,-109,-42,-60,-22,-8,-233,-105
86187,-738,-1335,-75,390,-86,87,-461,414,-62,7,11,373,353,-89,89,-9,221,30,0,-109,57,-326,141,60,-21,-74,64,-82,29,81,-108,138
86188,-709,-1322,-93,371,-111,91,-406,312,-64,15,30,52,304,-89,75,21,160,-42,2,-95,38,-206,75,69,-15,-40,147,-111,60,154,15,420
86189,-641,-1352,-138,415,-139,62,-400,264,-73,4,6,-52,251,-116,46,-130,114,-77,-40,-132,-20,-184,4,8,-28,-66,99,-141,9,77,-47,304
86190,-561,-1355,-153,394,-144,68,-409,272,-71,1,-9,-24,269,-110,41,-95,115,-60,-57,-145,4,-184,0,-20,-50,-121,40,-101,-13,28,-230,-276
86191,-476,-1309,-63,417,-108,117,-383,313,-39,7,34,88,293,-99,97,-85,144,-60,-41,-137,18,-185,-33,-11,-53,-127,13,6,23,10,-348,-476
86192,-450,-1275,-3,407,-118,137,-372,279,-60,12,48,49,260,-108,122,-91,131,-121,-41,-120,85,-130,-96,-26,-35,-51,155,13,67,133,-128,39
86193,-457,-1271,-16,378,-114,162,-350,309,-77,37,111,83,255,-115,118,-17,149,-133,-45,-119,98,-90,-44,-9,-21,-45,181,65,86,176,-67,81
86194,-485,-1237,21,394,-124,135,-381,341,-78,34,120,106,263,-105,125,-105,134,-135,-63,-123,91,-134,-44,-23,-42,-71,127,56,58,131,-144,-56
86195,-464,-1235,42,396,-106,136,-337,329,-79,50,160,31,273,-111,162,-516,81,-150,-42,-78,150,-127,-80,-22,-34,-34,185,-161,21,144,-66,97
86196,-472,-1242,-15,368,-104,158,-373,239,-77,47,124,-33,261,-108,162,-136,56,-170,-34,-72,205,-189,-86,-15,0,9,220,-264,40,190,19,219
86197,-526,-1275,-38,352,-123,185,-364,263,-93,47,19,-11,223,-115,112,5,56,-203,-59,-105,147,-236,-63,-77,-29,-53,148,-109,3,166,-3,-14
86198,-526,-1242,-24,350,-106,196,-309,260,-114,45,50,-34,207,-119,113,-457,40,-240,-75,-117,184,-189,-128,-52,-50,-92,54,-112,-26,48,-237,-333
86199,-512,-1225,10,353,-84,238,-271,221,-106,92,155,-98,209,-100,180,-43,16,-235,-49,-73,177,-178,-208,-71,-30,-56,153,-128,-6,90,-175,-124
86200,-557,-1262,-24,337,-107,223,-297,197,-132,88,190,-163,184,-99,214,70,11,-266,-83,-108,-56,-144,-226,-110,-72,-147,19,-110,-51,-14,-295,-62
86201,-574,-1237,-83,359,-102,207,-256,203,-112,102,186,-138,206,-99,274,-189,-19,-278,-82,-85,114,-133,-251,-123,-50,-114,28,-128,-93,-115,-395,-134
86202,-594,-1223,-116,363,-98,277,-241,168,-105,96,221,-196,169,-106,167,157,-23,-283,-86,-120,21,-67,-209,-88,-66,-130,78,-137,-68,-96,-391,-276
86203,-671,-1259,-102,358,-97,304,-264,121,-106,80,118,-215,161,-104,110,147,21,-236,-68,-126,-14,-67,-44,-22,-51,-120,94,-164,-11,-17,-332,-299
86204,-672,-1267,-115,356,-103,299,-242,176,-95,61,153,-123,198,-107,83,110,35,-194,-57,-121,11,-72,36,-11,-20,-100,133,-59,33,69,-268,-203
86205,-626,-1270,-87,364,-96,264,-249,223,-89,61,156,-79,196,-118,71,95,76,-263,-71,-133,11,-165,-74,-56,-39,-123,122,20,16,71,-232,-121
86206,-713,-1386,-189,346,-94,223,-310,157,-106,67,93,-199,174,-113,116,97,54,-299,-66,-122,76,-199,-169,-55,-28,-94,139,0,69,57,-202,34
86207,-845,-1436,-336,310,-117,215,-308,-7,-99,70,120,-244,227,-120,152,27,24,-251,-36,-94,120,-224,-146,8,7,-42,183,27,127,108,-131,190
86208,-805,-1332,-288,324,-84,207,-301,-265,-76,83,153,-438,301,-91,164,54,-8,-269,-14,-57,153,-235,-178,8,27,-7,226,105,109,105,-132,71
86209,-679,-1283,-350,350,-100,208,-258,-66,-98,65,181,-421,268,-115,153,136,39,-280,-42,-81,92,-170,-138,3,18,-64,91,72,93,70,-268,-196
86210,-543,-1225,-233,369,-81,248,-208,533,-100,97,215,268,157,-103,173,176,159,-166,-30,-74,71,-83,-23,47,28,-71,20,-6,153,75,-284,-167
86211,-530,-1245,-109,354,-80,250,-163,282,-82,98,211,9,190,-90,205,241,189,-170,-8,-53,124,-72,13,85,54,-22,108,48,216,141,-150,20
86212,-553,-1254,-213,338,-98,248,-147,169,-87,101,208,-63,239,-93,182,136,182,-139,20,-64,114,-150,25,107,78,-30,86,9,217,132,-144,-22
86213,-576,-1264,-234,341,-92,256,-151,168,-95,93,200,-146,239,-113,166,-175,183,-73,7,-58,123,-190,38,116,49,-25,88,78,214,118,-143,-33
86214,-566,-1254,-184,377,-55,265,-143,188,-58,93,236,-184,262,-92,193,-77,217,-32,25,-30,158,-107,87,162,62,7,109,166,230,153,-138,-60
86215,-610,-1275,-275,378,-88,239,-152,229,-81,67,203,-17,281,-99,161,221,216,-2,18,-77,68,-147,111,153,33,-52,45,104,203,107,-176,-115
86216,-604,-1257,-220,399,-71,243,-194,310,-66,68,172,160,272,-107,143,97,263,-123,-4,-99,33,-182,88,110,34,-49,54,85,183,90,-172,-99
86217,-536,-1221,-128,397,-55,272,-174,283,-77,93,232,95,264,-112,191,-74,259,-142,3,-66,122,-190,78,100,49,-6,128,108,206,134,-115,45
86218,-594,-1254,-151,385,-73,287,-171,230,-87,93,288,115,258,-112,217,-59,267,-100,12,-44,146,-209,103,95,66,30,180,82,208,163,-58,245
86219,-636,-1336,-179,408,-80,287,-179,276,-63,86,308,114,280,-118,210,38,255,-97,11,-29,160,-188,113,128,89,68,215,70,223,203,7,354
86220,-594,-1322,-80,425,-86,276,-193,306,-68,72,220,101,298,-119,166,57,235,-33,10,-66,95,-202,180,140,67,-8,84,-125,179,96,-151,-141
86221,-540,-1226,-24,428,-75,272,-169,314,-56,84,141,117,322,-103,145,41,299,11,34,-55,113,-136,280,155,77,31,137,53,220,168,-81,-179
86222,-557,-1244,-80,453,-92,266,-136,288,-75,78,163,79,314,-111,159,-3,248,-18,41,-34,142,-114,161,145,112,103,245,191,271,302,101,203
86223,-550,-1247,-67,448,-94,273,-133,279,-63,66,183,103,316,-125,164,-257,227,-46,18,-38,170,-147,98,134,106,100,245,126,263,304,144,273
86224,-526,-1223,13,456,-74,276,-161,333,-44,80,155,189,332,-127,166,-722,327,-14,4,-53,223,-154,145,126,76,61,225,171,232,234,41,122
86225,-530,-1195,9,485,-63,245,-178,362,-43,67,153,218,311,-133,154,-330,332,-9,-15,-89,237,-165,158,98,16,-5,146,111,155,92,-174,-178
86226,-525,-1221,29,483,-66,253,-245,395,-65,42,149,152,297,-143,102,12,287,-18,-30,-129,137,-176,182,59,-27,-82,53,88,122,59,-223,-280
86227,-481,-1264,69,475,-57,250,-307,402,-64,36,106,114,320,-152,99,156,300,-11,-23,-136,107,-147,257,47,-21,-52,92,105,114,95,-127,-119
86228,-469,-1250,64,474,-52,267,-300,450,-47,40,159,193,338,-135,138,489,319,39,-24,-136,-18,-111,276,66,-20,-41,199,36,127,147,-6,162
86229,-499,-1249,5,464,-79,247,-305,452,-80,40,185,121,333,-148,162,149,258,19,-36,-133,51,-185,158,49,-37,-49,174,-26,91,125,-51,167
86230,-679,-1290,3,474,-59,274,-294,370,-71,60,235,0,313,-143,196,51,294,17,-49,-115,123,-164,147,47,-47,-57,146,74,93,60,-236,-151
86231,-788,-1368,-75,536,-44,259,-202,430,-23,42,145,141,359,-120,140,21,368,105,3,-103,105,-63,224,104,7,-28,245,223,184,133,-174,-61
86232,-641,-1250,43,548,-25,237,-177,487,-37,32,204,299,397,-134,67,-20,383,85,27,-117,112,-95,185,95,22,-23,261,255,205,173,-103,-36
86233,-461,-1135,154,522,-45,257,-196,432,-76,27,188,232,341,-153,115,-93,354,-13,-2,-112,160,-131,132,87,12,0,240,317,206,227,-67,-12
86234,-292,-1072,238,521,-38,268,-189,456,-21,52,168,249,366,-123,202,-81,406,64,21,-69,166,-71,217,127,40,-3,147,333,262,252,-20,87
86235,-252,-1057,200,523,-34,258,-147,432,-30,58,175,-8,352,-136,225,-73,391,25,19,-86,178,-70,192,131,31,-27,92,245,187,188,-52,52
86236,-338,-1104,113,516,-67,248,-173,482,-41,40,222,286,347,-154,129,148,346,61,19,-127,82,-106,162,85,10,-39,134,108,146,150,-97,84
86237,-375,-1146,174,498,-51,243,-123,422,-36,50,246,320,368,-147,100,345,351,77,24,-114,89,-71,189,119,25,-41,209,39,170,173,-36,267
86238,-416,-1158,197,510,-34,250,-110,141,0,65,254,-25,412,-122,160,252,306,59,29,-94,124,-56,161,140,37,-26,274,162,187,226,41,423
86239,-395,-1178,169,477,-48,252,-151,99,-1,42,253,-77,430,-155,129,186,243,46,-9,-146,64,-89,101,86,-16,-109,143,102,108,121,-159,17
86240,-367,-1141,111,464,-36,301,-66,662,-36,65,231,287,300,-162,136,126,326,41,-36,-139,51,-102,94,56,-31,-107,102,9,80,82,-215,-145
86241,-344,-1139,175,432,-40,324,-56,652,-55,88,237,302,204,-136,185,107,367,16,-10,-79,111,-65,130,79,40,-46,184,81,155,167,-108,60
86242,-376,-1169,181,433,-32,321,-118,437,-21,83,229,256,305,-119,195,-47,329,29,22,-70,151,-21,184,158,73,-14,237,-11,209,214,-45,108
86243,-393,-1175,145,441,-74,288,-152,437,-22,104,241,194,276,-125,208,-113,311,-7,0,-62,204,-13,85,98,57,5,234,60,146,194,-84,-11
86244,-418,-1158,85,457,-52,326,-189,337,-28,114,286,161,281,-97,239,220,276,-4,0,-63,200,6,51,64,33,-13,199,73,101,133,-151,-45
86245,-417,-1181,75,435,-54,324,-182,355,-42,86,301,70,274,-101,208,351,246,3,-20,-89,123,-46,97,81,12,-58,154,4,82,71,-196,43
86246,-441,-1214,92,440,-77,270,-225,371,-62,60,184,-33,273,-133,164,153,197,36,-7,-92,105,-116,168,100,7,-52,202,5,119,159,-81,304
86247,-483,-1216,52,453,-66,277,-225,311,-51,86,124,12,288,-123,167,23,175,70,15,-78,104,-154,158,115,35,-19,229,25,142,200,-7,416
86248,-460,-1227,34,429,-47,277,-195,325,-61,91,177,99,265,-98,168,5,166,-7,6,-76,123,-170,24,64,45,-43,188,-9,124,183,-20,144
86249,-463,-1237,27,437,-63,257,-218,363,-63,83,177,96,215,-116,175,-284,145,-215,-30,-87,137,-174,-106,-2,24,-45,155,6,122,195,-30,-111
86250,-459,-1248,-70,428,-67,263,-232,326,-59,95,152,28,249,-91,207,-439,149,-149,-3,-50,225,-94,-79,61,57,11,238,84,192,278,37,131
86251,-472,-1239,-159,406,-64,260,-216,268,-62,85,189,3,235,-109,194,276,139,-138,-8,-75,177,-60,-28,33,14,-44,207,92,127,110,-190,31
86252,-562,-1213,-141,440,-48,256,-163,251,-57,69,185,-1,242,-131,143,369,125,-120,-39,-121,-24,-122,27,-3,-30,-118,47,-2,30,-3,-346,-147
86253,-637,-1220,-77,435,-42,228,-189,253,-53,90,204,-7,267,-133,173,251,135,-84,-24,-105,47,-122,137,15,-10,-96,140,-116,-2,27,-230,15
86254,-597,-1227,-59,450,-58,247,-197,238,-46,79,213,-13,262,-110,183,106,90,-82,-12,-94,141,-147,63,9,2,-57,172,-78,41,82,-140,-3
86255,-654,-1282,-133,419,-60,280,-202,193,-45,80,164,-58,267,-124,185,-112,58,-124,-24,-97,182,-199,-50,-12,-2,-89,94,-3,20,30,-260,-331
86256,-647,-1405,-157,374,-68,252,-225,225,-68,88,147,-125,240,-145,177,-207,27,-196,-48,-90,247,-227,-189,-41,-30,-85,77,60,20,20,-259,-334
86257,-602,-1312,-144,359,-84,263,-301,164,-88,98,203,-210,199,-126,216,293,-7,-268,-66,-106,113,-148,-282,-94,-28,-69,106,6,17,47,-228,-229
86258,-609,-1255,-184,334,-110,256,-363,119,-99,94,234,-270,182,-156,241,371,-67,-252,-76,-114,-6,-220,-251,-88,-55,-100,33,-144,-31,0,-225,-218
86259,-592,-1265,-218,315,-111,227,-362,134,-117,98,196,-243,190,-141,234,40,-44,-248,-76,-105,120,-273,-204,-87,-37,-78,34,-84,-16,-2,-257,-219
86260,-594,-1237,-229,327,-109,234,-273,189,-106,92,238,-166,207,-111,144,-126,33,-252,-58,-121,81,-200,-185,-66,-18,-87,75,-43,6,-18,-276,-238
86261,-593,-1240,-184,342,-83,253,-203,162,-101,118,222,-345,204,-99,161,-41,90,-275,-36,-82,138,-188,-183,-46,9,-11,144,5,90,88,-118,-60
86262,-590,-1282,-171,280,-113,250,-197,133,-137,107,197,-2,210,-97,181,-51,75,-186,-8,-60,138,-159,-92,-35,41,22,186,-14,87,154,-34,154
86263,-623,-1300,-290,309,-121,249,-180,100,-157,96,210,-39,204,-85,180,26,91,-192,0,-38,154,-65,-38,-9,50,39,255,-75,51,175,39,306
86264,-615,-1292,-238,308,-110,255,-137,100,-141,107,178,-181,219,-77,246,-114,114,-158,12,3,236,-54,-11,20,89,84,340,40,119,204,50,316
86265,-607,-1263,-249,315,-101,276,-146,143,-112,137,136,-189,234,-60,290,-346,186,-117,13,18,257,-200,22,45,96,45,234,26,101,56,-205,-100
86266,-676,-1256,-336,300,-147,255,-159,166,-121,113,246,-110,263,-77,269,75,196,-78,1,2,240,-221,75,84,88,38,133,-162,112,6,-269,-489
86267,-644,-1219,-235,324,-129,288,-78,210,-111,115,351,-33,277,-75,190,236,222,-46,30,-15,114,-129,107,115,117,57,138,86,201,170,-95,-188
86268,-701,-1254,-244,347,-123,275,-140,173,-109,116,317,-69,252,-71,217,64,235,-113,19,7,157,-125,99,91,110,80,154,244,203,192,-66,-79
86269,-733,-1306,-336,327,-145,240,-290,-142,-103,92,269,-167,297,-96,247,-19,198,-100,0,16,266,-226,102,86,119,113,247,156,169,160,-59,-202
86270,-666,-1298,-391,345,-136,262,-267,-124,-62,96,263,-58,368,-81,259,-282,252,-24,43,42,342,-250,168,184,163,168,330,156,260,244,41,-107
86271,-665,-1305,-326,370,-134,250,-293,512,-94,91,224,200,223,-82,244,-312,322,-11,20,20,280,-162,235,202,166,119,242,215,310,298,65,284
86272,-783,-1340,-181,342,-134,213,-341,475,-117,88,163,176,138,-70,241,-62,355,-33,17,26,261,-98,227,192,171,133,256,267,350,377,180,529
86273,-908,-1457,-264,284,-179,139,-449,150,-116,47,71,127,218,-79,194,416,342,6,50,9,221,-118,254,197,184,128,284,145,352,399,180,458
86274,-860,-1503,-242,313,-183,162,-391,240,-90,78,116,203,282,-64,192,402,420,89,88,13,114,-70,344,281,198,97,204,249,404,388,96,145
86275,-781,-1449,-238,338,-158,195,-341,277,-72,70,153,230,316,-89,198,306,480,104,101,-12,133,-90,382,308,158,54,128,363,396,284,-83,-268
86276,-670,-1313,-94,372,-110,227,-230,318,-64,60,182,249,321,-99,209,271,485,127,68,-30,176,-98,401,284,132,42,202,383,399,287,-65,-91
86277,-487,-1090,28,408,-70,289,-45,354,-88,63,234,256,305,-139,157,233,461,104,33,-94,128,-124,341,199,60,-23,156,258,307,203,-104,-52
86278,-322,-952,49,435,-55,336,55,352,-99,79,286,218,293,-177,151,223,447,88,15,-116,132,-100,294,192,37,-35,135,199,262,193,-98,-50
86279,-343,-946,-25,424,-66,320,17,317,-103,58,256,182,277,-156,155,168,407,72,6,-119,125,-110,282,204,33,-57,135,214,273,218,-90,-2
86280,-417,-1064,-56,416,-74,273,-47,319,-98,42,227,155,278,-146,141,120,402,111,11,-137,125,-192,314,210,14,-58,132,214,270,214,-71,32
86281,-447,-1125,-45,439,-68,256,-85,342,-69,52,221,92,329,-134,137,51,380,170,33,-110,131,-103,319,212,28,-46,179,212,269,202,-64,133
86282,-378,-1030,-74,456,-38,287,-47,359,-72,50,229,109,336,-140,141,-97,397,184,21,-113,218,-101,317,206,19,-53,186,220,261,173,-89,162
86283,-290,-964,35,495,-38,320,-20,408,-102,51,225,282,342,-151,120,-252,414,182,0,-142,228,-158,299,179,10,-78,136,251,229,169,-145,-15
86284,-342,-995,51,502,-20,336,-20,425,-80,60,253,291,299,-139,122,202,368,5,-30,-149,139,-118,226,123,-21,-96,187,230,216,214,-60,206
86285,-421,-1042,23,495,-34,311,-49,404,-69,53,242,142,273,-162,89,317,377,6,-44,-183,-76,-140,241,79,-46,-148,135,208,184,172,-109,117
86286,-374,-1019,40,479,-27,335,-41,370,-63,60,233,165,275,-156,110,83,343,27,-50,-171,40,-180,217,88,-68,-153,56,148,131,60,-262,-214
86287,-284,-1006,93,496,-37,359,-48,376,-75,71,257,225,271,-166,137,83,343,12,-27,-165,111,-176,154,95,-47,-110,125,118,133,91,-153,60
86288,-274,-1088,111,494,-25,330,-35,312,-116,78,253,-128,221,-161,176,42,324,-75,-53,-142,121,-144,121,84,-30,-105,117,57,132,132,-103,230
86289,-316,-1080,84,488,-43,303,-79,339,-140,68,205,164,256,-155,154,-173,300,1,-60,-180,28,-226,150,87,-68,-172,-43,-19,88,39,-275,-80
86290,-348,-963,46,479,-37,344,-72,348,-128,87,172,215,232,-155,152,-192,238,-38,-74,-183,17,-232,52,2,-66,-197,-54,116,35,-6,-294,-301
86291,-330,-952,50,489,-17,368,-13,365,-79,97,209,33,250,-124,116,-73,206,-41,-39,-128,60,-221,70,39,-29,-144,32,127,100,71,-202,-102
86292,-367,-988,-9,463,-41,352,-85,429,-98,71,270,157,259,-146,65,-155,186,1,-47,-173,10,-256,120,54,-58,-191,-21,106,63,0,-323,-266
86293,-345,-998,42,429,-44,357,-94,305,-152,86,304,52,205,-160,101,-64,151,-82,-63,-159,30,-236,50,18,-52,-169,10,75,50,4,-290,-224
