,Fp1,Fp2,F7,F3,Fz,F4,F8,FC5,FC1,FC2,FC6,T7,C3,Cz,C4,T8,TP9,CP5,CP1,CP2,CP6,TP10,P7,P3,Pz,P4,P8,PO9,O1,Oz,O2,PO10
18898,10,83,83,-81,-165,-238,-75,216,-96,-4,-82,-93,223,-82,16,-1,-38,-146,-8,142,-410,99,251,13,147,31,70,-231,16,-90,47,-99
18899,16,69,104,-58,-172,-256,-95,220,-91,4,-69,-81,198,-78,16,44,-29,-144,-6,134,-404,52,260,-1,138,19,56,-212,2,-130,15,-161
18900,-47,14,28,-90,-195,-298,-114,189,-97,-24,-99,-136,176,-76,3,56,-77,-193,-32,112,-427,9,209,-33,100,12,44,-258,-54,-191,-18,-213
18901,-43,4,7,-90,-192,-290,-127,173,-100,-31,-100,-144,190,-86,-12,9,-70,-171,-26,110,-446,-127,229,-22,99,-27,7,-242,-36,-179,-35,-228
18902,-29,17,23,-102,-186,-267,-139,201,-93,-16,-107,-109,216,-73,-9,-61,-46,-133,-13,138,-454,-44,289,17,132,2,33,-115,59,-110,14,-188
18903,-48,11,42,-68,-185,-284,-151,205,-100,-10,-139,-111,235,-70,-16,-52,-39,-141,4,144,-458,46,300,38,158,22,36,-62,97,-77,50,-169
18904,-62,2,15,-92,-174,-277,-137,197,-114,-7,-118,-117,213,-80,-6,19,-29,-139,6,149,-431,42,302,49,152,43,58,-71,96,-78,50,-161
18905,-81,-1,3,-98,-191,-269,-75,182,-109,4,-99,-125,212,-67,8,75,-38,-133,-5,147,-418,50,305,41,135,46,72,-68,105,-75,32,-144
18906,-85,-3,-1,-91,-184,-265,-58,165,-106,-4,-104,-129,195,-81,24,86,-41,-141,-16,141,-411,52,297,41,130,27,64,-35,110,-67,39,-143
18907,-30,41,26,-59,-159,-240,-47,214,-89,3,-59,-97,224,-94,40,96,-9,-133,-7,164,-388,72,319,53,143,55,95,-28,119,-42,74,-126
18908,-29,84,69,-30,-159,-218,-4,253,-97,30,-16,-61,239,-81,66,109,-6,-127,-1,174,-370,96,313,35,134,56,106,-122,65,-62,60,-123
18909,-71,61,60,-28,-161,-221,-4,246,-112,22,9,-70,230,-68,70,127,-12,-137,-18,155,-359,82,298,27,104,36,90,-97,55,-73,33,-128
18910,-56,55,29,-90,-154,-210,-14,230,-101,19,-20,-83,222,-67,70,118,-2,-146,-9,165,-364,75,322,48,141,41,97,45,138,-21,85,-69
18911,-88,23,-16,-131,-191,-245,-41,191,-111,7,-83,-123,195,-99,35,59,-64,-157,-25,139,-418,31,292,12,111,17,78,2,131,-14,104,-78
18912,-90,47,0,-128,-192,-222,-38,176,-110,36,-50,-130,189,-93,45,44,-108,-175,-42,142,-402,0,250,-24,94,17,89,-41,95,-40,85,-104
18913,-98,73,-7,-119,-172,-192,-61,129,-114,43,-6,-170,167,-86,67,-7,-168,-234,-76,143,-401,-58,191,-90,55,-13,57,-129,17,-117,4,-155
18914,-91,49,-16,-119,-169,-174,-77,129,-124,53,-8,-210,145,-69,48,-24,-194,-274,-95,118,-441,-94,123,-122,38,-40,-7,-241,-64,-193,-65,-209
18915,-103,11,-29,-126,-189,-267,-94,141,-136,21,-56,-212,130,-57,10,-88,-224,-306,-92,87,-496,-115,80,-143,14,-88,-70,-318,-118,-248,-116,-254
18916,-108,13,-36,-131,-195,-282,-108,134,-131,9,-90,-239,125,-46,1,-115,-273,-317,-91,83,-505,-140,33,-158,2,-102,-66,-443,-194,-280,-96,-247
18917,-98,-11,-62,-141,-213,-269,-132,115,-127,-25,-85,-234,147,-60,-2,-57,-237,-302,-89,76,-487,-110,71,-138,11,-68,-36,-295,-118,-219,-64,-196
18918,-100,-48,-62,-129,-234,-274,-136,112,-120,-19,-66,-210,159,-67,-4,-5,-204,-270,-72,90,-461,-72,121,-127,12,-46,-13,-186,-69,-186,-35,-189
18919,-86,7,-40,-121,-217,-241,-79,106,-99,1,-37,-192,186,-36,22,62,-180,-234,-45,117,-432,-22,155,-99,28,-34,4,-171,-53,-186,-37,-212
18920,-105,19,-33,-128,-206,-247,-76,103,-95,8,-72,-192,189,-36,35,100,-163,-227,-44,124,-423,42,148,-74,41,-14,44,-162,-25,-143,-32,-170
18921,-106,-2,-28,-128,-203,-275,-102,150,-100,-7,-88,-161,196,-25,27,111,-112,-191,-41,133,-410,55,206,-42,64,-3,60,-78,-13,-129,-12,-146
18922,-149,-17,-65,-146,-242,-314,-150,129,-121,-30,-102,-184,190,-61,3,79,-145,-204,-43,112,-449,16,189,-57,53,-42,13,-45,-5,-155,-9,-194
18923,-146,-26,-102,-159,-240,-309,-139,122,-117,-23,-126,-206,206,-65,20,72,-194,-209,-28,112,-437,38,153,-52,59,-21,29,-152,-20,-141,11,-206
18924,-150,-1,-94,-164,-232,-287,-92,126,-121,-13,-100,-224,212,-55,16,101,-221,-232,-32,128,-421,-3,131,-66,39,-8,37,-295,-70,-152,7,-183
18925,-132,25,-62,-157,-225,-254,-41,158,-110,-12,-67,-214,220,-53,27,106,-219,-245,-27,134,-434,29,94,-95,32,-30,-3,-429,-130,-199,-52,-224
18926,-117,48,-43,-152,-225,-245,-14,177,-108,-10,-52,-215,218,-54,50,93,-170,-219,-18,106,-442,-19,161,-65,26,-55,-39,-161,-38,-154,-74,-235
18927,-87,90,-45,-138,-218,-247,20,183,-83,-7,-32,-206,213,-53,22,65,-189,-222,-31,102,-475,-61,158,-75,17,-96,-78,-148,-65,-198,-113,-283
18928,-101,86,-52,-126,-221,-323,-10,174,-73,10,-63,-215,208,-33,7,44,-250,-248,-37,111,-480,-17,91,-100,1,-83,-74,-357,-102,-215,-78,-262
18929,-173,29,-91,-150,-231,-346,-18,170,-87,4,-66,-243,204,-49,9,27,-244,-268,-39,94,-473,-28,84,-87,-6,-88,-43,-436,-103,-196,-57,-255
18930,-213,-10,-124,-180,-269,-291,-30,158,-109,-22,-75,-236,211,-56,4,0,-181,-222,-48,68,-488,-42,155,-71,-11,-91,-59,-164,-4,-132,-47,-261
18931,-282,-49,-196,-217,-293,-304,-61,106,-122,-27,-101,-244,211,-48,-18,-55,-200,-223,-38,88,-508,-4,169,-53,-10,-105,-83,-55,47,-143,-52,-252
18932,-239,-5,-155,-199,-263,-273,-68,121,-119,-18,-87,-225,207,-42,-22,-137,-196,-221,-35,82,-536,-107,150,-58,-14,-134,-137,-156,-35,-188,-110,-322
18933,-212,22,-122,-186,-254,-247,-44,116,-113,0,-74,-203,193,-58,-10,-124,-220,-226,-54,71,-522,-150,96,-115,-29,-139,-147,-385,-145,-254,-143,-330
18934,-201,3,-129,-207,-250,-233,-24,138,-126,32,-45,-201,194,-36,12,-94,-199,-228,-38,104,-475,-45,123,-110,-5,-106,-81,-341,-96,-207,-94,-276
18935,-186,-52,-108,-183,-264,-248,-61,145,-143,0,-40,-183,188,-47,12,-32,-180,-214,-29,95,-467,-54,150,-93,13,-86,-40,-216,-38,-151,-44,-229
18936,-179,-107,-84,-163,-260,-232,-50,116,-146,-5,-49,-198,198,-44,34,65,-168,-228,-37,126,-407,-30,178,-95,40,-41,-6,-154,-22,-146,-27,-226
18937,-127,-105,-71,-158,-256,-231,-34,119,-138,3,-43,-205,186,-27,34,81,-180,-236,-39,142,-393,0,156,-84,41,-9,6,-230,-39,-157,-30,-233
18938,-87,-40,-42,-128,-244,-241,8,155,-124,12,-20,-181,197,-39,63,107,-147,-210,-29,157,-379,14,168,-79,55,8,21,-225,-39,-143,4,-187
18939,-74,24,-9,-121,-224,-223,34,205,-104,19,25,-158,220,-33,85,135,-150,-190,-19,168,-348,35,183,-43,67,13,50,-130,-11,-145,0,-190
18940,-70,86,26,-108,-226,-240,15,238,-110,6,-1,-156,205,-59,62,98,-176,-213,-28,138,-387,-16,119,-90,38,-11,20,-341,-129,-230,-60,-224
18941,-65,112,11,-98,-215,-233,22,217,-108,-3,-44,-159,220,-50,73,110,-187,-205,-23,145,-373,-8,97,-99,44,-5,8,-432,-187,-243,-68,-255
18942,-54,120,1,-78,-199,-235,27,237,-88,3,-27,-159,251,-47,89,119,-182,-168,12,192,-349,4,144,-47,64,34,30,-310,-93,-172,-33,-264
18943,-59,131,32,-72,-220,-242,37,251,-76,8,2,-139,255,-59,103,65,-163,-168,13,191,-353,12,163,-26,90,43,50,-242,-38,-159,3,-262
18944,-44,161,50,-68,-206,-232,54,259,-83,41,52,-111,256,-62,130,61,-121,-137,31,191,-328,2,209,16,126,84,86,-125,23,-97,43,-199
18945,-43,192,38,-91,-207,-334,48,241,-96,27,59,-124,251,-59,104,53,-130,-155,15,191,-356,-95,211,6,104,52,27,-179,-5,-85,36,-181
18946,-48,182,10,-96,-231,-286,32,221,-95,14,50,-138,257,-52,98,11,-125,-156,-2,173,-411,-36,217,-9,85,12,-11,-163,1,-80,78,-173
18947,-60,164,0,-109,-220,-226,40,193,-102,34,49,-137,251,-61,86,56,-136,-165,-9,158,-400,-5,221,-24,103,13,-4,-191,2,-102,64,-180
18948,-86,81,-40,-154,-264,-307,-24,165,-115,-10,-3,-155,228,-71,46,77,-141,-182,-27,144,-416,-60,207,-21,92,-19,-14,-111,23,-105,18,-227
18949,-132,24,-86,-167,-268,-331,-67,147,-115,-16,-36,-177,195,-72,42,67,-141,-163,-14,165,-416,-44,243,-15,101,-35,-24,48,102,-57,12,-232
18950,-117,37,-64,-169,-255,-330,-18,135,-125,-22,-14,-148,215,-57,79,66,-120,-149,-3,159,-414,-55,304,24,116,-9,-5,228,210,6,56,-196
18951,-79,61,-56,-156,-214,-277,20,143,-120,-6,9,-171,206,-55,70,38,-171,-187,-20,157,-409,-18,210,-16,91,-18,24,-36,76,-61,31,-196
18952,-69,82,-66,-164,-213,-229,41,108,-114,-13,-17,-221,157,-93,43,-6,-222,-242,-64,122,-440,10,98,-90,47,-61,-9,-413,-129,-178,-53,-237
18953,-74,88,-75,-136,-205,-232,41,113,-113,-2,-52,-196,167,-86,23,34,-183,-237,-65,117,-439,-5,119,-74,42,-65,-15,-303,-95,-170,-8,-208
18954,-71,107,-103,-142,-176,-229,15,81,-129,-12,-93,-243,132,-94,-2,39,-223,-273,-81,79,-475,-38,58,-110,-3,-95,-50,-416,-154,-221,-71,-264
18955,-20,119,-91,-208,-186,-240,37,85,-124,-22,-84,-286,128,-101,-24,43,-264,-301,-92,62,-494,-85,36,-149,-28,-118,-129,-457,-199,-259,-135,-387
18956,-12,137,-68,-180,-186,-230,24,116,-143,-23,-61,-287,134,-108,-13,41,-218,-298,-107,77,-481,-87,79,-145,-34,-113,-132,-295,-133,-225,-109,-380
18957,-43,137,-48,-83,-160,-241,50,160,-119,-6,-26,-230,175,-120,42,79,-172,-252,-85,92,-447,-69,148,-88,8,-76,-84,-89,-26,-141,-57,-321
18958,-35,143,-23,-44,-157,-227,50,200,-113,-3,-2,-201,178,-108,41,99,-189,-231,-60,94,-424,-6,111,-69,20,-53,-46,-267,-56,-140,-10,-254
18959,-5,153,8,-61,-170,-248,57,217,-108,1,19,-210,192,-106,39,91,-220,-242,-79,115,-407,39,66,-94,23,-45,-34,-449,-124,-180,-3,-219
18960,-39,126,23,-61,-180,-239,51,235,-103,-8,26,-168,207,-94,46,98,-186,-205,-60,135,-386,29,149,-62,38,-17,2,-222,-53,-149,2,-200
18961,-36,137,33,-65,-178,-244,48,255,-93,11,52,-132,212,-104,67,85,-147,-191,-48,134,-369,14,203,-27,41,-6,10,-134,-8,-122,23,-184
18962,-28,136,39,-58,-176,-207,62,249,-101,34,92,-142,197,-124,90,139,-205,-228,-88,126,-364,60,120,-110,-7,-32,6,-374,-123,-195,-24,-230
18963,-49,122,5,-70,-180,-215,72,224,-110,46,61,-171,162,-127,85,174,-200,-248,-112,112,-364,126,118,-113,-10,-19,39,-349,-113,-178,-15,-197
18964,-51,133,19,-80,-177,-219,107,208,-109,35,33,-138,157,-136,83,168,-152,-224,-106,103,-375,93,160,-78,-2,-32,15,-161,-34,-155,-9,-206
18965,-70,94,-3,-120,-182,-230,72,201,-116,16,16,-154,147,-148,66,154,-137,-224,-103,89,-382,100,211,-74,-14,-69,4,0,32,-130,-20,-191
18966,-90,67,-41,-124,-187,-249,49,186,-106,18,6,-176,147,-156,61,171,-156,-238,-112,77,-384,77,207,-69,-23,-75,0,-1,33,-139,-21,-228
18967,-90,107,-35,-132,-196,-238,81,156,-112,10,7,-195,122,-160,55,180,-133,-237,-119,73,-387,51,175,-85,-21,-82,-7,-118,-5,-155,-53,-211
18968,-93,108,-30,-140,-206,-240,60,135,-144,-1,22,-203,92,-184,38,170,-162,-286,-142,49,-389,23,138,-109,-41,-92,-15,-173,-20,-183,-81,-250
18969,-75,119,15,-133,-197,-276,80,140,-151,-7,35,-158,91,-167,58,157,-125,-245,-148,78,-390,-17,194,-96,-23,-69,-29,-69,28,-141,-43,-244
18970,-66,154,12,-109,-174,-296,98,150,-128,12,72,-157,82,-154,67,136,-166,-261,-145,77,-409,24,127,-117,-37,-66,-27,-297,-74,-152,-60,-221
18971,-26,159,17,-92,-167,-167,91,158,-143,8,100,-166,98,-163,60,72,-180,-293,-147,72,-404,73,85,-153,-44,-76,-21,-440,-139,-207,-47,-200
18972,0,205,9,-100,-150,-208,121,158,-150,8,85,-169,114,-138,93,-12,-153,-281,-145,97,-360,118,130,-141,-31,-60,22,-283,-93,-189,-27,-181
18973,-15,205,-3,-100,-150,-189,166,133,-163,9,83,-194,95,-149,101,12,-140,-276,-145,96,-347,30,153,-124,-23,-58,10,-209,-70,-178,-12,-178
18974,2,223,22,-85,-149,-131,152,120,-173,20,82,-186,99,-150,96,92,-153,-256,-131,118,-343,88,131,-115,-11,-43,10,-289,-91,-172,-1,-160
18975,-2,217,40,-88,-150,-153,155,159,-171,30,79,-163,133,-131,108,161,-147,-230,-99,129,-324,108,152,-83,22,17,79,-287,-27,-103,75,-91
18976,1,207,30,-100,-150,-151,161,193,-160,42,88,-117,180,-127,128,224,-108,-168,-70,168,-298,70,230,-29,71,68,109,-148,34,-58,148,-63
18977,36,203,53,-76,-146,-159,159,228,-134,44,71,-115,192,-117,116,211,-89,-157,-54,143,-318,120,219,-38,82,18,79,-156,9,-93,84,-120
18978,48,214,79,-64,-151,-164,121,245,-121,33,26,-127,209,-119,88,116,-115,-158,-37,147,-360,109,187,-30,62,-10,45,-186,-17,-138,25,-170
18979,42,214,73,-47,-146,-160,128,235,-102,25,35,-109,230,-97,94,112,-118,-153,-35,150,-362,91,217,-6,78,17,58,-183,14,-87,78,-125
18980,45,218,65,-42,-146,-170,145,223,-108,29,34,-102,228,-91,91,165,-121,-149,-20,151,-333,112,218,-6,91,34,82,-189,36,-50,131,-85
18981,49,206,70,-53,-144,-190,141,237,-98,16,55,-104,240,-88,104,194,-124,-150,-10,155,-327,89,237,13,99,48,114,-130,72,-23,147,-85
18982,34,169,63,-79,-181,-233,103,232,-104,2,53,-101,235,-93,87,187,-101,-142,-18,155,-345,108,259,17,102,45,122,-60,102,7,144,-80
18983,50,188,108,-51,-175,-225,92,259,-86,2,48,-56,252,-104,78,192,-65,-102,3,158,-359,127,318,53,109,36,120,23,163,45,173,-46
18984,70,198,106,-44,-183,-215,139,259,-103,0,36,-39,247,-118,66,195,-33,-73,-1,153,-353,134,342,67,98,23,127,136,225,51,147,-23
18985,122,192,168,-18,-169,-208,150,286,-87,-5,34,-4,265,-99,83,199,-4,-61,4,140,-346,172,383,83,105,51,163,235,270,77,158,22
18986,106,168,169,-16,-165,-209,123,307,-61,-24,38,-2,282,-88,61,187,22,-51,6,142,-340,180,418,108,138,60,158,312,314,103,221,43
18987,50,141,125,-38,-184,-227,122,268,-83,-24,23,-26,258,-103,57,187,25,-65,-5,157,-326,196,368,68,102,48,166,117,238,56,194,59
18988,68,192,147,-51,-190,-248,117,277,-89,-23,22,-14,246,-111,50,175,52,-79,-18,146,-335,164,395,71,90,23,152,204,227,36,123,-24
18989,88,231,156,-53,-160,-200,151,278,-66,1,59,-1,265,-79,78,208,37,-85,8,165,-303,184,367,92,108,53,157,90,230,28,95,-13
18990,54,174,118,-158,-194,-195,124,217,-114,-1,42,-74,219,-92,70,215,-93,-159,-29,147,-312,181,200,-13,54,35,152,-378,23,-91,29,-26
18991,6,197,84,-193,-209,-196,101,165,-150,2,40,-110,184,-115,77,180,-120,-188,-51,128,-284,173,166,-47,40,35,134,-415,-35,-122,34,-42
18992,10,249,95,-110,-195,-167,142,155,-153,44,53,-118,194,-91,109,175,-90,-172,-33,155,-279,203,240,15,75,60,172,-177,78,-54,91,3
18993,13,250,91,-111,-207,-167,126,179,-165,40,47,-144,193,-98,97,189,-115,-190,-44,149,-295,176,225,-16,56,45,167,-195,32,-88,56,-36
18994,3,225,103,-99,-199,-205,124,213,-154,45,62,-95,204,-89,105,205,-98,-179,-53,162,-284,153,233,-26,50,32,150,-184,29,-110,31,-29
18995,-20,145,79,-96,-211,-229,117,232,-158,27,53,-94,211,-110,85,164,-61,-158,-41,148,-306,135,280,-2,55,35,147,-55,89,-79,55,-27
18996,-5,112,85,-122,-206,-158,126,280,-131,43,88,-61,258,-84,103,170,7,-113,4,184,-277,182,369,44,82,71,182,104,169,-25,117,3
18997,-29,124,121,-117,-208,-182,139,333,-107,47,130,8,309,-69,110,196,83,-41,32,194,-256,204,451,92,115,90,204,336,284,60,195,58
18998,-52,140,135,-65,-221,-191,142,342,-110,32,99,12,303,-89,117,171,86,-37,25,189,-271,153,431,74,125,73,193,249,249,27,137,-9
18999,-57,149,161,-34,-209,-183,139,351,-82,43,85,15,306,-66,110,124,8,-80,16,175,-305,95,343,34,99,26,121,-25,91,-102,21,-121
19000,-49,117,160,-54,-217,-220,110,352,-100,27,75,8,314,-89,66,91,30,-88,2,130,-385,62,343,10,62,-27,48,50,71,-142,-37,-147
19001,-24,117,124,-68,-231,-282,82,314,-103,4,53,-34,263,-118,40,87,-16,-112,-40,80,-433,120,284,-11,9,-66,22,-62,31,-171,-67,-163
19002,-31,130,93,-83,-229,-251,64,274,-110,-15,23,-73,231,-126,-1,88,-74,-174,-89,53,-446,46,206,-79,-25,-105,-9,-275,-53,-245,-124,-199
19003,-1,163,104,-92,-210,-282,60,264,-94,-21,2,-75,206,-134,-6,124,-68,-183,-87,43,-456,10,198,-81,-44,-107,-9,-218,-59,-236,-102,-199
19004,13,192,106,-87,-214,-326,61,250,-98,-31,9,-80,185,-142,-7,108,-46,-193,-101,39,-460,-22,229,-88,-61,-135,-35,-87,-60,-232,-148,-221
19005,22,188,110,-75,-200,-229,65,263,-90,-26,32,-59,190,-122,6,99,-15,-172,-96,52,-453,44,285,-68,-27,-121,-23,30,-28,-238,-129,-224
19006,28,167,92,-65,-208,-230,53,264,-107,-30,40,-52,180,-106,14,112,3,-174,-80,78,-409,104,304,-55,-18,-77,40,51,27,-189,-60,-112
19007,14,153,82,-76,-204,-216,87,252,-127,-15,40,-88,139,-114,20,127,-68,-227,-108,68,-414,83,199,-113,-48,-103,21,-267,-123,-308,-115,-179
19008,31,155,86,-84,-203,-196,102,253,-141,6,23,-97,154,-119,35,116,-73,-235,-97,87,-417,77,197,-134,-59,-99,6,-271,-138,-312,-133,-198
19009,30,168,96,-72,-216,-197,105,222,-139,24,33,-107,157,-81,46,115,-68,-224,-102,98,-409,52,216,-115,-55,-117,8,-169,-93,-291,-144,-200
19010,36,189,83,-62,-199,-183,112,224,-144,31,62,-108,142,-86,73,143,-120,-235,-115,88,-399,-6,122,-144,-80,-107,11,-426,-178,-350,-152,-224
19011,24,191,77,-60,-191,-164,100,242,-154,56,65,-120,151,-95,75,158,-154,-243,-97,95,-380,63,119,-127,-62,-74,36,-424,-175,-333,-123,-202
19012,4,191,50,-71,-185,-160,108,222,-146,56,43,-172,146,-117,81,132,-186,-271,-113,92,-387,105,113,-150,-54,-82,30,-352,-168,-322,-145,-217
19013,6,162,24,-70,-187,-173,64,217,-146,20,32,-203,134,-136,47,69,-230,-289,-139,50,-424,26,87,-181,-91,-142,7,-339,-174,-337,-155,-245
19014,-12,118,44,-59,-196,-192,-8,229,-118,28,-1,-195,152,-140,6,15,-233,-297,-146,34,-473,-20,73,-185,-110,-167,-50,-263,-164,-328,-162,-266
19015,-61,85,15,-40,-190,-221,-52,249,-106,5,-34,-204,154,-143,-11,-15,-264,-293,-147,27,-512,-25,65,-183,-131,-193,-92,-205,-147,-356,-201,-311
19016,-95,43,-36,-61,-220,-243,-64,224,-112,-26,-57,-239,120,-164,-46,-67,-315,-325,-181,-19,-549,-74,-2,-233,-180,-239,-158,-377,-250,-442,-263,-362
19017,-57,45,13,-50,-208,-235,-50,249,-96,0,-55,-222,137,-155,-52,-137,-319,-312,-189,-26,-569,-244,-26,-244,-190,-260,-181,-502,-314,-477,-304,-370
19018,-49,42,18,-44,-205,-258,-70,255,-79,-6,-103,-214,152,-157,-78,-131,-341,-326,-179,-6,-553,-153,-28,-223,-179,-243,-138,-537,-288,-433,-259,-327
19019,-56,29,8,-54,-226,-287,-91,239,-90,-29,-120,-220,137,-186,-92,-108,-301,-298,-175,-2,-544,-102,-3,-213,-166,-228,-138,-406,-245,-392,-214,-344
19020,-80,12,-16,-82,-236,-307,-93,206,-96,-33,-120,-226,150,-165,-74,-66,-273,-275,-165,-7,-547,-114,66,-195,-147,-202,-135,-227,-149,-344,-184,-341
19021,-85,14,-16,-95,-232,-310,-71,183,-92,-45,-134,-199,137,-168,-63,-9,-268,-263,-142,6,-523,-82,51,-186,-129,-172,-87,-272,-138,-299,-122,-273
19022,-71,12,-42,-124,-236,-309,-98,183,-92,-52,-114,-225,120,-166,-69,-24,-280,-277,-173,9,-510,-80,29,-219,-145,-166,-100,-397,-191,-322,-141,-285
19023,-93,-5,-64,-119,-231,-297,-117,168,-106,-54,-113,-229,111,-149,-88,-47,-281,-294,-157,8,-496,-104,35,-224,-132,-161,-106,-372,-196,-329,-132,-285
19024,-87,16,-48,-114,-213,-272,-89,188,-116,-39,-117,-248,115,-161,-70,-43,-297,-321,-161,23,-494,-122,20,-214,-114,-144,-85,-326,-164,-292,-115,-285
19025,-64,40,-46,-109,-228,-304,-69,193,-113,-26,-114,-254,119,-152,-46,-7,-271,-306,-156,44,-462,-108,75,-180,-80,-120,-56,-227,-131,-257,-76,-273
19026,-53,47,-59,-132,-241,-356,-106,182,-135,-41,-123,-220,115,-130,-48,-7,-245,-270,-124,48,-457,-122,133,-133,-44,-88,-51,-89,-39,-201,-35,-296
19027,-54,43,-77,-126,-231,-284,-104,179,-125,-12,-97,-166,161,-101,-14,0,-217,-239,-92,81,-424,-121,139,-101,-18,-70,-11,-187,-50,-199,-28,-257
19028,-80,-1,-83,-151,-248,-280,-109,155,-141,-27,-97,-185,145,-105,-10,-56,-225,-249,-85,90,-430,-124,111,-126,-15,-81,-46,-351,-129,-228,-69,-261
19029,-121,-19,-120,-157,-250,-264,-103,141,-156,-24,-105,-217,150,-102,-8,-59,-219,-232,-57,111,-412,-70,123,-91,22,-39,-27,-282,-93,-177,14,-173
19030,-123,16,-119,-123,-233,-242,-79,104,-154,2,-88,-214,146,-96,3,-6,-225,-246,-69,105,-396,-56,148,-82,28,-38,-2,-201,-69,-159,19,-157
19031,-92,41,-99,-126,-238,-253,-82,94,-161,-11,-114,-216,129,-123,-26,3,-236,-253,-89,75,-421,-120,149,-98,13,-72,-44,-187,-50,-186,-34,-275
19032,-70,58,-74,-123,-222,-240,-102,137,-139,-10,-126,-208,157,-130,-39,0,-233,-243,-82,71,-417,-79,183,-87,4,-41,-21,-87,5,-144,-26,-257
19033,-64,89,-80,-113,-207,-295,-104,155,-113,-11,-112,-221,145,-145,-25,-6,-257,-267,-97,70,-427,-162,97,-127,-28,-74,-51,-330,-144,-240,-81,-295
19034,-68,98,-78,-93,-197,-290,-66,152,-126,-13,-126,-248,123,-153,-32,-21,-295,-301,-137,49,-462,-173,37,-156,-61,-105,-102,-422,-199,-265,-94,-316
19035,-46,72,-66,-94,-196,-236,-92,166,-124,5,-108,-264,133,-166,-17,-46,-329,-326,-146,51,-452,-134,4,-171,-58,-101,-105,-476,-243,-288,-128,-321
19036,-65,47,-108,-101,-186,-256,-104,144,-111,-1,-123,-301,112,-154,-29,-53,-381,-363,-158,43,-465,-157,-43,-216,-91,-130,-128,-576,-320,-345,-169,-362
19037,-65,33,-102,-108,-199,-262,-113,113,-85,0,-147,-324,113,-138,-48,-45,-384,-352,-152,37,-463,-136,-19,-211,-108,-154,-133,-409,-235,-330,-180,-377
19038,-120,15,-180,-152,-248,-294,-151,27,-139,-53,-146,-407,60,-179,-83,-71,-472,-426,-214,-17,-517,-124,-115,-287,-145,-213,-187,-596,-329,-408,-292,-423
19039,-107,19,-168,-168,-255,-315,-153,4,-147,-53,-182,-401,43,-172,-102,-69,-462,-444,-220,-25,-534,-119,-136,-304,-174,-241,-196,-654,-382,-479,-331,-473
19040,-95,57,-166,-158,-228,-291,-146,23,-118,-64,-175,-357,64,-140,-81,-63,-408,-397,-190,-6,-521,-214,-35,-259,-143,-232,-186,-425,-273,-435,-275,-454
19041,-91,47,-155,-152,-228,-284,-144,29,-114,-50,-140,-332,78,-148,-75,-55,-359,-356,-164,3,-512,-188,-7,-226,-122,-202,-167,-420,-270,-427,-251,-419
19042,-85,47,-163,-154,-236,-285,-134,41,-137,-32,-129,-318,94,-154,-62,-38,-310,-344,-171,3,-483,-138,20,-203,-113,-195,-137,-418,-242,-390,-236,-370
19043,-47,102,-127,-134,-198,-240,-59,43,-138,-20,-79,-298,106,-164,-29,5,-272,-331,-155,13,-462,-65,57,-169,-109,-167,-117,-393,-224,-385,-217,-336
19044,-3,135,-88,-128,-184,-233,-30,64,-136,-24,-68,-257,99,-165,-25,32,-267,-313,-144,31,-434,-68,94,-150,-97,-160,-90,-346,-193,-367,-216,-329
19045,5,153,-72,-123,-191,-231,-23,80,-129,-9,-64,-206,109,-149,-17,56,-245,-283,-123,58,-414,-36,135,-118,-68,-117,-43,-303,-140,-338,-178,-293
19046,-10,139,-67,-101,-172,-231,-31,90,-121,14,-35,-198,128,-132,18,64,-173,-250,-104,69,-401,-15,169,-108,-34,-92,-26,-276,-127,-308,-143,-274
19047,-44,109,-90,-132,-187,-252,-50,85,-142,-9,-55,-242,122,-152,-4,37,-202,-272,-123,65,-415,-19,130,-133,-56,-97,-24,-336,-151,-305,-140,-278
