,Fp1,Fp2,F7,F3,Fz,F4,F8,FC5,FC1,FC2,FC6,T7,C3,Cz,C4,T8,TP9,CP5,CP1,CP2,CP6,TP10,P7,P3,Pz,P4,P8,PO9,O1,Oz,O2,PO10
107077,147,276,257,137,-202,486,181,516,-87,-65,367,27,448,-298,239,263,133,211,52,204,71,536,88,86,250,403,551,200,367,208,180,328
107078,149,324,284,156,-202,483,212,461,-90,-75,356,261,419,-306,218,238,110,190,27,161,-17,522,59,58,227,355,433,193,350,200,160,357
107079,250,419,371,203,-188,488,199,411,-78,-67,352,338,403,-317,210,232,209,179,37,174,-43,548,64,53,246,369,431,176,339,220,240,517
107080,261,457,374,163,-199,530,180,371,-83,-82,345,230,371,-334,208,220,167,120,15,170,-63,552,13,24,224,352,414,135,302,191,220,479
107081,273,419,363,139,-192,559,232,331,-87,-57,368,210,375,-300,217,233,92,143,22,186,-49,529,-3,5,213,365,450,152,297,174,214,405
107082,208,297,334,157,-210,532,221,284,-113,-66,319,237,348,-303,189,203,46,131,-3,150,-87,490,-38,-6,197,341,382,104,255,120,188,348
107083,157,124,324,120,-218,561,170,240,-117,-84,258,199,335,-306,176,172,36,88,-31,133,-127,442,-86,-36,182,316,306,85,215,93,142,234
107084,126,141,341,97,-213,599,171,239,-107,-77,233,240,328,-310,188,151,17,67,-45,146,-132,399,-95,-53,190,315,294,82,212,97,137,209
107085,65,251,350,73,-215,574,180,228,-123,-81,284,224,329,-322,189,170,33,57,-24,156,-119,368,-79,-38,206,333,325,110,259,150,181,309
107086,72,338,327,40,-228,541,216,175,-132,-103,301,179,315,-309,177,177,36,36,-19,151,-114,377,-89,-19,196,329,331,87,269,169,207,345
107087,109,328,330,11,-242,523,205,146,-152,-90,287,114,293,-318,174,158,12,29,-42,121,-135,427,-117,-54,194,311,304,53,225,88,154,258
107088,132,348,331,21,-214,541,201,145,-137,-83,292,116,280,-330,159,176,-23,14,-42,119,-138,410,-124,-62,178,307,296,44,252,96,151,154
107089,152,407,353,28,-206,538,253,129,-132,-81,311,121,287,-335,174,195,-25,38,-45,137,-107,390,-93,-42,173,309,330,26,287,140,197,220
107090,103,405,301,51,-199,526,263,139,-135,-65,329,141,291,-322,171,195,0,35,-39,132,-91,423,-64,-30,177,341,352,100,320,174,208,317
107091,0,387,261,81,-204,508,250,153,-138,-88,338,112,278,-323,178,210,21,33,-55,105,-112,433,-41,-37,160,314,340,123,350,205,227,373
107092,35,373,221,66,-211,526,152,163,-158,-89,334,46,262,-333,176,186,-11,26,-81,106,-147,255,-78,-50,142,273,279,87,314,162,167,249
107093,76,391,170,64,-195,559,109,236,-155,-96,312,19,273,-336,149,175,0,26,-67,89,-135,276,-79,-46,121,269,277,44,289,117,140,212
107094,106,411,122,98,-198,594,118,210,-147,-109,313,-13,259,-342,149,242,-51,-38,-72,75,-127,293,-114,-80,112,261,259,-35,238,94,117,211
107095,81,335,151,80,-220,576,132,135,-153,-102,303,31,252,-350,168,240,-19,-19,-66,77,-138,350,-105,-78,121,256,268,-23,223,88,97,283
107096,-4,261,195,84,-228,566,176,-67,-155,-102,286,75,243,-350,176,206,31,7,-69,91,-136,302,-68,-64,118,265,271,24,226,79,98,330
107097,54,315,251,39,-189,532,235,43,-149,-114,284,62,233,-354,174,115,94,-25,-94,98,-141,237,-79,-82,111,243,205,33,191,11,25,169
107098,96,314,195,94,-187,484,213,312,-120,-99,251,41,285,-371,138,-11,60,-29,-80,76,-157,315,-60,-86,81,201,202,79,184,-11,-12,143
107099,95,239,109,93,-178,440,145,276,-127,-111,224,44,280,-363,125,126,-40,19,-61,68,-163,180,-48,-85,75,199,254,16,174,-17,7,253
107100,89,143,-1,110,-167,434,151,317,-96,-133,243,78,277,-344,130,150,-31,20,-65,53,-152,259,-43,-104,67,175,252,-11,141,-63,-84,93
107101,66,135,0,120,-191,424,126,260,-109,-139,214,53,263,-370,85,59,-33,-48,-126,7,-210,276,-138,-152,12,103,167,-22,71,-152,-194,-125
107102,54,192,17,142,-176,435,157,255,-109,-127,166,34,265,-377,73,28,-70,-32,-123,6,-225,293,-143,-169,-6,126,158,-44,58,-149,-148,12
107103,52,192,-7,156,-174,407,202,272,-96,-116,171,-13,268,-373,97,60,31,-46,-120,14,-199,258,-128,-164,-3,129,144,-4,75,-136,-151,35
107104,-38,86,-7,172,-183,464,85,277,-98,-135,165,-2,270,-379,77,52,22,-1,-120,0,-208,281,-100,-169,-14,102,128,-17,59,-178,-158,62
107105,-46,98,100,116,-182,481,46,175,-103,-145,194,44,266,-381,52,16,-78,41,-126,-19,-247,326,-75,-158,-22,86,145,-47,49,-203,-176,88
107106,126,231,189,91,-163,496,73,131,-110,-144,203,50,254,-382,69,35,-81,30,-140,-19,-251,316,-67,-144,-29,102,182,-13,49,-206,-186,47
107107,132,316,301,91,-150,502,95,87,-118,-139,231,71,249,-377,87,69,35,-10,-126,2,-231,349,-102,-151,6,125,230,9,61,-182,-138,88
107108,143,383,355,92,-147,507,152,80,-116,-120,255,111,271,-381,110,87,32,27,-127,14,-194,358,-52,-129,10,132,236,-4,64,-179,-162,90
107109,186,431,336,32,-151,469,167,69,-131,-151,251,105,254,-404,102,110,-2,75,-118,25,-184,348,-15,-104,16,144,264,-19,52,-190,-183,73
107110,157,469,314,44,-136,463,184,94,-119,-132,250,93,284,-397,105,147,14,89,-110,27,-184,360,-2,-100,23,160,305,-11,49,-190,-144,37
107111,141,432,313,62,-118,486,159,96,-112,-119,249,126,297,-407,126,132,37,89,-98,30,-167,366,-5,-96,40,161,325,5,86,-156,-142,63
107112,167,358,275,64,-124,473,134,100,-117,-132,276,134,300,-425,122,148,35,91,-98,24,-151,348,-10,-88,52,177,315,37,93,-130,-133,134
107113,182,303,238,115,-129,499,163,148,-116,-122,277,154,264,-407,117,185,12,75,-122,19,-142,355,-31,-104,45,188,340,36,103,-125,-110,190
107114,168,318,255,140,-118,473,160,153,-107,-126,291,153,256,-431,103,183,13,78,-122,1,-142,301,-6,-109,36,191,357,32,98,-127,-111,137
107115,140,278,260,165,-113,508,101,112,-114,-132,323,-13,262,-432,103,158,3,69,-118,1,-154,312,-34,-134,28,183,343,22,107,-115,-114,130
107116,121,367,292,201,-92,543,-12,48,-114,-99,307,-80,281,-430,126,154,23,86,-100,24,-141,390,-31,-91,52,198,296,113,151,-54,-67,209
107117,49,395,289,173,-106,554,0,-95,-126,-119,266,67,240,-450,111,147,47,41,-117,8,-170,346,-63,-101,57,159,225,89,149,-52,-65,231
107118,82,347,286,192,-110,550,102,198,-116,-103,268,34,269,-449,126,207,31,10,-114,24,-166,297,-130,-124,30,180,230,20,100,-101,-83,197
107119,195,238,217,162,-88,576,177,273,-112,-96,295,72,277,-434,130,296,12,32,-123,29,-155,230,-116,-140,23,166,231,-3,70,-161,-127,81
107120,250,145,180,156,-84,561,211,255,-87,-94,314,130,281,-418,146,272,44,-3,-129,49,-127,243,-98,-151,31,170,251,41,92,-139,-133,86
107121,168,179,125,176,-86,555,215,221,-119,-95,316,164,285,-436,156,173,-28,24,-129,37,-113,338,-80,-151,30,165,259,29,89,-130,-109,158
107122,177,352,71,164,-88,598,224,218,-126,-97,307,137,277,-444,131,0,-67,52,-143,18,-153,327,-59,-143,14,152,202,12,85,-175,-165,69
107123,185,435,63,181,-98,601,222,229,-111,-133,269,77,281,-465,98,10,-57,38,-158,-10,-193,328,-63,-149,-25,112,111,-42,54,-204,-204,5
107124,169,471,64,222,-84,589,242,292,-120,-114,255,102,300,-471,88,121,-27,42,-151,-2,-229,351,-28,-161,-26,100,138,-1,77,-181,-205,37
107125,205,515,196,222,-89,525,186,346,-104,-127,233,72,316,-452,86,99,-25,61,-132,-1,-229,344,-40,-138,-13,110,201,9,97,-163,-179,62
107126,202,491,221,214,-98,506,157,268,-74,-122,233,100,326,-447,89,93,17,67,-125,1,-225,285,-21,-126,-9,129,163,63,103,-136,-156,76
107127,227,403,152,186,-102,474,139,218,-80,-125,249,65,298,-445,86,80,-11,44,-141,-21,-247,163,-58,-143,-4,96,143,36,111,-142,-193,5
107128,191,386,119,262,-84,493,138,267,-61,-125,273,92,305,-425,127,109,-11,53,-100,6,-192,260,-32,-107,20,117,181,17,126,-154,-183,3
107129,88,373,38,281,-118,478,139,337,-68,-145,236,103,313,-444,109,103,-21,85,-91,8,-185,318,3,-96,45,146,191,11,109,-143,-170,47
107130,133,413,53,246,-99,487,180,296,-88,-125,259,73,312,-428,127,112,59,56,-74,42,-162,331,-1,-83,78,166,207,29,161,-73,-115,108
107131,178,438,155,223,-66,486,149,194,-67,-124,280,97,304,-440,131,89,83,41,-72,43,-144,367,-13,-90,72,185,231,27,186,-41,-87,121
107132,209,468,283,202,-80,495,154,117,-75,-152,264,104,315,-456,123,106,42,88,-73,36,-123,357,15,-70,74,178,232,88,189,-47,-55,187
107133,238,471,334,186,-106,503,165,123,-77,-131,274,86,300,-451,136,157,48,95,-59,41,-120,377,25,-56,91,200,248,136,193,-38,-23,239
107134,259,462,276,161,-110,452,172,129,-70,-139,255,39,309,-456,121,143,46,56,-84,44,-150,378,-14,-98,93,202,220,139,196,-27,-32,246
107135,296,478,241,151,-96,412,178,102,-82,-135,268,17,293,-455,130,129,19,30,-92,43,-160,345,-50,-102,77,196,205,160,212,-16,-28,201
107136,259,351,216,161,-105,476,133,112,-92,-131,243,60,276,-452,126,119,19,31,-94,33,-188,288,-72,-104,65,188,179,154,218,3,-42,163
107137,226,313,224,165,-114,503,119,110,-103,-113,220,99,260,-428,116,105,29,10,-102,16,-198,291,-72,-137,51,163,214,118,196,-15,-66,220
107138,198,314,275,140,-123,525,112,136,-94,-113,213,82,268,-430,119,101,43,20,-96,28,-199,296,-49,-125,48,159,306,122,182,-42,-74,176
107139,274,312,283,121,-113,545,85,173,-79,-115,267,74,273,-428,129,127,55,25,-92,39,-166,322,-35,-120,66,180,365,114,192,-51,-85,85
107140,216,347,252,202,-101,558,106,203,-59,-113,283,92,290,-433,132,144,68,64,-72,39,-153,334,0,-113,71,172,258,122,201,-50,-95,111
107141,170,399,240,217,-110,573,132,153,-77,-93,281,97,293,-442,140,196,100,91,-70,36,-174,312,41,-84,64,171,135,117,241,-1,-56,151
107142,228,455,280,195,-91,598,206,149,-71,-76,289,151,320,-433,168,301,163,110,-35,64,-130,316,80,-51,74,208,169,177,299,61,10,168
107143,259,540,311,145,-100,550,234,143,-94,-69,344,138,341,-435,190,342,162,129,-45,66,-97,309,46,-39,93,243,270,173,311,55,47,303
107144,278,447,322,166,-94,555,217,165,-84,-71,392,119,365,-430,200,252,182,124,-47,65,-86,234,34,-38,117,221,290,178,286,56,24,225
107145,275,461,326,164,-103,561,254,135,-84,-73,376,94,327,-451,192,55,181,95,-65,51,-80,383,21,-47,91,214,331,169,256,43,16,189
107146,215,430,274,109,-132,567,243,-59,-112,-78,334,112,306,-470,162,97,71,133,-80,25,-123,369,60,-66,39,189,265,140,238,8,-20,241
107147,219,411,185,150,-110,578,240,188,-84,-109,327,102,298,-460,152,203,8,112,-86,7,-130,303,99,-86,27,173,230,136,221,-8,-29,208
107148,192,440,144,198,-88,542,253,355,-82,-95,333,51,307,-468,146,173,116,113,-104,18,-132,298,83,-95,19,168,235,69,177,-54,-90,147
107149,96,490,79,236,-95,555,246,381,-83,-85,293,-114,308,-486,119,134,107,27,-137,-21,-206,249,-54,-135,-16,119,112,63,139,-107,-155,0
107150,35,448,-84,260,-105,527,193,472,-74,-111,267,-20,313,-483,90,108,43,0,-137,-48,-229,266,-56,-151,-29,88,53,100,134,-78,-139,67
107151,97,408,13,229,-98,516,158,269,-88,-138,238,162,301,-496,77,93,52,33,-148,-44,-258,289,-61,-154,-31,76,85,126,156,-72,-114,145
107152,104,318,89,220,-99,546,164,231,-81,-147,237,207,312,-473,86,55,-2,40,-138,-35,-272,345,-48,-149,-38,90,123,109,156,-46,-99,178
107153,165,292,131,211,-102,549,130,288,-58,-99,252,249,344,-441,116,92,80,63,-116,-10,-232,369,-9,-132,6,140,147,85,172,-15,-49,162
107154,191,218,161,181,-113,530,87,253,-82,-100,253,249,336,-452,100,96,52,76,-121,-29,-215,349,-24,-144,-4,128,170,91,161,-43,-56,123
107155,204,206,278,164,-109,504,125,200,-89,-120,254,206,316,-461,122,103,96,26,-125,-23,-224,364,-69,-157,-9,125,193,81,148,-63,-51,177
107156,269,321,374,145,-75,471,162,189,-84,-117,265,216,322,-452,119,92,109,43,-120,-17,-249,301,-58,-138,-16,111,151,47,134,-98,-109,90
107157,248,515,428,143,-89,457,213,186,-85,-136,248,248,332,-469,112,77,83,75,-126,-20,-243,277,-20,-150,-5,95,151,49,138,-85,-115,56
107158,236,590,442,145,-105,459,215,171,-80,-144,246,249,324,-457,115,103,73,80,-116,-22,-244,253,-42,-149,-7,100,164,41,112,-113,-117,152
107159,238,549,398,140,-110,443,183,168,-82,-157,245,216,302,-465,86,88,61,73,-127,-46,-254,256,-74,-147,-32,82,127,40,99,-142,-144,91
107160,283,534,391,146,-104,458,171,179,-78,-157,255,206,301,-460,94,94,70,58,-124,-34,-254,249,-90,-156,-41,94,132,44,99,-132,-127,122
107161,284,542,408,147,-109,449,163,158,-95,-139,255,196,285,-463,103,108,64,54,-126,-35,-225,250,-90,-141,-32,108,167,52,121,-102,-105,158
107162,262,525,375,58,-106,415,172,128,-101,-134,212,173,287,-471,130,96,49,48,-136,-22,-219,304,-83,-131,-15,113,218,57,152,-69,-86,203
107163,216,358,319,135,-123,397,177,165,-89,-144,226,174,310,-448,126,107,54,63,-114,-15,-214,331,-69,-124,-9,134,268,67,169,-48,-38,220
107164,134,192,244,156,-146,488,184,153,-106,-134,246,121,295,-455,140,117,25,30,-127,-24,-195,326,-91,-162,-37,130,276,12,126,-86,-98,184
107165,62,226,175,183,-123,513,186,172,-115,-121,248,112,275,-459,143,144,27,30,-148,-24,-188,330,-101,-184,-48,117,273,-5,92,-117,-131,150
107166,89,301,231,183,-107,509,210,161,-103,-116,259,125,264,-439,139,171,43,3,-145,-2,-155,335,-94,-160,-54,134,277,-35,78,-104,-115,128
107167,117,298,212,226,-118,483,149,195,-86,-128,289,108,286,-450,154,194,54,8,-136,12,-130,298,-91,-142,-18,138,265,-4,119,-99,-127,74
107168,183,327,85,190,-135,491,143,307,-100,-120,305,102,281,-456,155,204,-10,30,-146,-13,-140,223,-106,-140,-25,150,228,31,114,-85,-135,56
107169,198,473,80,172,-139,529,162,290,-102,-124,320,75,265,-462,147,196,-28,39,-151,-14,-161,229,-121,-133,-49,128,190,-63,84,-129,-146,32
107170,202,696,133,165,-134,538,186,286,-106,-101,331,61,284,-465,169,243,-14,32,-142,-9,-152,301,-123,-157,-57,118,172,-56,77,-158,-170,15
107171,222,647,216,164,-118,528,207,264,-109,-94,341,154,279,-470,185,279,28,2,-150,-16,-134,369,-87,-179,-48,123,227,10,93,-127,-150,79
107172,224,544,243,142,-115,531,211,236,-99,-91,371,192,285,-449,196,257,44,18,-150,-4,-136,359,-87,-153,-49,123,216,25,110,-113,-122,110
107173,178,444,262,147,-123,521,187,200,-112,-98,349,186,276,-457,184,179,32,26,-163,-6,-139,335,-106,-154,-67,106,236,0,105,-121,-146,202
107174,153,413,292,161,-123,518,208,181,-113,-104,319,162,271,-481,158,103,3,30,-149,0,-145,404,-101,-153,-66,106,284,-25,75,-125,-153,206
107175,155,436,323,150,-104,517,207,182,-121,-109,332,172,289,-466,163,213,8,53,-136,-5,-131,468,-61,-156,-76,118,298,35,107,-100,-118,182
107176,192,462,278,147,-115,514,214,243,-119,-106,362,185,299,-471,173,284,10,80,-137,-3,-119,474,-34,-141,-64,124,296,60,99,-126,-141,174
107177,174,394,205,160,-124,520,201,321,-96,-108,362,163,325,-467,180,273,28,96,-139,7,-135,437,-22,-130,-36,116,259,2,99,-148,-148,182
107178,154,310,234,187,-90,549,229,290,-93,-94,353,162,321,-466,178,269,53,47,-134,9,-129,456,-66,-140,-39,116,208,19,97,-157,-154,215
107179,173,321,275,166,-106,559,260,257,-111,-94,344,163,295,-484,161,248,74,23,-144,-13,-166,429,-114,-166,-66,99,134,29,65,-184,-188,92
107180,169,370,311,145,-119,549,221,-39,-130,-96,333,208,283,-474,138,196,145,69,-153,-20,-198,450,-98,-145,-42,98,155,110,110,-126,-114,146
107181,218,379,293,143,-102,543,176,122,-120,-80,333,168,281,-457,143,188,83,43,-136,-10,-177,470,-125,-140,-16,106,245,93,105,-115,-101,228
107182,165,374,190,175,-124,539,157,346,-100,-77,324,68,290,-453,152,211,40,39,-137,10,-162,489,-136,-142,-15,139,298,-13,66,-138,-111,264
107183,124,333,178,203,-127,563,178,290,-98,-84,310,96,284,-470,164,200,68,52,-140,4,-165,434,-129,-141,-16,136,283,1,58,-147,-115,139
107184,167,379,216,174,-111,570,212,218,-128,-97,324,63,244,-489,145,199,128,-4,-158,-15,-165,466,-185,-166,-28,138,301,4,47,-152,-130,110
107185,208,472,231,173,-122,543,260,189,-118,-108,348,117,253,-484,148,212,63,8,-163,-20,-124,424,-164,-169,-31,153,345,-25,34,-139,-137,157
107186,253,486,292,187,-113,527,257,159,-106,-95,355,193,265,-452,172,232,-58,78,-132,16,-94,358,-98,-150,-11,187,438,-18,55,-129,-122,90
107187,343,497,299,186,-107,487,269,163,-99,-86,350,167,254,-455,169,237,32,40,-116,27,-79,449,-98,-144,33,214,450,7,74,-92,-48,126
107188,330,511,324,241,-98,517,301,193,-79,-109,371,186,275,-457,189,244,83,57,-105,38,-81,504,-74,-116,43,237,360,39,119,-48,14,282
107189,157,472,314,207,-106,532,313,231,-91,-95,345,187,282,-458,186,247,45,45,-112,38,-100,461,-63,-114,49,225,325,22,119,-70,-11,302
107190,186,446,268,116,-118,546,325,284,-75,-95,311,208,289,-439,159,249,58,69,-98,50,-73,435,-21,-102,66,227,374,-7,127,-42,-15,270
107191,282,436,276,124,-149,518,245,273,-79,-104,288,182,292,-447,151,219,20,97,-99,41,-88,396,-32,-101,65,232,375,3,144,-4,36,233
107192,297,441,353,168,-134,528,242,256,-84,-107,273,163,306,-435,150,226,48,82,-93,41,-104,419,-79,-96,62,246,321,6,135,-24,39,299
107193,266,356,388,164,-133,516,275,221,-82,-115,286,158,305,-424,137,213,62,72,-82,35,-94,401,-106,-97,77,243,303,11,126,-2,33,346
107194,229,387,285,145,-168,433,251,213,-98,-137,304,95,293,-429,126,218,13,33,-104,18,-109,328,-166,-122,56,202,281,-33,86,-70,-29,252
107195,178,491,193,208,-158,500,236,332,-70,-143,295,-89,322,-424,124,200,-9,60,-99,32,-133,321,-158,-124,30,182,241,-45,26,-169,-101,147
107196,150,480,143,219,-138,557,260,366,-82,-146,316,-16,315,-437,138,195,-6,80,-98,20,-125,362,-151,-98,36,196,273,-2,37,-136,-86,192
107197,154,425,180,246,-126,557,275,305,-84,-123,336,48,298,-431,141,228,-6,51,-102,37,-120,395,-159,-111,36,198,297,-4,67,-110,-64,219
107198,190,319,225,247,-136,544,265,299,-73,-109,333,116,307,-430,143,214,-20,61,-107,26,-111,385,-145,-101,43,204,294,-9,69,-123,-82,166
107199,222,400,192,221,-123,573,265,323,-80,-113,322,173,313,-449,150,209,-21,112,-93,21,-120,357,-132,-101,30,202,267,-85,58,-156,-94,149
107200,205,574,208,204,-117,608,273,279,-89,-97,325,190,280,-436,175,296,-10,134,-111,28,-117,382,-76,-105,28,209,302,-69,74,-115,-57,202
107201,265,684,335,209,-112,560,176,182,-99,-120,358,213,258,-439,163,361,31,122,-120,22,-106,430,-87,-111,24,220,342,-15,112,-88,-36,205
107202,321,697,404,168,-114,575,222,-37,-116,-106,382,262,221,-459,165,349,72,95,-129,14,-85,414,-90,-111,5,237,361,-14,127,-82,-30,257
107203,400,554,443,181,-120,596,227,124,-108,-82,405,280,248,-440,195,267,123,163,-115,51,-45,416,-20,-73,47,275,411,80,164,1,35,358
107204,339,463,444,196,-93,575,213,295,-88,-94,405,225,254,-435,196,153,144,125,-117,57,-23,314,-41,-65,52,268,406,115,168,-19,17,302
107205,240,517,378,216,-105,605,353,276,-104,-108,407,251,266,-442,186,248,58,168,-113,46,-27,365,8,-63,42,253,414,86,149,-49,0,279
107206,231,531,324,233,-113,631,392,360,-106,-111,396,247,269,-451,202,345,122,191,-130,56,-26,479,12,-63,55,279,415,82,131,-61,3,256
107207,203,583,233,231,-121,637,328,425,-101,-105,412,200,265,-439,207,303,175,128,-127,57,-30,552,-59,-92,48,274,393,60,135,-54,0,269
107208,208,648,181,275,-133,594,347,478,-78,-108,402,199,292,-449,201,262,166,119,-136,64,-39,597,-70,-70,38,246,386,118,158,-22,-11,298
107209,353,673,321,266,-109,569,405,387,-109,-106,362,238,279,-451,202,250,140,189,-120,73,-37,583,-2,-28,30,272,385,189,214,-1,15,307
107210,399,588,421,245,-108,566,378,341,-102,-91,363,238,298,-447,194,283,172,218,-108,74,-28,590,51,-9,57,286,397,193,256,30,45,311
107211,422,564,529,213,-81,575,446,296,-99,-71,423,304,299,-424,208,363,210,241,-79,97,6,545,87,26,105,314,444,237,293,82,85,337
107212,444,641,588,209,-100,569,454,293,-90,-74,462,319,315,-408,225,411,242,258,-71,114,31,535,97,45,124,323,460,234,309,81,89,345
107213,429,613,541,168,-126,569,408,264,-122,-86,458,311,295,-431,196,361,207,218,-77,71,17,589,57,20,103,308,427,184,283,65,56,326
107214,443,575,522,119,-136,570,423,223,-128,-102,431,302,293,-412,202,367,220,188,-91,75,27,569,18,3,82,306,429,185,265,67,80,340
107215,447,618,538,147,-129,617,481,226,-131,-71,462,316,295,-404,216,395,240,210,-85,99,50,622,48,21,98,325,439,234,290,108,139,376
107216,409,656,551,139,-137,678,452,248,-123,-62,483,313,303,-401,229,412,246,247,-68,110,41,644,74,38,111,335,435,228,301,134,169,445
107217,385,671,560,141,-142,707,471,274,-136,-62,509,280,294,-409,251,413,316,230,-68,106,37,626,74,30,101,343,425,241,324,135,152,414
107218,357,695,562,143,-150,684,471,225,-141,-53,508,283,277,-406,255,434,275,200,-68,113,52,622,93,38,110,347,484,267,353,157,185,455
107219,342,689,503,150,-136,661,470,248,-120,-78,502,276,283,-401,232,409,173,221,-71,92,8,610,110,35,91,316,459,225,310,106,116,402
107220,370,662,443,170,-113,589,452,271,-128,-73,475,300,280,-397,216,378,213,219,-83,83,-11,578,93,5,81,298,413,245,292,90,88,369
107221,376,674,463,165,-124,577,450,264,-129,-77,460,285,289,-403,222,377,293,229,-79,105,-5,606,108,3,90,294,436,258,299,109,92,378
107222,399,661,543,158,-125,593,433,288,-121,-70,464,314,312,-398,233,389,279,238,-61,116,-2,576,98,17,108,312,436,233,307,116,104,355
107223,388,642,573,168,-133,558,436,310,-113,-73,437,311,327,-400,229,380,330,288,-46,124,5,623,113,41,136,345,475,265,328,124,123,424
107224,357,674,537,206,-126,623,481,346,-98,-80,487,348,386,-395,238,403,317,336,-15,155,23,627,168,81,140,357,484,274,344,148,136,413
107225,358,713,551,248,-110,682,504,406,-96,-31,503,408,394,-384,273,435,308,337,-9,157,36,656,209,108,163,366,472,308,374,156,169,470
107226,368,755,510,273,-121,689,535,472,-93,-34,494,352,370,-415,266,480,365,269,-25,157,33,665,162,80,158,373,454,309,362,142,155,480
