,Fp1,Fp2,F7,F3,Fz,F4,F8,FC5,FC1,FC2,FC6,T7,C3,Cz,C4,T8,TP9,CP5,CP1,CP2,CP6,TP10,P7,P3,Pz,P4,P8,PO9,O1,Oz,O2,PO10
137784,421,566,624,506,164,514,234,327,334,306,179,1375,260,129,221,332,555,231,70,439,152,343,216,146,308,200,247,167,654,139,287,371
137785,352,510,586,506,169,524,273,362,346,305,183,1355,256,145,249,375,490,203,83,452,156,352,204,147,325,238,275,208,682,146,319,377
137786,315,510,525,483,160,545,312,390,358,315,220,1352,254,132,248,318,517,186,72,437,113,296,179,124,302,225,257,203,697,140,297,369
137787,394,555,601,466,163,534,272,405,333,276,150,1356,257,104,203,298,482,187,57,422,100,322,199,127,276,206,225,324,688,62,218,257
137788,437,604,695,506,181,545,275,371,335,302,150,1357,250,110,228,316,496,177,56,430,142,377,154,110,270,202,228,135,598,28,177,224
137789,436,595,678,476,169,543,271,309,316,299,149,1376,242,126,238,346,516,196,67,431,160,390,203,120,280,217,287,118,623,83,251,332
137790,413,544,663,484,184,534,263,312,319,306,162,1381,262,135,229,358,466,209,87,434,173,309,220,172,316,222,305,177,653,100,260,319
137791,422,502,657,487,180,590,242,343,306,315,180,1397,280,136,233,332,572,239,114,450,171,286,311,215,328,245,304,282,715,117,271,273
137792,416,463,621,433,165,634,188,341,290,319,192,1396,266,127,248,317,533,231,83,448,170,327,266,195,311,270,310,234,689,122,264,152
137793,372,411,591,374,160,658,89,342,279,319,223,1393,262,128,245,304,505,210,69,435,175,347,222,161,296,231,337,91,660,71,238,52
137794,341,435,611,363,126,574,15,313,286,308,188,1407,235,113,210,262,521,238,72,435,129,376,360,177,281,221,353,268,701,100,249,200
137795,320,470,645,430,130,551,49,292,303,313,220,1353,232,126,207,245,560,223,55,422,143,317,326,152,263,217,361,120,660,72,196,252
137796,325,425,623,447,173,609,112,286,315,334,274,1322,244,139,255,178,545,220,44,424,204,272,307,140,253,223,401,-143,624,36,191,205
137797,278,409,598,446,152,643,146,297,311,325,260,1309,233,119,249,122,444,211,26,422,236,251,312,129,244,222,445,-108,659,15,169,119
137798,221,386,552,495,160,614,151,353,334,316,166,1363,226,121,245,296,440,170,0,403,213,203,243,82,224,180,396,-29,607,-38,113,72
137799,260,383,518,483,173,581,238,431,335,289,-1,1436,236,108,145,384,420,180,-19,339,48,254,235,54,186,93,206,-86,564,-69,78,99
137800,299,463,524,483,164,556,220,456,321,279,16,1364,231,67,120,297,389,156,-27,314,-4,231,193,25,152,62,161,-129,557,-112,40,132
137801,368,492,614,531,178,576,187,421,326,308,85,1327,240,88,158,236,427,178,-3,345,38,255,259,38,170,73,138,-5,568,-95,42,211
137802,392,484,610,478,173,610,204,298,310,321,141,1291,209,99,181,271,477,183,-6,355,26,290,293,40,169,83,144,65,565,-103,44,258
137803,398,496,647,497,177,594,181,301,316,317,147,1335,223,104,192,243,562,203,5,373,75,295,295,65,179,119,185,165,620,-74,90,296
137804,411,502,714,499,176,582,179,325,323,310,122,1350,253,95,196,-17,595,240,13,389,143,321,305,89,208,139,232,146,644,-38,121,336
137805,398,568,702,470,166,589,231,351,334,321,143,1351,239,107,210,29,491,224,19,386,213,356,326,85,201,148,293,49,630,-52,89,231
137806,391,624,728,524,153,527,243,416,345,284,100,1423,284,112,203,389,539,299,42,374,180,343,445,122,233,178,422,120,696,-38,98,45
137807,417,646,732,525,167,461,296,339,327,272,158,1457,285,120,217,642,625,326,57,384,131,387,465,148,232,188,558,120,694,-45,109,58
137808,410,649,616,494,165,424,293,330,334,262,106,1451,272,102,187,475,610,267,22,379,134,391,462,130,186,124,401,-71,639,-89,68,217
137809,373,530,663,524,168,485,271,371,318,268,117,1496,268,89,175,359,629,282,24,368,98,331,503,122,185,90,188,-15,639,-98,61,329
137810,328,465,715,520,151,511,272,383,312,247,130,1475,253,77,174,310,699,296,11,354,44,334,457,117,179,95,95,216,621,-67,78,363
137811,327,444,684,518,159,506,232,367,323,276,152,1443,232,81,194,315,640,247,18,373,92,433,376,116,206,136,245,240,615,-19,124,424
137812,331,431,705,513,170,558,201,356,326,300,182,1470,248,100,205,350,598,227,15,378,138,494,291,105,200,157,322,332,609,-30,133,450
137813,286,440,625,489,161,579,187,323,308,290,232,1382,225,86,216,335,651,211,9,384,146,488,268,90,202,151,349,355,582,-48,113,419
137814,241,399,661,481,154,608,142,326,322,309,267,1331,235,90,229,344,596,171,-2,396,173,412,211,61,187,145,413,337,569,-66,82,276
137815,293,426,694,489,135,644,176,338,318,312,255,1350,243,97,249,362,614,179,2,415,184,414,254,70,174,167,463,401,569,-98,63,159
137816,337,442,737,506,129,683,152,330,319,325,220,1385,234,112,231,284,572,190,22,399,122,385,261,86,176,138,393,214,559,-83,74,292
137817,377,470,757,500,153,665,150,346,330,349,220,1438,232,111,220,296,507,191,21,380,131,355,220,68,191,124,281,78,515,-81,75,351
137818,436,568,753,471,158,546,196,328,299,319,188,1473,236,105,216,362,548,215,9,409,155,422,250,86,197,128,288,101,501,-92,65,397
137819,455,588,732,468,170,519,237,350,317,317,192,1506,250,119,239,331,604,260,41,449,155,425,334,143,224,172,321,139,566,-33,127,408
137820,459,570,686,466,165,513,219,340,309,308,239,1462,240,110,244,328,563,241,63,431,177,416,321,127,215,181,341,144,584,-24,138,352
137821,448,558,668,444,159,515,246,311,308,317,237,1410,247,113,232,287,594,234,46,428,168,320,366,147,229,158,288,113,597,-38,127,281
137822,456,545,677,396,160,531,277,347,300,309,192,1391,238,104,241,223,543,221,32,431,201,257,353,149,241,157,327,116,588,-46,123,193
137823,399,498,672,486,150,525,270,417,296,281,27,1338,235,85,207,245,541,227,38,408,232,268,389,142,224,163,393,40,572,-80,64,-37
137824,384,500,690,518,148,531,264,484,313,261,31,1327,247,91,223,359,588,240,36,401,264,320,471,135,219,193,491,-142,549,-104,60,-173
137825,433,548,700,528,166,595,283,450,340,303,174,1363,253,110,217,507,615,264,44,387,140,409,454,152,241,149,318,-28,590,-23,137,334
137826,431,525,675,527,172,573,283,378,331,296,150,1417,273,123,187,438,691,289,66,409,106,435,494,192,265,155,258,250,667,40,202,347
137827,395,579,635,497,168,582,223,313,322,329,186,1334,241,132,220,376,690,257,54,422,215,463,425,188,252,194,382,181,669,42,201,323
137828,338,558,613,478,162,589,187,249,317,328,186,1258,207,105,207,331,516,172,43,405,194,500,211,115,228,165,340,-114,567,-10,147,349
137829,379,435,616,497,147,541,128,283,318,294,132,1280,209,95,196,313,474,165,25,384,162,421,184,81,214,165,339,37,563,-31,135,262
137830,438,469,675,489,179,501,138,323,317,310,143,1335,232,105,219,349,469,222,20,387,202,370,298,110,232,191,440,225,602,-46,115,159
137831,468,526,690,485,191,520,189,331,328,317,116,1309,241,104,204,321,387,212,24,400,161,343,258,107,195,158,302,140,579,-75,71,160
137832,423,505,607,469,191,524,198,269,335,302,110,1281,225,110,183,289,435,164,23,384,121,239,157,65,195,146,188,-109,480,-99,60,74
137833,369,471,506,465,183,518,183,267,336,289,156,1273,204,119,205,269,423,152,12,397,141,301,141,57,199,152,211,-159,469,-78,76,100
137834,341,455,530,452,155,535,103,307,307,304,166,1307,209,130,229,220,420,168,6,383,106,333,212,95,202,126,147,-100,486,-106,37,148
137835,316,404,569,458,130,537,69,314,291,310,128,1338,208,125,202,227,478,191,12,380,78,305,256,92,224,109,126,-97,509,-111,49,114
137836,309,444,572,484,130,549,113,291,313,311,144,1319,231,131,217,259,501,200,47,390,101,312,314,105,252,134,201,-57,542,-65,74,137
137837,281,387,600,465,147,592,88,231,315,317,225,1267,202,116,223,190,452,149,39,397,95,260,251,91,231,148,229,-53,489,-96,38,101
137838,284,404,605,445,143,558,88,191,306,294,116,1292,184,112,191,205,463,130,18,403,90,229,203,83,213,158,217,113,502,-96,63,93
137839,283,412,563,457,147,532,111,193,286,317,67,1294,186,88,186,188,489,122,1,403,92,288,175,75,203,160,247,174,518,-102,53,150
137840,276,461,585,491,161,498,99,226,295,319,73,1327,188,101,190,-83,482,140,22,422,123,207,184,83,199,165,248,203,534,-83,56,39
137841,289,511,582,486,165,478,149,245,299,311,67,1367,204,115,222,-54,471,168,26,412,209,180,223,97,212,179,366,92,543,-82,71,59
137842,346,567,587,477,158,442,167,298,285,283,53,1431,198,102,203,358,470,184,27,384,184,260,295,116,217,185,425,80,573,-57,91,-13
137843,353,559,603,472,162,481,188,332,308,297,126,1370,226,102,216,639,512,204,41,413,128,249,330,145,243,208,443,83,648,16,161,36
137844,333,540,572,456,154,478,199,300,303,289,170,1350,210,106,208,401,514,176,27,401,98,188,312,138,249,181,289,75,649,12,175,269
137845,330,545,573,473,155,480,214,310,314,301,210,1425,225,118,222,245,615,222,60,401,67,252,382,184,247,166,163,201,689,10,175,311
137846,319,412,507,486,145,550,143,342,323,312,180,1459,232,112,214,251,573,241,57,412,95,305,423,180,230,176,238,-71,626,-35,113,72
137847,309,342,454,448,113,586,110,294,300,302,126,1381,187,74,194,268,414,189,23,394,116,226,381,120,201,171,340,-114,548,-88,62,78
137848,298,376,488,482,150,595,152,342,307,289,-54,1331,210,94,176,209,375,189,31,368,98,250,358,116,191,153,223,-69,535,-90,66,185
137849,309,344,477,454,164,558,105,288,300,276,-32,1272,178,92,183,-95,372,147,34,376,133,169,314,101,209,155,165,-125,545,-77,68,156
137850,282,360,512,436,158,521,131,185,300,305,46,1213,149,104,224,-74,377,104,22,415,216,179,223,74,217,172,268,-17,532,-72,71,1
137851,258,427,550,456,166,500,149,185,298,308,107,1185,152,108,213,361,412,114,21,396,151,171,206,70,214,130,208,-9,515,-80,68,194
137852,315,434,547,413,155,494,142,176,279,290,122,1204,192,91,176,573,468,155,34,370,83,235,277,89,230,103,217,-130,522,-85,80,228
137853,287,374,469,325,155,542,144,184,285,304,153,1231,190,96,205,514,549,192,37,401,120,344,340,106,231,147,303,-45,579,-64,89,56
137854,265,381,457,373,132,574,82,220,301,316,177,1244,201,95,227,395,476,206,48,423,170,355,361,121,243,172,302,-100,605,-45,106,88
137855,281,419,485,446,138,513,-24,259,314,320,175,1271,227,122,235,317,464,235,64,430,150,300,398,160,275,196,235,-93,655,2,172,249
137856,260,426,439,462,133,508,-9,260,287,326,178,1262,203,130,247,268,451,190,54,433,141,326,342,146,281,188,248,-16,664,26,186,363
137857,255,482,377,450,132,493,85,261,284,317,168,1296,208,110,229,248,528,219,32,412,142,433,371,151,270,178,277,85,645,28,201,379
137858,308,459,414,423,126,538,123,266,285,329,182,1290,178,112,245,283,486,214,35,420,150,477,271,136,270,201,263,149,650,60,208,430
137859,359,454,483,455,119,514,131,286,282,317,99,1270,186,132,222,258,383,177,46,417,124,381,212,150,281,208,216,173,701,97,240,391
137860,328,499,519,471,120,474,202,287,300,294,52,1287,218,132,207,286,364,216,57,415,128,336,255,199,286,201,216,283,764,97,254,319
137861,337,488,578,475,119,452,163,281,302,276,75,1295,205,117,221,271,396,223,61,422,131,355,246,212,288,207,244,372,796,137,301,269
137862,338,497,634,443,108,469,142,254,313,289,89,1335,208,114,242,324,368,195,57,433,183,405,202,188,285,220,306,260,751,116,284,157
137863,328,487,643,443,125,532,227,238,319,327,162,1358,226,143,256,366,541,190,74,480,224,484,224,185,305,239,337,229,731,117,266,294
137864,333,461,652,483,123,506,203,280,298,307,152,1393,225,121,244,311,670,244,75,452,179,400,367,211,314,227,288,187,793,158,289,338
137865,363,493,673,484,137,439,103,282,327,317,121,1416,252,150,242,313,652,306,105,468,210,465,488,265,345,271,349,150,856,224,362,397
137866,342,477,597,461,119,493,142,224,320,310,95,1348,250,152,256,286,472,262,103,474,223,468,468,256,344,281,369,201,817,181,334,356
137867,312,485,557,440,102,497,175,225,310,304,143,1354,264,167,286,340,552,283,133,494,267,400,536,311,362,303,412,572,898,211,358,333
137868,279,453,501,435,115,555,200,227,312,332,229,1310,264,171,329,372,485,203,131,511,305,382,286,245,354,325,500,142,748,158,325,-87
137869,256,413,458,416,112,570,182,221,299,340,234,1257,233,164,328,244,532,184,109,509,325,344,180,200,352,316,458,190,725,136,312,158
137870,242,393,504,410,127,529,154,227,282,322,138,1283,247,169,311,-2,612,229,137,530,334,315,276,244,381,314,320,422,802,215,352,487
137871,257,434,556,449,128,554,203,238,296,318,32,1291,263,181,292,257,527,208,134,522,325,386,254,234,390,333,465,282,771,199,358,391
137872,268,439,545,455,104,587,192,290,300,337,139,1295,251,175,298,590,522,204,122,484,225,358,240,216,372,287,458,252,734,128,284,138
137873,295,447,586,449,108,540,250,354,289,349,230,1361,252,178,323,614,568,228,129,485,214,338,300,236,366,302,499,291,786,160,293,17
137874,325,481,606,453,133,555,340,328,315,346,241,1468,261,191,334,487,616,265,142,518,297,305,407,271,369,329,566,158,793,155,309,83
137875,309,444,592,440,110,526,273,274,306,318,187,1471,265,155,337,524,632,277,129,509,308,298,512,296,371,330,628,82,803,181,340,251
137876,325,394,618,437,115,543,259,284,300,307,150,1458,269,163,330,508,572,309,132,508,333,271,529,288,370,311,532,24,778,162,307,361
137877,313,369,638,431,121,592,254,302,297,324,201,1457,294,169,345,348,601,336,141,522,351,233,575,300,364,299,385,-147,783,168,316,426
137878,282,425,618,403,121,550,198,282,302,325,232,1388,286,178,363,394,627,344,127,507,349,374,629,310,382,315,404,-192,783,181,329,259
137879,255,430,574,437,132,529,199,261,298,311,188,1319,265,164,327,545,584,291,110,507,245,431,508,273,377,301,421,-145,750,195,344,264
137880,306,504,588,454,125,473,228,250,314,308,139,1326,273,164,260,436,638,280,103,474,100,479,492,270,352,225,197,111,751,182,330,523
137881,351,540,590,444,107,490,216,259,297,283,165,1339,266,163,293,319,583,243,105,483,128,529,396,249,352,225,167,272,754,196,340,533
137882,384,537,579,448,118,502,196,295,296,312,188,1371,295,184,299,298,639,260,123,490,166,528,411,249,354,261,251,409,802,185,327,406
137883,300,438,538,418,73,466,196,256,292,281,136,1378,282,176,288,258,637,242,107,494,159,566,366,235,343,267,337,496,817,193,337,358
137884,274,388,530,394,56,459,219,261,307,277,118,1434,296,199,315,289,625,250,135,519,185,518,393,258,363,291,334,378,849,221,372,448
137885,276,427,535,410,81,446,249,315,317,274,100,1489,329,217,305,342,534,311,174,518,185,383,488,271,353,272,262,-244,775,149,299,442
137886,165,413,483,448,69,455,202,344,318,283,98,1459,359,218,311,341,583,362,202,535,218,419,579,311,390,289,294,-247,794,183,329,448
137887,157,383,505,445,47,439,129,294,309,260,78,1362,336,198,295,273,515,318,179,522,197,400,514,335,404,281,281,177,853,220,390,397
137888,198,355,519,415,53,419,54,255,305,246,71,1308,325,191,278,298,520,267,166,501,201,465,447,301,367,271,295,219,834,205,344,362
137889,320,416,584,436,80,496,184,304,301,267,164,1312,304,175,274,374,525,234,145,486,218,530,325,257,324,263,333,337,780,185,337,455
137890,420,546,658,431,119,526,342,250,316,287,214,1365,281,173,295,419,513,236,130,490,235,524,262,241,325,267,337,372,760,179,332,412
137891,410,584,653,430,118,545,376,195,317,292,173,1362,295,160,291,401,599,260,133,475,243,530,285,250,327,270,403,357,769,158,308,287
137892,335,484,628,459,113,538,348,234,306,302,207,1332,279,169,288,389,617,263,145,490,263,587,290,243,347,283,413,436,769,168,316,365
137893,306,490,586,461,104,515,356,273,309,299,273,1362,292,182,304,404,536,255,133,497,274,533,289,273,359,283,379,445,810,214,355,412
137894,282,526,545,443,88,498,336,267,300,294,262,1388,314,179,298,383,640,281,163,498,243,488,341,294,388,289,350,449,855,226,363,389
137895,277,495,575,440,80,510,309,268,313,278,260,1405,332,191,297,425,667,308,160,468,246,493,373,300,357,280,352,446,847,220,360,412
137896,357,507,674,483,111,531,375,333,334,285,127,1485,345,176,267,460,678,325,157,490,269,531,411,321,335,291,382,455,857,213,374,455
137897,397,525,759,479,116,573,452,378,334,293,135,1564,340,163,273,398,695,289,153,479,238,551,406,286,319,282,402,351,811,170,329,442
137898,369,533,694,490,119,546,418,351,330,314,183,1571,347,168,301,402,693,338,153,492,265,619,496,312,344,324,449,384,844,214,350,427
137899,325,464,646,455,98,518,330,270,314,299,182,1455,337,172,321,446,679,327,150,517,313,580,554,302,364,347,547,348,853,205,370,304
137900,295,409,627,448,90,542,288,236,335,316,207,1405,336,188,342,468,755,335,164,555,362,612,607,337,381,381,673,462,890,253,402,274
137901,295,420,660,450,85,534,283,249,346,319,194,1396,322,182,328,461,678,314,157,525,328,379,596,328,369,350,582,541,856,160,312,2
137902,257,434,643,446,75,492,245,244,325,315,219,1368,321,180,309,425,603,313,117,496,281,154,524,259,320,288,483,323,779,16,172,-214
137903,197,413,575,410,46,486,153,257,304,316,264,1314,310,168,303,422,654,276,104,497,268,351,434,245,304,280,467,-13,733,109,255,386
137904,169,356,577,421,60,543,144,260,312,304,215,1313,281,157,281,374,652,251,108,476,208,421,408,215,271,231,284,-15,680,92,224,390
137905,115,249,536,454,70,569,120,265,305,296,178,1346,285,158,265,173,686,279,103,453,165,323,497,245,302,218,216,200,776,135,282,347
137906,155,267,532,469,96,513,123,351,319,309,154,1406,302,153,254,-92,689,307,93,461,181,100,463,247,299,226,220,186,793,156,306,349
137907,208,324,544,471,104,453,150,417,345,292,123,1421,305,145,262,215,697,269,85,448,240,181,469,233,306,241,377,123,725,89,249,246
137908,199,324,511,450,89,489,141,341,315,283,155,1358,270,132,265,551,632,242,61,430,178,364,433,196,281,214,446,-105,652,57,204,190
137909,212,368,488,427,95,449,125,249,316,278,143,1312,261,123,234,492,463,182,35,413,58,380,363,166,256,163,292,-170,596,4,150,-84
137910,197,365,437,399,106,464,132,182,300,282,131,1243,256,150,246,214,414,161,58,437,169,469,375,162,258,211,393,-45,625,-8,161,60
137911,202,388,466,397,103,467,161,196,294,273,89,1240,242,139,261,-112,447,156,44,435,229,505,309,147,231,194,298,12,594,-40,124,181
137912,260,430,566,429,105,478,151,216,326,288,76,1290,240,139,245,24,542,142,54,434,227,517,279,144,246,197,315,174,615,0,156,135
137913,246,431,593,415,108,486,151,175,305,298,123,1280,230,113,214,439,536,141,52,392,131,432,271,122,228,175,269,219,618,-11,155,144
137914,262,486,562,397,132,480,201,179,294,284,172,1283,234,114,181,537,476,139,29,366,29,399,231,115,218,133,165,217,642,16,179,384
137915,241,471,492,390,118,540,177,223,283,304,123,1297,216,131,196,323,500,109,0,366,1,380,168,83,225,117,111,-14,605,26,163,427
137916,180,356,483,382,110,549,142,236,282,290,85,1357,239,139,187,189,464,148,9,378,9,377,305,105,219,104,95,-22,599,-6,140,300
137917,100,286,397,402,105,476,165,309,306,271,130,1357,266,140,202,241,433,192,37,381,37,424,409,140,232,144,171,96,666,41,181,343
137918,61,297,365,425,104,409,128,282,308,274,145,1279,260,135,210,215,501,193,40,382,51,390,453,148,222,131,198,53,685,50,204,308
137919,112,330,462,407,105,435,43,161,281,290,131,1251,220,143,226,211,462,164,26,386,78,372,378,112,215,148,211,126,618,39,200,319
137920,112,305,459,388,101,453,98,197,284,301,74,1321,243,141,222,309,487,176,27,409,115,394,332,96,216,174,266,205,620,30,182,162
137921,186,302,547,399,99,467,103,236,288,268,-34,1320,266,154,190,323,598,204,52,406,137,402,365,139,237,217,427,227,690,64,211,20
137922,174,315,539,403,125,505,65,216,294,303,115,1257,265,140,247,286,579,168,52,424,139,378,341,153,242,231,447,190,678,71,225,201
137923,143,349,510,416,115,493,34,186,297,293,128,1237,262,125,254,284,579,187,62,432,107,352,409,164,251,207,302,126,695,92,249,301
137924,125,352,459,422,88,499,63,228,296,284,124,1276,254,127,267,315,564,208,67,437,174,405,433,172,270,250,382,87,679,100,244,249
137925,156,324,497,426,119,549,129,267,303,302,150,1345,262,138,257,313,502,231,50,461,207,452,409,166,266,264,468,120,659,72,212,297
137926,221,301,549,411,145,551,180,272,306,292,119,1364,257,135,236,316,475,234,51,448,183,369,377,150,277,260,424,199,673,83,241,328
137927,247,343,568,423,124,530,275,267,287,304,140,1361,249,113,213,289,585,196,27,401,146,335,341,120,223,216,274,245,647,57,211,248
137928,204,428,596,435,158,507,290,260,294,301,148,1295,227,117,208,256,618,177,16,381,126,370,311,114,204,197,267,236,636,52,195,246
137929,178,385,567,452,155,518,215,265,308,282,138,1284,238,131,194,262,573,191,23,397,140,361,335,138,220,194,338,201,673,102,244,351
137930,232,382,507,461,146,523,219,295,315,294,140,1257,252,120,196,295,533,192,46,412,149,442,352,172,223,224,354,297,691,129,267,398
137931,222,400,451,440,134,494,223,289,308,285,117,1229,230,114,194,306,536,171,35,390,154,478,285,139,209,215,368,336,682,106,272,356
137932,193,378,451,437,159,503,249,240,322,283,114,1242,250,130,194,311,537,174,63,400,165,475,280,176,259,228,416,481,745,167,321,341
137933,187,340,477,398,127,562,275,183,304,283,122,1289,246,121,168,279,563,195,53,392,139,413,307,176,255,220,385,320,738,192,323,348
