,Fp1,Fp2,F7,F3,Fz,F4,F8,FC5,FC1,FC2,FC6,T7,C3,Cz,C4,T8,TP9,CP5,CP1,CP2,CP6,TP10,P7,P3,Pz,P4,P8,PO9,O1,Oz,O2,PO10
163752,502,316,81,121,-15,-45,42,125,-63,-99,-126,-498,224,-1,17,-184,-257,-210,-202,-158,-35,-87,128,28,5,28,17,-1,75,-92,126,-172
163753,546,341,90,131,-8,-27,47,138,-60,-89,-104,-472,250,8,44,-143,-231,-187,-203,-128,-15,-41,162,76,35,48,68,74,177,5,211,-105
163754,552,367,139,137,4,-13,60,176,-46,-71,-111,-411,279,18,68,-132,-170,-141,-175,-99,12,-148,207,100,60,79,87,73,202,32,242,-136
163755,530,366,146,140,7,-4,74,185,-52,-69,-88,-441,258,4,83,-117,-220,-166,-184,-117,16,-98,156,46,24,82,87,-101,84,-49,178,-131
163756,528,368,112,145,15,12,105,157,-57,-43,-75,-465,265,7,98,-103,-212,-200,-180,-94,20,-85,127,23,21,78,54,-191,7,-150,113,-187
163757,543,381,146,132,40,27,128,179,-35,-26,-37,-434,280,31,115,-152,-198,-179,-167,-95,21,-145,132,30,37,80,32,-204,-1,-155,112,-219
163758,530,353,114,137,0,-19,86,144,-62,-44,-31,-446,257,13,104,-283,-199,-183,-198,-127,-15,-109,105,10,-11,40,-2,-151,15,-156,110,-202
163759,570,388,139,154,29,-33,106,174,-27,-49,1,-452,250,10,105,-311,-222,-203,-224,-133,-19,-38,92,-26,-32,32,29,-120,13,-151,87,-176
163760,558,375,102,126,30,37,95,154,-60,-56,12,-481,230,8,101,-197,-222,-224,-243,-159,0,-27,112,-38,-54,17,51,-136,3,-143,63,-169
163761,569,383,128,141,16,23,115,152,-53,-52,0,-449,247,32,109,-97,-151,-188,-216,-140,36,7,157,14,-33,48,86,-15,68,-93,123,-131
163762,563,379,140,138,9,0,148,138,-45,-69,-28,-493,216,10,99,-7,-185,-196,-213,-136,33,-13,130,14,-13,48,90,-19,66,-102,116,-201
163763,531,375,106,149,26,6,158,119,-40,-55,-22,-503,220,10,118,29,-193,-187,-209,-131,57,-1,128,2,-21,56,99,-107,43,-107,135,-153
163764,535,376,81,152,24,1,136,118,-46,-63,-13,-444,241,18,107,-11,-136,-162,-183,-114,61,19,158,37,3,79,119,-48,94,-68,180,-93
163765,545,361,100,146,9,-6,128,147,-46,-81,-28,-394,279,11,83,-48,-106,-122,-169,-93,39,30,225,74,29,81,100,79,172,-8,235,-84
163766,541,359,105,162,17,-25,126,158,-39,-93,-60,-388,290,-1,84,-63,-101,-123,-182,-115,21,23,236,97,40,76,90,48,197,29,230,-83
163767,557,402,112,167,43,19,158,168,-19,-61,-24,-392,273,8,103,-17,-182,-134,-167,-115,27,29,167,81,60,75,112,-175,118,-21,209,-112
163768,551,401,108,169,21,30,170,172,-51,-73,-21,-387,261,4,93,-18,-159,-135,-159,-118,16,87,172,67,43,52,88,-190,73,-58,177,-124
163769,604,436,142,178,25,41,203,171,-15,-81,12,-384,275,21,114,2,-108,-105,-136,-88,47,61,191,93,84,88,117,-158,68,-42,200,-84
163770,640,452,168,181,14,35,228,167,-29,-73,41,-372,281,25,150,35,-114,-100,-130,-64,81,-20,184,113,111,129,163,-205,101,36,274,-12
163771,642,457,215,189,6,4,228,198,-47,-81,22,-312,304,37,147,30,-49,-66,-114,-45,89,46,259,163,154,154,166,-37,193,101,323,28
163772,631,424,203,195,6,-20,203,229,-14,-78,5,-295,323,52,142,-19,-6,-38,-81,-30,90,110,304,187,188,168,158,105,256,124,297,-36
163773,612,421,198,184,0,-7,183,222,-29,-90,-13,-313,325,70,135,-27,1,-38,-75,-23,97,63,307,176,190,165,138,117,239,93,272,-110
163774,613,429,211,166,0,-20,172,221,-36,-94,-8,-331,319,61,154,8,-48,-67,-83,-18,122,77,265,158,181,174,187,-16,171,81,309,-1
163775,615,438,203,154,7,-26,146,212,-38,-78,-10,-324,322,75,151,1,-46,-59,-81,-6,125,64,250,173,166,174,197,-13,157,64,269,-15
163776,575,441,151,139,9,-14,141,175,-48,-80,-21,-358,305,59,130,-33,-50,-62,-88,-28,100,-1,263,172,162,149,133,49,170,33,211,-127
163777,561,406,150,122,-7,-21,119,166,-45,-88,-20,-367,309,55,144,-52,-80,-60,-85,-24,96,-15,255,170,163,144,123,46,206,73,254,-100
163778,561,423,129,107,-18,-20,113,144,-60,-66,-19,-398,289,49,146,-33,-140,-99,-108,-19,91,12,187,142,150,129,131,-150,140,44,235,-102
163779,568,422,142,122,-2,-2,146,147,-46,-57,-7,-391,317,83,162,-36,-119,-71,-91,-20,111,17,231,173,169,150,129,8,179,31,221,-100
163780,576,416,168,134,-5,9,158,155,-45,-50,7,-364,305,89,186,-64,-117,-64,-79,16,142,10,237,183,195,178,147,40,216,47,236,-80
163781,564,412,161,106,-22,10,193,136,-80,-56,37,-359,278,58,196,-41,-96,-68,-102,5,146,48,210,144,189,186,154,-119,119,10,231,-59
163782,547,398,187,113,-23,5,193,135,-80,-33,79,-367,305,64,209,11,-59,-53,-83,41,182,108,263,164,196,229,214,6,165,56,286,-11
163783,557,404,188,127,-13,21,198,154,-71,-19,105,-373,309,80,243,50,-43,-49,-57,51,208,123,265,194,216,248,273,131,200,81,323,46
163784,544,390,161,125,-11,28,154,201,-77,-33,59,-366,298,77,241,49,-59,-47,-64,32,210,192,262,183,208,262,285,72,190,78,326,69
163785,559,350,165,131,-14,14,120,184,-55,-41,25,-365,306,64,223,48,-102,-47,-61,22,191,100,235,172,185,238,230,-30,178,33,275,-21
163786,543,343,145,126,-23,17,117,158,-61,-51,26,-353,305,72,222,58,-103,-46,-67,26,205,137,262,201,192,220,243,72,220,48,284,1
163787,538,340,132,121,10,37,177,188,-63,-33,62,-396,284,81,243,107,-130,-82,-74,28,202,119,217,177,171,227,262,-56,157,30,280,47
163788,521,416,115,114,18,51,258,156,-57,-27,102,-410,283,66,261,142,-144,-105,-102,21,215,81,190,134,166,228,245,-61,141,22,273,6
163789,588,526,172,143,18,65,286,171,-56,-33,127,-362,304,55,235,94,-109,-92,-118,11,192,103,224,127,133,198,219,-13,133,-2,268,15
163790,640,575,183,171,34,28,328,171,-45,-50,139,-363,294,44,244,91,-95,-72,-118,22,190,240,217,131,136,214,245,7,134,11,293,65
163791,613,571,162,138,34,3,340,163,-48,-49,147,-364,279,61,265,112,-63,-64,-110,14,208,215,235,155,151,231,265,58,170,45,318,36
163792,576,534,115,142,15,66,343,147,-53,-39,131,-383,289,65,267,134,-114,-96,-89,20,224,92,171,148,156,227,243,-165,96,3,279,11
163793,538,508,86,108,-4,21,300,126,-62,-57,110,-385,274,57,246,114,-147,-90,-116,0,186,102,166,139,132,195,225,-159,120,15,265,0
163794,548,482,71,104,-10,17,277,124,-80,-68,94,-402,253,52,216,79,-112,-78,-131,-13,167,117,221,133,136,182,193,36,209,43,249,-29
163795,597,528,114,143,24,66,314,156,-67,-52,112,-392,268,39,218,45,-137,-93,-130,-16,179,112,190,120,114,155,183,-41,181,38,229,-60
163796,604,538,166,151,28,65,313,176,-45,-34,131,-384,274,34,216,22,-144,-80,-119,0,187,123,212,136,130,173,200,28,230,112,305,-6
163797,621,519,186,170,29,64,296,197,-51,-37,139,-366,273,38,211,32,-167,-101,-121,-17,170,108,175,120,111,159,165,-60,147,46,256,-12
163798,620,520,154,148,29,60,303,167,-68,-41,145,-407,270,22,188,56,-213,-135,-168,-51,149,100,116,64,67,134,164,-156,39,-66,177,-58
163799,572,511,123,125,26,73,325,143,-66,-34,110,-423,264,13,191,90,-230,-141,-175,-32,167,102,138,79,85,149,186,-19,122,-4,235,24
163800,563,534,99,120,22,86,337,131,-80,-42,131,-431,253,19,212,121,-221,-137,-154,-24,173,77,134,93,91,161,197,-57,156,30,271,21
163801,547,525,66,127,26,67,320,129,-75,-44,131,-435,256,2,196,92,-230,-143,-172,-71,122,-5,80,55,72,107,117,-152,51,-80,135,-171
163802,523,502,52,118,16,60,291,106,-66,-55,92,-504,264,19,170,58,-240,-146,-152,-92,104,19,90,58,58,103,122,-101,58,-75,132,-144
163803,511,501,26,106,15,62,292,93,-67,-77,82,-517,253,-3,155,38,-302,-170,-158,-82,102,63,33,38,25,79,132,-195,19,-84,148,-70
163804,519,492,32,113,28,81,278,76,-57,-72,78,-507,245,-13,163,46,-318,-175,-172,-91,91,38,44,19,23,66,116,-166,25,-94,115,-86
163805,546,514,29,145,40,83,284,79,-71,-54,85,-499,238,-2,164,25,-237,-173,-187,-89,85,39,104,41,36,59,118,17,90,-76,129,-105
163806,544,540,38,155,51,88,315,102,-72,-46,101,-483,239,-15,174,14,-211,-187,-191,-86,94,38,101,29,47,68,112,82,118,-63,145,-107
163807,549,537,54,149,55,78,330,114,-77,-66,134,-487,226,-6,190,-29,-209,-178,-184,-78,115,47,99,32,56,78,114,13,91,-45,166,-91
163808,543,572,75,170,61,96,372,136,-69,-41,138,-485,220,-4,198,2,-267,-182,-195,-79,138,82,45,22,53,108,152,-126,51,-41,224,-13
163809,553,593,98,173,80,109,371,151,-60,-56,117,-458,229,0,196,41,-222,-196,-198,-65,146,91,35,11,57,99,167,-198,13,-45,206,-16
163810,604,593,109,167,78,103,354,165,-62,-78,109,-439,225,-6,198,94,-199,-195,-194,-64,154,67,57,13,44,92,161,-124,36,-53,206,-45
163811,643,585,144,183,78,100,348,178,-58,-65,102,-394,224,-6,189,108,-193,-184,-210,-92,143,87,63,2,24,76,135,-141,-12,-107,135,-105
163812,640,561,105,177,83,106,326,158,-86,-71,101,-420,194,-10,164,25,-204,-215,-236,-112,119,94,35,-20,-2,58,110,-235,-60,-133,103,-138
163813,655,587,147,187,103,113,351,158,-81,-75,121,-414,202,-18,174,0,-196,-221,-227,-113,113,30,52,-24,-2,48,81,-223,-40,-120,133,-109
163814,647,604,149,167,80,125,357,122,-88,-67,96,-423,185,-37,136,3,-189,-213,-243,-142,94,5,65,-15,-27,23,50,-151,-35,-126,91,-167
163815,629,597,115,133,74,112,361,102,-87,-78,94,-424,161,-43,121,32,-172,-192,-259,-140,80,43,104,-17,-48,9,60,-65,-25,-160,69,-201
163816,633,594,123,149,82,111,373,118,-80,-69,91,-388,196,-30,138,52,-140,-151,-225,-125,64,-19,137,18,-22,27,60,-17,22,-142,118,-198
163817,636,585,127,138,81,113,362,136,-86,-62,74,-391,228,-21,129,9,-151,-147,-236,-159,52,32,144,31,-22,34,73,-49,58,-102,137,-151
163818,654,587,161,146,82,123,389,150,-92,-78,83,-402,234,-12,126,18,-137,-131,-223,-148,68,85,162,37,-32,32,93,-13,83,-98,150,-130
163819,645,651,163,155,84,128,418,137,-83,-75,120,-415,226,-19,140,68,-156,-153,-218,-131,97,138,138,36,-17,62,133,-60,47,-108,153,-100
163820,643,663,163,135,86,144,412,133,-72,-72,132,-401,223,-17,157,115,-153,-160,-229,-118,123,141,117,42,-3,90,168,-80,29,-101,173,-63
163821,624,622,128,148,69,129,414,117,-77,-66,158,-426,201,6,172,129,-140,-159,-220,-107,159,188,154,43,6,107,193,30,129,-30,251,-12
163822,630,663,139,158,79,66,437,106,-70,-58,183,-405,216,16,185,135,-133,-133,-216,-104,155,106,199,49,5,107,173,130,151,-22,241,-17
163823,666,679,145,151,68,80,453,131,-81,-64,183,-399,202,0,190,141,-139,-144,-219,-106,126,126,190,51,-2,95,154,133,152,-38,217,-34
163824,666,659,153,131,66,109,415,133,-91,-103,153,-434,161,-20,166,94,-194,-175,-254,-134,95,203,88,-7,-55,53,117,-123,34,-128,142,-118
163825,664,654,160,90,71,96,413,139,-100,-91,154,-427,164,-36,171,94,-184,-197,-267,-133,117,189,71,-16,-69,50,135,-192,-8,-142,168,-80
163826,672,628,134,129,83,122,398,127,-100,-68,172,-412,178,-11,200,87,-135,-186,-252,-96,143,190,148,3,-26,90,175,44,132,-58,211,-16
163827,676,643,159,193,91,128,396,130,-100,-59,145,-445,174,-14,204,96,-211,-210,-262,-112,123,186,88,-30,-43,69,157,-162,34,-131,178,-55
163828,676,633,157,173,78,123,380,136,-106,-71,101,-431,171,-58,166,67,-216,-204,-271,-149,79,141,48,-42,-61,42,109,-229,-11,-172,127,-90
163829,675,650,153,160,91,140,360,127,-109,-63,116,-454,176,-36,132,37,-215,-210,-275,-168,51,94,48,-47,-63,7,48,-174,8,-171,67,-163
163830,681,659,134,159,103,148,351,124,-82,-60,124,-484,173,-34,132,85,-250,-197,-275,-168,58,111,34,-38,-61,-9,66,-212,-6,-161,85,-157
163831,658,668,143,158,94,144,355,119,-92,-57,109,-463,168,-51,129,48,-230,-173,-276,-192,47,95,73,-31,-80,-2,44,-186,21,-134,75,-160
163832,690,636,187,162,97,125,328,155,-93,-73,116,-450,166,-69,139,-55,-213,-187,-274,-190,40,90,85,-7,-70,-17,56,-155,27,-145,71,-165
163833,676,594,178,161,90,106,292,167,-98,-96,128,-429,168,-57,134,-60,-210,-187,-269,-182,40,68,102,19,-51,-22,61,-90,75,-108,113,-136
163834,699,607,201,198,113,127,311,213,-61,-73,127,-386,212,-39,126,27,-191,-140,-239,-151,65,129,147,38,-25,0,101,-41,139,-55,184,-84
163835,708,622,217,209,95,97,315,206,-49,-89,94,-380,234,-44,126,91,-157,-120,-240,-165,62,115,162,39,-36,0,95,-58,129,-66,185,-87
163836,741,670,219,214,98,91,319,243,-55,-85,101,-343,263,-19,156,146,-148,-85,-205,-127,81,96,205,77,-4,29,135,21,200,0,288,-11
163837,733,670,226,229,93,98,343,263,-42,-92,99,-320,265,-26,144,127,-101,-72,-193,-140,82,216,218,101,18,43,175,80,217,16,300,88
163838,693,667,180,204,83,86,324,229,-47,-128,75,-360,265,-43,107,86,-129,-85,-219,-164,50,178,195,99,-9,5,138,51,165,-27,227,-29
163839,693,659,155,210,104,71,332,213,-50,-115,74,-376,267,-24,103,73,-109,-97,-208,-161,46,120,196,73,9,27,138,21,167,-2,248,-21
163840,711,688,182,221,89,80,350,198,-43,-96,73,-371,261,-20,114,93,-177,-117,-220,-171,74,168,120,49,12,33,162,-176,89,-43,225,-2
163841,702,699,175,214,94,87,350,221,-36,-119,61,-370,253,-38,109,57,-151,-112,-217,-171,64,164,182,45,-8,25,143,-62,137,-28,225,-24
163842,688,659,172,222,83,66,336,223,-15,-124,68,-375,248,-43,93,56,-127,-102,-205,-148,45,155,193,54,4,17,127,-32,155,-5,224,-44
163843,683,631,188,222,86,75,329,205,-35,-112,48,-349,260,-29,90,73,-125,-117,-220,-146,43,189,145,48,3,15,119,-172,98,-46,199,-60
163844,678,628,166,214,92,75,333,193,-55,-109,73,-372,267,-24,119,72,-143,-107,-201,-134,62,164,138,65,2,25,141,-154,125,-13,210,-44
163845,673,624,143,205,58,83,329,196,-67,-95,79,-383,252,-13,109,52,-139,-83,-187,-138,69,104,209,67,37,40,143,10,237,45,245,-44
163846,668,610,138,204,77,90,334,157,-78,-83,77,-422,238,-15,96,41,-159,-97,-193,-139,54,57,207,59,21,27,105,112,244,27,217,-56
163847,653,599,113,186,76,74,286,148,-69,-84,46,-414,230,-21,86,13,-141,-120,-190,-174,25,33,172,62,4,-2,58,42,175,-38,164,-111
163848,637,586,121,174,50,74,258,151,-74,-88,21,-433,233,-22,90,5,-145,-131,-186,-172,16,75,159,56,-5,0,71,-53,103,-102,135,-113
163849,616,574,78,148,61,64,274,133,-84,-81,37,-474,224,-28,96,-18,-221,-162,-194,-171,7,73,95,32,-15,-20,64,-196,48,-101,100,-122
163850,622,580,91,159,66,76,291,144,-71,-73,59,-449,233,-7,106,-61,-202,-142,-201,-163,-3,90,100,24,-12,-37,42,-225,34,-107,86,-115
163851,601,564,99,147,74,32,243,141,-82,-97,29,-441,224,-13,103,-235,-167,-128,-189,-173,-5,-1,136,43,-26,-64,20,-83,82,-121,58,-133
163852,580,558,71,132,72,-25,232,111,-97,-97,23,-470,221,-20,63,-243,-221,-158,-204,-192,-43,-29,107,23,-42,-82,-22,-101,62,-151,9,-173
163853,547,507,21,110,35,34,199,77,-100,-114,6,-516,197,-41,43,-214,-273,-181,-249,-204,-81,-10,72,-18,-78,-101,-62,-196,13,-185,-31,-198
163854,547,505,19,128,44,33,202,119,-86,-119,-16,-519,213,-37,41,-146,-249,-180,-226,-218,-54,-54,89,-4,-79,-88,-31,-102,43,-198,-53,-200
163855,561,531,27,127,59,49,204,103,-70,-124,-54,-514,219,-33,37,-80,-264,-198,-226,-199,-42,-50,85,-21,-77,-76,-4,-136,20,-237,-51,-217
163856,581,526,18,123,71,43,192,87,-35,-105,-46,-543,214,-21,51,-45,-302,-215,-247,-187,-16,-5,62,-25,-73,-60,12,-192,2,-226,-13,-187
163857,601,531,46,131,79,55,186,123,-35,-112,-22,-519,207,-15,68,-35,-253,-195,-221,-191,-31,16,99,-1,-55,-53,30,-117,47,-178,7,-168
163858,592,529,27,132,71,48,195,105,-55,-117,-22,-505,207,-32,59,-56,-246,-177,-225,-187,-35,1,127,26,-46,-53,34,-24,105,-143,25,-157
163859,602,533,46,133,58,38,170,103,-66,-115,-47,-517,215,-15,53,-69,-231,-175,-224,-185,-37,-11,156,32,-51,-53,27,42,141,-110,73,-111
163860,599,505,45,108,44,22,170,102,-77,-126,-53,-526,162,-15,33,-88,-265,-210,-256,-196,-35,-50,107,-17,-63,-49,28,-124,60,-136,81,-77
163861,611,488,53,112,31,1,158,73,-92,-154,-59,-541,134,-31,24,-122,-344,-242,-285,-215,-43,-25,20,-70,-88,-69,10,-258,-20,-202,7,-160
163862,616,497,40,131,41,10,178,90,-74,-134,-61,-533,171,-32,36,-111,-303,-211,-279,-211,-65,-29,65,-24,-70,-71,13,-189,-9,-194,-10,-196
163863,579,475,-5,116,45,0,147,56,-82,-121,-64,-541,169,-19,34,-123,-315,-219,-267,-208,-36,-2,70,-14,-44,-47,49,-171,15,-173,33,-149
163864,579,479,29,122,46,-1,152,67,-84,-136,-78,-522,192,-14,22,-133,-297,-187,-221,-194,-29,-8,102,19,-31,-26,28,-119,69,-124,83,-141
163865,566,486,68,146,44,9,165,106,-69,-147,-65,-490,226,-32,17,-115,-256,-155,-213,-186,-40,-49,125,42,-33,-22,11,-70,122,-76,112,-149
163866,568,489,95,147,56,3,160,135,-75,-136,-92,-491,234,-22,13,-140,-276,-168,-217,-192,-50,-80,112,24,-47,-48,-22,-106,64,-124,58,-205
163867,593,474,110,157,57,1,163,122,-73,-114,-91,-522,203,3,12,-148,-332,-211,-225,-192,-48,-41,21,-11,-54,-47,-21,-285,-101,-233,20,-233
163868,580,431,62,123,44,-26,111,103,-87,-127,-112,-521,201,-18,17,-180,-335,-218,-240,-186,-75,-62,33,-35,-51,-51,-33,-203,-68,-214,49,-189
163869,556,407,43,103,28,-25,95,84,-84,-136,-102,-557,193,-21,9,-203,-364,-203,-245,-192,-67,-84,50,-20,-37,-56,-21,-74,45,-117,102,-123
163870,566,435,24,118,49,5,119,101,-84,-105,-77,-577,187,-5,21,-198,-373,-208,-239,-177,-39,-101,48,3,-46,-48,-42,-45,29,-115,81,-176
163871,540,426,32,113,20,2,100,83,-93,-113,-90,-569,168,-11,7,-207,-379,-232,-263,-196,-74,-135,-17,-37,-72,-81,-72,-222,-55,-202,0,-252
163872,556,409,48,113,35,9,100,85,-97,-122,-85,-558,154,-16,9,-255,-370,-252,-263,-217,-86,-192,-11,-49,-63,-78,-91,-257,-99,-257,-15,-292
163873,574,446,66,132,55,2,116,98,-79,-103,-70,-566,167,-7,18,-275,-382,-245,-227,-211,-82,-165,15,-34,-61,-62,-111,-249,-68,-243,6,-302
163874,570,434,41,106,37,0,76,78,-93,-114,-108,-570,157,-12,-8,-285,-408,-238,-246,-221,-114,-132,-1,-35,-81,-106,-146,-239,-58,-237,-24,-306
163875,561,429,20,108,41,4,56,87,-84,-108,-117,-596,166,-14,-15,-260,-446,-243,-254,-215,-124,-133,-13,-35,-66,-126,-140,-208,-35,-244,-56,-302
163876,576,443,14,125,51,3,65,109,-85,-119,-123,-599,180,-16,-20,-247,-460,-253,-252,-243,-137,-182,-23,-56,-77,-131,-152,-258,-61,-285,-99,-360
163877,569,423,18,79,33,-26,43,119,-92,-142,-153,-598,168,-23,-57,-234,-452,-264,-263,-273,-166,-214,-29,-70,-88,-170,-209,-272,-86,-314,-153,-451
163878,594,428,21,73,22,-45,12,109,-106,-158,-167,-641,150,-37,-69,-269,-458,-268,-280,-287,-184,-337,-34,-68,-88,-196,-218,-244,-82,-294,-113,-421
163879,604,430,51,127,40,-65,3,113,-85,-151,-178,-626,180,-26,-103,-311,-459,-266,-264,-281,-199,-236,-61,-65,-105,-177,-207,-357,-121,-342,-117,-408
163880,572,367,30,77,35,-122,16,117,-72,-168,-179,-606,202,-34,-68,-270,-407,-238,-242,-261,-165,-201,7,-30,-72,-140,-182,-236,-84,-307,-108,-409
163881,557,347,66,151,16,-55,27,138,-56,-165,-167,-560,225,-7,-50,-223,-314,-177,-198,-233,-115,-224,82,33,-17,-102,-136,-40,23,-206,-29,-370
163882,606,380,91,173,31,-44,41,137,-36,-152,-161,-518,250,-22,-47,-209,-313,-154,-188,-213,-122,-194,86,42,6,-98,-140,-70,7,-220,-50,-362
163883,617,450,99,162,32,-50,84,109,-44,-161,-134,-489,249,-18,-29,-221,-312,-151,-172,-192,-102,-171,97,47,18,-81,-132,-99,27,-214,-52,-339
163884,624,461,102,163,34,-30,90,117,-64,-137,-124,-458,256,-12,-1,-191,-235,-118,-141,-156,-65,-180,156,84,62,-42,-92,-13,94,-148,23,-286
163885,647,504,103,154,52,9,119,120,-62,-125,-121,-462,246,21,35,-169,-231,-127,-146,-140,-43,-133,152,90,84,-7,-68,-42,81,-122,60,-247
163886,646,515,94,145,41,0,120,92,-75,-150,-97,-488,219,-14,33,-159,-315,-169,-169,-140,-33,-109,55,32,56,6,-48,-303,-32,-160,87,-203
163887,645,512,85,149,69,8,157,93,-72,-134,-59,-483,222,-3,62,-137,-304,-178,-154,-116,21,-60,50,33,73,33,1,-368,-31,-152,107,-188
163888,658,498,111,153,55,34,182,108,-63,-113,-64,-471,240,15,65,-136,-227,-150,-159,-107,40,-51,124,54,80,38,18,-162,54,-126,89,-207
163889,650,491,119,126,44,22,150,101,-69,-115,-40,-472,243,11,66,-135,-260,-159,-153,-114,38,-69,105,63,93,45,11,-95,73,-107,119,-183
163890,621,496,91,130,41,-3,120,105,-81,-112,-29,-479,225,42,73,-152,-273,-158,-149,-92,40,-52,109,72,108,60,4,-56,102,-88,145,-140
163891,602,493,60,124,34,-6,135,106,-78,-109,-43,-505,215,49,92,-138,-308,-176,-145,-71,44,-48,82,52,110,76,42,-168,81,-93,121,-118
163892,574,483,37,107,16,-35,132,93,-89,-105,-59,-525,197,32,66,-142,-350,-189,-148,-76,47,-71,30,38,101,69,70,-268,33,-96,137,-117
163893,574,482,38,98,22,-32,137,89,-80,-103,-61,-529,201,45,72,-141,-346,-186,-130,-83,47,-52,42,50,103,82,74,-224,68,-69,183,-85
163894,539,456,22,76,16,-23,97,77,-84,-118,-80,-561,183,29,37,-167,-385,-210,-162,-109,4,-82,35,28,74,67,32,-206,84,-74,185,-120
163895,535,458,20,105,16,-44,85,82,-71,-140,-115,-573,184,15,23,-286,-377,-232,-185,-129,-31,-66,24,22,55,10,2,-228,58,-109,131,-147
163896,563,460,24,116,29,-39,94,93,-69,-128,-118,-577,188,18,28,-369,-345,-228,-197,-136,-23,-44,33,5,42,8,2,-216,41,-104,129,-147
163897,595,453,39,118,48,-28,81,90,-75,-134,-128,-584,169,1,13,-319,-357,-250,-213,-155,-43,-62,31,-6,34,0,16,-173,50,-90,151,-135
163898,584,459,25,99,29,-17,86,69,-82,-145,-136,-604,143,-31,-7,-215,-362,-260,-228,-191,-44,-64,63,-21,-3,-15,-3,-108,71,-100,142,-161
163899,578,464,3,102,34,-7,75,31,-100,-128,-120,-623,120,-33,17,-120,-372,-274,-264,-194,-21,-49,52,-35,-9,2,28,-114,52,-100,147,-132
163900,571,467,2,98,30,-13,78,19,-99,-116,-99,-631,98,-29,19,-119,-370,-281,-282,-182,-8,-65,31,-56,-8,9,49,-208,17,-126,124,-140
163901,556,445,-5,91,21,9,99,23,-111,-119,-91,-616,109,-19,48,-92,-341,-276,-280,-172,10,-46,33,-68,-21,17,41,-278,-15,-157,127,-165
