,Fp1,Fp2,F7,F3,Fz,F4,F8,FC5,FC1,FC2,FC6,T7,C3,Cz,C4,T8,TP9,CP5,CP1,CP2,CP6,TP10,P7,P3,Pz,P4,P8,PO9,O1,Oz,O2,PO10
55487,225,197,452,225,448,868,179,688,267,268,630,11,413,407,451,435,5,539,336,401,288,376,498,293,659,628,472,122,207,543,156,112
55488,249,229,433,254,473,890,218,655,265,264,572,-1,418,399,429,377,68,533,350,399,222,406,507,322,667,585,418,171,236,551,161,166
55489,271,248,448,272,483,897,272,666,266,284,549,8,429,417,415,343,107,524,364,393,276,371,429,297,674,593,418,240,223,571,170,187
55490,272,253,474,261,493,907,295,686,282,267,611,0,415,395,349,387,95,549,370,405,280,362,431,307,676,630,437,206,213,585,202,227
55491,268,240,477,265,479,887,229,655,270,274,645,42,366,402,391,425,109,538,347,408,263,378,460,292,688,633,456,235,266,629,249,295
55492,283,243,478,296,494,883,257,688,290,285,636,27,406,416,399,433,69,539,358,415,293,439,453,291,706,652,517,202,251,618,244,252
55493,287,254,469,295,510,905,252,698,293,298,636,9,426,415,435,456,38,504,353,444,331,470,422,281,703,676,552,122,190,552,213,215
55494,312,270,488,276,510,904,253,692,301,292,656,21,414,412,418,458,90,511,359,425,325,472,444,285,695,664,507,126,180,549,186,193
55495,260,255,448,272,517,902,298,679,307,310,657,50,401,420,418,459,107,525,358,440,292,420,447,291,709,668,453,157,207,582,185,171
55496,257,248,452,258,498,880,266,648,280,287,644,35,380,430,433,470,81,529,360,445,321,391,422,294,709,671,499,158,199,582,191,187
55497,285,259,485,270,497,883,266,642,272,291,646,35,400,416,457,487,48,551,405,439,373,435,457,353,733,706,582,162,254,626,235,215
55498,272,229,457,250,488,887,229,612,276,283,637,21,394,444,475,425,44,547,427,451,382,403,453,343,731,716,561,134,255,650,281,249
55499,206,156,348,219,465,873,200,564,268,282,640,-18,399,462,465,428,48,512,414,451,366,365,417,315,740,713,522,157,262,670,298,303
55500,217,184,407,218,450,841,202,655,273,276,567,2,418,456,389,406,70,539,412,439,313,431,462,341,761,705,513,149,265,644,282,251
55501,234,170,446,186,432,836,176,676,258,273,575,66,399,452,414,435,133,566,424,466,337,454,544,385,776,721,523,144,265,630,296,272
55502,248,160,402,196,437,843,216,664,247,279,634,40,411,454,446,490,147,562,437,496,380,503,508,404,795,794,583,175,258,684,349,359
55503,260,188,436,227,456,843,200,682,284,286,622,51,416,470,475,506,145,596,483,542,421,522,531,421,825,811,640,281,339,763,422,377
55504,247,203,446,250,448,849,261,715,289,294,643,53,430,481,490,413,139,615,485,557,449,508,556,422,853,844,662,320,395,782,440,394
55505,198,184,412,198,431,831,239,633,276,290,638,49,434,455,508,466,136,632,487,556,472,525,589,456,869,898,683,360,427,806,461,400
55506,218,186,413,229,427,790,178,646,313,253,563,75,511,444,479,503,124,675,487,545,460,512,626,474,860,873,678,385,421,755,412,360
55507,230,164,392,241,450,776,170,658,333,286,581,74,515,472,486,492,170,655,494,543,448,501,631,438,846,842,699,346,380,705,399,362
55508,268,189,535,168,433,807,215,665,253,287,618,150,352,460,486,509,214,590,423,526,435,505,533,387,786,808,660,270,313,664,366,375
55509,258,169,564,162,410,837,214,661,231,261,616,143,335,460,497,533,160,562,401,501,412,487,486,349,770,786,616,288,329,641,338,365
55510,225,117,459,163,405,803,156,630,260,257,590,50,375,461,464,465,153,557,386,479,407,472,514,320,733,775,604,360,349,643,332,331
55511,212,109,451,166,414,782,150,653,254,258,590,59,372,463,446,435,156,572,374,480,376,449,535,323,688,739,570,330,332,593,280,279
55512,218,164,480,190,433,808,187,655,256,262,619,55,364,445,466,476,187,539,364,448,357,464,488,286,653,698,551,204,239,529,214,254
55513,228,166,454,171,423,798,208,639,234,257,599,42,342,427,463,470,182,491,336,429,346,427,422,259,639,664,510,158,182,474,172,235
55514,233,128,449,185,422,803,202,660,254,268,595,54,358,448,476,492,167,520,366,443,360,415,463,267,630,685,529,188,221,509,191,253
55515,209,110,458,233,448,815,174,672,296,272,606,85,395,462,486,504,190,520,367,453,358,411,501,268,638,718,561,255,257,554,235,267
55516,208,110,445,218,447,836,170,658,291,261,608,55,374,434,463,491,151,540,358,442,342,447,523,272,639,711,539,262,267,595,259,291
55517,215,112,450,220,434,831,182,635,273,285,601,40,362,421,479,494,103,536,340,434,317,430,488,272,644,702,539,233,272,591,238,269
55518,189,102,406,201,427,797,156,645,260,277,568,50,362,417,514,472,87,529,345,431,300,394,492,259,646,683,525,232,255,569,233,246
55519,196,92,402,209,439,802,155,658,274,259,587,39,368,400,478,491,131,497,360,425,346,431,485,269,636,674,545,197,234,533,220,241
55520,193,80,445,228,421,784,171,657,276,237,586,-14,409,422,414,517,154,528,369,425,354,460,450,293,649,674,568,190,226,539,228,246
55521,204,82,443,234,440,780,134,649,304,253,580,-140,499,451,452,477,91,639,407,442,347,433,464,320,646,692,564,137,191,515,229,229
55522,147,48,380,195,422,776,115,620,293,229,601,-107,455,399,434,457,38,575,354,411,323,415,434,269,604,646,513,156,138,476,175,159
55523,179,101,432,188,440,808,193,605,235,254,614,166,222,399,444,493,99,367,303,406,333,434,471,211,610,642,487,203,186,505,197,229
55524,191,103,399,200,434,783,185,630,253,252,554,11,331,430,436,476,116,474,347,404,324,403,491,279,622,643,528,216,220,536,182,246
55525,180,92,376,193,432,784,192,610,260,264,570,-29,352,443,442,411,106,472,367,409,304,317,473,280,653,625,503,187,185,494,173,159
55526,145,81,348,180,428,820,178,598,243,287,606,-58,337,449,505,391,47,447,364,443,335,279,458,271,651,633,481,172,206,521,198,190
55527,136,76,345,168,412,801,159,593,243,289,600,-34,336,460,528,486,17,478,371,452,359,333,481,286,671,663,526,170,244,580,236,230
55528,146,84,347,198,412,771,196,626,245,261,566,20,353,453,439,420,4,527,383,453,335,380,511,315,712,713,585,226,289,609,289,286
55529,155,121,369,173,419,811,217,597,264,256,658,20,348,436,433,453,39,508,380,472,398,399,497,313,708,737,591,234,253,574,290,257
55530,174,138,370,160,436,847,205,603,254,288,698,-12,332,442,500,433,34,499,376,476,414,404,479,313,711,734,553,237,295,593,304,298
55531,152,139,375,179,464,880,187,636,256,303,758,21,356,443,531,430,28,513,390,478,429,356,499,320,685,724,591,192,236,532,242,239
55532,156,142,340,166,436,840,231,591,241,280,606,-13,354,453,508,505,3,508,385,467,424,382,451,301,685,711,600,207,218,506,193,205
55533,138,152,310,143,404,810,227,592,246,262,592,13,358,461,503,553,24,505,388,447,390,367,451,304,677,676,534,193,187,480,174,209
55534,116,133,318,122,407,804,203,567,227,253,581,38,351,427,476,514,32,505,376,428,334,398,452,287,648,647,517,155,152,472,166,215
55535,151,133,342,145,438,865,199,546,238,276,640,-9,341,440,461,527,35,499,402,433,339,393,437,285,640,642,524,135,139,459,129,217
55536,182,161,370,180,462,847,251,615,271,307,600,-17,410,460,458,565,78,516,429,439,363,411,485,328,647,685,570,189,195,511,156,259
55537,168,176,357,172,469,851,249,641,286,309,646,10,434,456,515,570,92,574,440,447,390,442,575,383,694,685,611,246,247,556,208,297
55538,191,200,385,185,479,875,272,621,273,308,680,38,383,455,518,589,86,550,416,440,423,438,531,364,687,706,609,258,254,563,224,260
55539,191,196,399,182,460,898,297,635,266,309,704,36,378,423,502,587,130,527,405,448,432,490,460,333,663,712,571,206,248,548,233,280
55540,153,198,357,196,462,847,215,660,257,279,628,20,389,399,478,548,117,510,394,410,405,489,480,314,638,703,596,194,229,532,225,286
55541,175,192,315,212,464,845,214,663,263,287,617,-14,377,415,485,568,49,510,367,438,405,455,475,311,637,714,618,180,207,518,230,288
55542,174,149,343,209,450,842,220,639,278,292,633,9,376,413,472,573,73,522,355,446,399,413,502,317,635,707,572,138,214,521,234,301
55543,156,129,328,188,438,816,221,541,270,256,628,-1,347,417,446,521,116,488,352,435,386,392,483,304,619,685,556,150,229,532,229,261
55544,119,99,247,199,425,791,152,589,288,250,584,-39,368,460,431,490,31,473,363,445,382,387,446,304,628,682,575,157,243,530,222,253
55545,123,48,245,188,412,766,115,706,277,240,541,-42,386,472,427,438,18,496,378,426,358,367,461,287,609,670,528,134,222,489,153,177
55546,173,92,374,134,433,798,150,600,259,252,580,-15,349,485,460,464,48,512,392,474,393,341,525,324,653,695,593,175,270,532,190,168
55547,174,104,343,148,447,791,125,639,293,253,572,-19,382,457,454,425,5,474,389,449,386,326,463,299,647,671,598,142,217,503,149,145
55548,159,97,357,151,434,793,108,560,273,234,563,-25,355,428,436,437,-39,454,373,414,321,370,389,276,606,624,468,77,168,426,119,173
55549,147,88,334,154,441,759,88,565,283,232,526,-31,366,411,406,422,-48,485,383,420,269,359,409,290,629,622,453,126,188,481,161,244
55550,143,62,288,137,437,738,69,568,276,233,511,-40,360,422,413,395,-4,476,380,411,306,296,458,313,629,628,496,170,227,522,170,197
55551,148,92,324,150,446,760,107,510,248,252,523,-91,323,420,417,381,-31,415,366,409,291,317,421,268,623,626,466,128,175,453,116,132
55552,128,109,289,136,427,772,72,511,254,246,538,-50,330,431,443,381,-41,440,366,422,313,296,429,277,664,646,477,172,218,489,167,200
55553,126,91,299,140,420,765,59,529,253,237,512,-38,329,426,435,307,-3,448,384,410,308,262,428,279,676,636,458,169,256,529,178,266
55554,179,110,367,173,429,753,91,560,258,225,495,-35,332,409,423,279,32,468,370,410,271,307,396,261,659,624,429,132,208,474,122,162
55555,196,118,348,162,411,772,135,549,267,239,514,-24,362,438,420,377,17,490,385,412,262,352,421,278,678,615,425,179,197,488,143,125
55556,194,94,324,164,423,769,100,515,287,263,496,-2,401,482,425,360,30,517,425,441,284,346,489,344,706,642,462,260,262,540,194,198
55557,183,83,345,188,420,748,72,613,311,255,479,8,450,502,455,305,-11,555,438,459,262,300,524,361,738,659,440,281,331,566,194,177
55558,167,60,383,166,417,725,36,638,292,261,471,43,390,495,454,281,-15,553,438,446,231,298,520,345,741,652,433,191,305,523,168,129
55559,168,43,368,152,397,712,44,604,259,217,478,4,343,471,348,341,-18,481,397,419,222,280,419,289,692,633,407,101,198,476,153,89
55560,197,109,384,186,426,752,106,615,287,246,540,-21,350,487,421,414,37,449,378,420,261,330,367,263,679,626,374,56,78,433,117,168
55561,228,126,394,206,439,773,146,664,294,274,556,-16,341,453,421,407,64,470,373,428,262,394,427,273,697,640,417,52,66,395,115,168
55562,218,116,387,194,433,740,119,644,280,249,521,-44,355,477,397,350,81,483,379,420,239,359,493,282,702,627,446,108,169,456,113,126
55563,244,145,393,194,433,767,116,609,300,265,545,0,355,489,432,380,111,480,404,427,261,338,447,306,689,637,414,202,252,510,164,153
55564,251,140,430,198,442,771,147,660,307,252,541,39,368,460,392,397,138,484,405,425,251,321,437,302,700,621,388,235,270,509,186,185
55565,222,128,407,192,434,770,113,624,291,246,550,18,342,451,390,336,115,471,368,379,223,275,438,254,662,582,388,216,235,473,128,150
55566,215,129,419,196,411,775,118,611,290,262,515,17,352,445,422,315,48,467,379,389,228,276,505,276,643,579,407,256,270,497,121,161
55567,240,111,464,229,419,724,66,645,316,246,455,95,407,454,391,362,78,549,435,397,218,313,588,343,688,589,396,252,314,561,165,179
55568,256,118,498,228,429,718,61,660,314,257,516,102,424,477,380,361,59,537,432,403,210,334,492,340,727,604,361,269,325,549,172,217
55569,211,101,447,209,420,730,74,655,291,245,539,76,421,467,385,338,55,496,432,408,217,339,484,343,724,597,389,251,318,555,152,214
55570,200,86,405,207,412,727,118,636,289,240,538,44,411,448,405,342,71,504,415,382,235,294,449,343,722,604,415,237,300,548,149,173
55571,201,72,395,208,410,694,62,643,296,251,494,56,403,455,382,365,72,529,425,407,232,317,459,360,728,603,396,189,266,530,137,147
55572,222,81,444,212,413,692,88,666,292,247,491,80,414,482,393,369,127,570,447,430,261,304,519,382,769,631,359,203,318,589,190,222
55573,238,105,462,232,432,698,102,690,299,238,531,138,431,490,425,365,170,600,467,468,291,341,573,425,778,685,450,264,387,667,264,265
55574,260,126,485,261,450,735,114,707,310,249,570,145,458,498,452,361,169,598,502,482,315,380,547,452,808,683,483,297,399,707,241,157
55575,239,108,500,241,437,725,89,691,309,241,540,115,459,482,423,280,162,597,479,464,313,341,533,425,824,675,437,293,404,675,257,176
55576,242,127,471,246,431,743,103,737,326,240,547,137,487,515,433,306,208,618,497,490,314,389,588,446,824,676,436,306,399,627,253,213
55577,270,166,439,283,445,780,168,766,348,258,597,144,503,514,466,483,250,637,529,478,317,415,633,461,827,686,430,315,367,628,268,206
55578,270,161,500,285,445,757,142,757,336,240,544,139,486,496,412,426,230,637,504,460,283,377,639,440,821,675,413,280,331,619,265,206
55579,251,126,441,315,438,746,97,782,318,240,489,141,487,487,426,387,143,614,487,462,283,335,582,429,821,688,448,299,362,654,268,224
55580,253,145,411,294,447,745,116,716,293,254,516,130,459,490,452,411,125,594,486,462,322,337,543,440,822,715,476,325,370,667,305,206
55581,285,177,526,254,447,773,162,656,293,272,603,165,440,468,435,443,216,606,481,463,339,380,606,438,824,725,459,299,352,665,310,261
55582,269,175,492,299,457,759,145,697,330,283,597,143,471,455,442,432,191,600,500,479,325,381,636,439,811,717,465,295,366,665,314,272
55583,260,160,486,288,451,753,132,699,338,266,553,98,515,464,448,365,142,572,488,459,290,349,526,416,792,707,472,322,363,654,290,244
55584,278,184,471,299,453,775,152,727,352,251,559,44,578,461,436,366,139,613,479,451,276,344,575,440,787,702,432,322,393,660,308,254
55585,282,200,488,308,461,773,170,668,333,255,565,180,446,455,447,423,213,623,455,450,292,333,669,453,792,685,443,320,401,684,324,263
55586,278,187,500,282,442,763,155,622,335,243,553,178,417,481,413,424,242,586,439,433,274,309,610,422,768,649,445,328,373,663,300,250
55587,263,181,502,268,442,778,162,722,342,259,568,119,476,504,448,414,228,582,476,462,292,312,562,447,777,687,472,330,375,666,306,263
55588,265,179,541,252,444,765,135,738,321,252,551,155,467,494,430,401,178,612,469,463,284,349,606,471,773,686,424,342,406,697,315,257
55589,272,221,496,258,455,776,188,714,337,251,589,91,473,512,435,460,166,657,456,465,321,375,622,453,768,690,470,313,389,672,290,250
55590,252,229,458,249,447,785,217,680,321,271,623,-102,462,487,467,455,122,669,455,478,357,366,576,421,763,687,536,270,375,674,304,231
55591,254,183,470,271,436,793,140,724,313,262,690,133,451,455,492,396,160,629,439,477,346,358,589,442,770,685,483,284,379,674,324,270
55592,294,203,495,283,467,809,196,720,318,271,638,261,423,464,463,452,232,533,449,471,336,405,607,423,751,712,473,306,372,686,329,321
55593,286,219,498,287,482,789,239,721,343,246,517,148,517,501,436,442,226,676,509,484,347,422,643,477,776,720,519,347,445,714,381,374
55594,230,191,491,299,471,764,134,724,356,266,535,138,556,495,456,424,214,697,538,489,351,419,666,519,793,725,560,413,454,704,354,318
55595,247,214,482,301,466,792,168,719,350,282,566,158,529,497,482,469,195,668,527,487,355,446,659,498,792,720,504,381,419,661,309,276
55596,251,200,487,309,449,778,123,741,340,247,545,145,496,474,494,402,163,638,491,481,308,419,577,454,751,670,460,353,334,598,271,287
55597,238,190,473,291,448,781,132,708,360,270,579,139,508,472,471,377,179,645,495,481,308,397,601,420,749,673,501,291,307,583,270,311
55598,223,172,456,267,453,771,152,643,347,256,609,102,487,468,412,431,139,599,467,459,301,373,573,394,756,668,476,312,324,629,308,325
55599,183,123,392,271,444,757,64,591,340,247,542,71,486,458,423,411,97,593,442,447,273,334,536,388,753,645,469,250,320,599,272,235
55600,198,133,403,279,457,746,116,677,345,269,517,57,512,459,410,383,78,588,464,461,286,370,517,401,780,648,495,192,309,545,231,200
55601,184,142,408,225,449,775,180,650,299,269,588,64,456,460,426,401,76,578,475,468,301,365,511,371,777,668,466,231,327,577,200,197
55602,204,149,444,255,448,777,109,658,308,276,553,37,464,477,431,432,73,572,447,467,297,384,504,371,758,669,428,214,301,571,218,233
55603,219,157,475,239,465,756,91,692,322,277,547,43,464,481,427,405,81,584,433,447,285,341,520,382,724,663,404,230,270,546,199,214
55604,240,165,476,248,463,768,136,703,321,283,562,80,485,484,448,381,87,616,445,449,276,296,583,378,726,658,416,247,289,526,211,201
55605,242,169,451,253,459,780,129,674,319,291,573,60,476,477,451,419,83,587,449,449,294,341,543,396,722,657,444,265,298,540,207,182
55606,190,144,423,226,456,775,120,618,282,294,545,-2,443,462,416,372,55,507,454,442,266,336,445,342,721,658,416,253,310,561,212,172
55607,189,167,413,245,460,788,102,644,302,320,546,20,441,484,425,374,3,516,454,457,269,329,486,349,733,661,403,171,286,518,190,186
55608,192,167,390,221,455,798,119,624,282,305,581,39,409,444,426,398,42,511,414,441,274,308,420,307,706,649,392,62,188,448,133,127
55609,217,173,408,205,456,809,161,593,264,319,599,-1,414,445,434,407,50,487,429,445,292,336,357,295,713,655,394,61,155,436,135,105
55610,179,162,411,224,444,811,155,611,268,321,608,-32,481,469,464,412,40,532,463,472,293,331,436,343,750,662,403,95,165,430,150,148
55611,196,193,404,223,443,842,143,615,297,322,642,14,484,485,496,401,65,549,468,489,311,341,460,379,776,702,432,114,227,477,167,197
55612,176,162,392,224,440,828,103,618,277,310,626,68,395,467,516,394,69,521,460,497,328,362,494,367,777,711,478,199,270,530,215,203
55613,173,154,411,235,446,810,123,621,276,300,566,50,418,466,484,359,48,524,462,491,322,330,463,346,740,694,436,272,295,524,212,183
55614,172,151,385,221,442,826,135,650,285,293,586,50,418,465,472,346,54,535,429,467,309,344,485,327,709,673,412,190,251,498,186,216
55615,146,121,323,250,454,806,113,698,269,291,585,33,413,452,474,345,36,511,394,440,283,335,443,317,691,637,409,50,173,442,127,116
55616,166,113,334,219,446,768,81,615,277,284,529,1,405,431,424,300,17,499,385,423,248,345,392,293,711,595,343,71,156,439,99,112
55617,177,120,417,190,449,759,82,550,283,276,538,45,384,420,413,292,52,525,397,433,246,333,445,306,721,634,366,136,196,475,164,171
55618,162,112,395,216,417,746,67,618,286,264,530,50,392,401,373,312,29,525,388,401,242,289,462,309,721,637,397,108,221,492,202,200
55619,131,73,370,223,393,726,36,619,289,224,489,27,400,403,365,336,36,513,398,400,250,309,464,295,693,622,413,140,218,484,211,198
55620,139,90,347,209,424,721,43,621,293,238,512,43,390,414,386,354,63,504,390,390,263,372,479,301,679,624,444,139,212,475,185,224
55621,157,120,368,201,431,747,85,604,293,247,534,21,361,406,381,396,61,469,368,402,273,392,434,241,664,629,466,135,175,449,126,145
55622,187,126,408,238,440,747,101,588,288,253,541,66,409,415,393,408,108,491,373,404,266,393,450,261,673,630,409,196,206,454,143,124
55623,201,99,427,261,442,731,114,564,297,252,557,97,433,447,417,402,149,512,399,424,289,350,487,312,703,655,397,235,288,496,162,129
55624,194,88,417,215,418,711,78,599,307,256,528,62,420,440,383,368,131,494,408,433,270,310,501,329,741,660,413,247,305,574,204,138
55625,188,93,392,204,404,728,86,715,282,247,541,59,409,418,376,374,72,511,401,446,290,327,537,310,740,678,462,221,258,555,200,165
55626,188,116,396,169,410,764,148,638,260,255,580,39,377,430,415,385,80,474,397,459,339,396,443,320,752,695,521,215,256,542,228,216
55627,174,125,359,183,407,756,140,611,269,254,565,15,350,427,414,356,44,481,372,438,268,347,413,323,745,684,414,214,276,608,238,235
55628,218,162,393,224,438,783,149,674,276,271,588,75,404,434,452,409,68,544,393,465,327,375,509,347,753,694,446,222,307,594,248,240
55629,243,169,424,182,424,764,158,613,255,275,572,116,399,438,440,362,138,566,400,468,338,406,546,359,757,685,515,258,294,578,249,235
55630,231,175,412,184,418,812,186,642,252,279,608,140,407,451,470,519,159,594,414,508,358,404,591,387,771,710,496,287,314,597,261,235
55631,248,219,454,216,436,830,248,659,264,279,604,165,430,448,449,545,194,607,443,504,314,444,631,391,797,725,491,363,360,594,283,279
55632,255,258,470,243,451,841,233,667,266,290,656,155,432,457,493,529,183,607,436,501,366,490,639,404,815,737,550,399,402,657,308,300
55633,262,242,462,244,456,854,243,679,281,330,644,157,429,478,527,509,186,610,451,498,379,507,661,432,817,726,554,393,390,673,301,289
55634,281,255,470,211,454,861,238,682,285,342,618,157,448,487,575,463,196,618,470,518,370,475,654,432,814,754,541,399,386,659,301,283
55635,321,294,511,211,459,855,266,704,291,350,686,194,459,498,617,489,217,661,476,548,447,519,701,448,824,794,620,381,383,668,317,356
55636,359,327,566,245,468,867,326,734,297,317,723,250,490,505,496,560,224,691,487,544,500,567,740,462,845,816,699,364,433,684,354,364
