,Fp1,Fp2,F7,F3,Fz,F4,F8,FC5,FC1,FC2,FC6,T7,C3,Cz,C4,T8,TP9,CP5,CP1,CP2,CP6,TP10,P7,P3,Pz,P4,P8,PO9,O1,Oz,O2,PO10
108168,71,51,293,4,-102,716,161,386,46,90,273,-54,-10,-8,247,280,175,-279,-130,-101,-24,-886,-123,39,152,-26,-101,75,252,-106,-269,-645
108169,84,58,268,5,-96,731,161,385,57,87,278,-55,-3,9,257,251,124,-283,-126,-88,13,-878,-112,51,172,25,-49,132,295,-63,-219,-624
108170,168,98,315,13,-77,752,203,396,73,99,290,-90,-5,9,247,169,98,-307,-139,-102,47,-819,-226,-15,144,45,-9,-284,99,-161,-254,-629
108171,222,111,387,0,-74,747,208,398,81,82,306,-80,2,5,255,-172,142,-315,-141,-85,63,-880,-237,-19,135,53,37,-421,60,-174,-223,-591
108172,257,114,432,20,-64,738,189,399,68,70,294,-32,18,15,249,-259,129,-272,-120,-90,78,-879,-173,20,159,64,39,-230,166,-117,-190,-585
108173,247,106,443,34,-68,718,173,413,70,56,274,5,48,6,246,-30,149,-237,-121,-103,73,-814,-131,48,163,57,-4,-144,205,-76,-187,-608
108174,219,109,421,32,-79,697,209,427,88,31,266,-11,46,-1,236,146,209,-202,-99,-103,65,-872,-110,77,195,84,25,-47,274,10,-101,-540
108175,268,139,450,42,-60,712,255,452,96,50,293,24,65,15,240,473,137,-191,-79,-75,98,-893,-113,90,214,131,95,-12,291,32,-44,-482
108176,270,161,449,52,-58,709,261,487,99,67,290,56,79,19,229,591,105,-182,-57,-62,130,-706,-92,106,211,153,136,24,324,44,-18,-482
108177,229,152,431,49,-72,691,229,452,84,43,237,25,77,-3,224,399,152,-176,-74,-71,101,-675,-77,101,224,150,107,64,338,55,-35,-497
108178,254,208,462,82,-47,740,266,470,107,47,293,40,120,10,244,257,227,-160,-58,-53,153,-722,-66,115,248,182,155,25,328,64,-1,-457
108179,273,238,451,79,-50,756,281,464,102,54,332,39,106,-6,242,218,239,-177,-62,-52,169,-650,-74,89,210,160,207,-39,280,38,2,-448
108180,281,238,428,99,-33,764,287,448,70,60,349,43,88,-17,260,307,251,-169,-84,-69,200,-643,-25,101,205,166,287,52,311,37,-24,-399
108181,295,253,403,109,-9,798,324,470,74,83,378,21,96,1,265,410,255,-174,-97,-54,244,-624,-67,72,199,175,320,-42,249,10,0,-445
108182,312,248,409,113,-16,798,293,524,80,81,355,27,94,-2,251,496,250,-161,-98,-74,190,-710,-100,84,191,162,279,-66,228,6,0,-435
108183,324,230,457,84,-37,793,264,486,71,78,325,46,100,0,228,561,242,-166,-78,-70,141,-657,-82,97,194,146,241,0,269,25,-17,-449
108184,335,222,519,67,-19,807,292,464,75,95,344,65,107,15,256,543,230,-162,-67,-44,158,-620,-48,96,209,140,226,39,282,35,-6,-478
108185,308,208,520,71,-40,779,279,470,79,90,326,25,116,19,249,374,262,-138,-59,-43,136,-643,-42,98,207,134,154,10,285,30,-1,-435
108186,320,217,478,65,-50,758,249,448,69,75,314,11,102,19,211,339,287,-159,-75,-60,121,-703,-61,82,191,124,92,7,279,23,-24,-411
108187,321,207,497,74,-42,771,242,445,76,63,343,65,103,10,222,448,261,-206,-95,-85,108,-803,-78,59,168,71,106,75,250,-30,-88,-387
108188,313,208,489,92,-49,758,260,487,91,64,326,74,103,3,218,490,234,-202,-89,-94,128,-822,-61,72,160,73,136,82,240,-38,-74,-393
108189,308,211,494,99,-41,776,283,503,109,84,353,87,129,4,208,477,237,-160,-85,-81,118,-726,-11,91,177,80,139,74,265,0,-61,-428
108190,321,230,522,128,-12,789,274,521,96,75,332,108,173,2,233,402,275,-131,-73,-97,95,-593,31,122,193,66,106,110,274,-3,-80,-426
108191,352,266,543,169,7,813,295,560,128,92,369,119,187,1,251,396,290,-116,-61,-88,121,-593,-32,104,203,82,164,-45,228,-37,-98,-408
108192,338,269,533,148,-20,816,296,538,118,101,366,108,148,-19,237,387,288,-137,-73,-95,102,-649,-60,86,175,67,201,-74,216,-47,-93,-489
108193,334,258,508,120,-5,822,293,534,112,89,351,89,141,1,249,394,275,-124,-75,-81,117,-663,-13,129,175,94,159,101,302,20,-52,-468
108194,342,248,481,124,0,812,270,527,123,94,338,76,146,-18,243,354,245,-125,-83,-91,83,-716,-3,117,186,56,129,146,334,39,-25,-409
108195,347,264,504,140,7,815,286,530,126,110,342,66,142,-8,250,342,210,-128,-61,-82,105,-767,0,117,185,59,187,88,310,-4,-93,-482
108196,333,261,518,138,-12,813,296,525,123,97,346,77,166,0,264,119,182,-143,-76,-68,112,-680,-57,81,172,34,120,-105,152,-131,-205,-487
108197,318,230,527,144,-22,817,263,523,116,87,353,94,165,17,271,-64,230,-131,-55,-57,74,-628,-12,89,182,21,25,-109,158,-108,-172,-495
108198,332,234,532,145,-30,804,255,520,118,97,331,77,163,15,260,192,263,-123,-62,-87,96,-723,39,110,185,23,44,-85,162,-112,-172,-535
108199,330,227,528,163,-24,805,249,522,138,107,330,81,175,18,257,391,242,-133,-41,-54,123,-779,0,108,195,46,47,-39,168,-97,-165,-490
108200,297,205,527,135,-21,782,219,517,138,90,311,52,165,39,247,319,212,-146,-14,-51,112,-696,-61,115,203,45,43,6,161,-89,-170,-472
108201,280,187,487,127,-18,754,176,531,116,90,272,37,182,44,243,155,191,-157,-33,-58,66,-731,-26,108,190,31,-17,3,179,-102,-163,-484
108202,281,181,436,131,-22,764,149,523,126,100,272,40,174,24,249,57,176,-159,-37,-61,49,-738,-26,95,192,15,-78,-34,133,-150,-229,-571
108203,287,175,440,129,-36,735,144,503,129,87,264,31,181,34,233,52,158,-150,-27,-61,41,-806,-42,98,189,8,-50,-70,131,-158,-247,-582
108204,293,163,463,143,-54,720,109,478,120,76,226,11,171,34,228,-63,115,-165,-39,-82,17,-937,-85,95,190,-10,-30,-35,163,-133,-254,-593
108205,296,152,475,143,-31,712,118,477,129,53,221,5,150,24,207,96,105,-205,-55,-99,4,-906,-149,47,170,-39,-12,-212,57,-237,-351,-715
108206,304,145,458,139,-27,739,105,484,136,72,214,-27,163,18,201,268,65,-210,-43,-97,14,-984,-198,34,179,-23,-22,-301,28,-268,-354,-787
108207,314,140,460,157,-50,745,56,492,120,70,203,-20,179,13,191,108,88,-208,-45,-74,5,-907,-186,48,197,-13,-80,-200,38,-252,-331,-684
108208,284,96,447,151,-44,695,-25,478,128,63,172,-5,190,25,188,-15,146,-182,-49,-58,-47,-786,-123,82,206,-19,-147,-110,95,-199,-332,-648
108209,246,34,376,141,-57,666,-126,495,144,64,119,2,213,49,182,60,104,-149,-9,-37,-59,-897,-69,120,223,22,-128,-49,173,-129,-288,-634
108210,216,-38,354,134,-80,625,-184,493,129,40,86,0,207,36,175,181,50,-148,-21,-44,-46,-940,-90,98,225,20,-65,-118,149,-176,-315,-699
108211,191,-51,417,156,-81,631,-99,492,151,48,118,18,223,65,211,187,127,-120,-4,-26,2,-862,-62,124,248,70,75,-136,165,-120,-249,-687
108212,201,11,465,117,-78,666,83,492,141,46,207,29,217,41,218,124,143,-133,-8,-37,24,-809,-35,116,247,62,1,-105,208,-92,-248,-670
108213,327,186,545,130,-65,724,242,522,121,60,271,41,203,9,229,281,182,-118,-29,-72,20,-839,-27,112,231,32,-59,90,302,-69,-255,-694
108214,312,180,534,132,-65,737,251,517,141,70,273,39,205,18,221,499,256,-97,-20,-52,51,-867,-4,159,241,40,-63,308,412,16,-214,-695
108215,261,130,484,119,-82,717,207,499,124,65,269,12,191,26,235,473,139,-128,-17,-40,58,-898,-31,142,249,45,-78,134,346,-24,-244,-648
108216,215,95,457,128,-96,719,216,491,117,51,291,23,190,25,264,340,174,-128,-39,-43,55,-791,-55,122,245,49,-68,-26,300,-67,-247,-619
108217,257,131,502,161,-69,747,297,541,140,78,333,84,217,38,282,200,261,-117,-24,-14,60,-674,-52,120,241,82,-16,-154,224,-88,-234,-593
108218,260,125,494,163,-74,743,329,541,131,81,334,54,202,26,264,224,278,-101,-19,-44,68,-670,-2,122,218,75,0,-45,242,-94,-259,-582
108219,221,102,456,132,-91,733,280,528,115,53,300,34,190,35,248,348,217,-98,-21,-32,78,-703,61,146,238,86,42,110,348,-40,-222,-564
108220,172,66,443,110,-101,729,253,514,116,66,312,71,193,48,253,384,203,-93,-24,-25,107,-710,46,162,261,109,96,62,360,-21,-186,-522
108221,145,37,427,86,-122,717,269,495,109,79,354,75,177,52,278,407,219,-116,-25,-11,124,-663,-44,125,238,103,138,-104,232,-84,-201,-466
108222,152,55,404,84,-111,706,288,478,106,67,342,40,159,49,270,428,189,-143,-39,-4,127,-680,-53,95,209,105,129,-156,206,-80,-202,-517
108223,169,38,406,63,-108,705,287,479,95,62,333,55,163,55,275,411,253,-128,-24,-13,138,-698,-32,118,204,102,100,-77,237,-76,-203,-555
108224,147,18,403,60,-117,702,268,484,105,66,339,73,175,78,286,409,353,-113,-21,-8,141,-684,34,115,233,112,103,67,306,-43,-159,-513
108225,147,56,407,68,-108,719,304,491,115,77,358,85,167,87,314,427,381,-111,-18,8,165,-648,74,126,248,139,143,135,328,-2,-122,-462
108226,149,29,416,82,-117,708,316,495,100,57,360,87,153,75,311,428,354,-114,-43,0,181,-620,24,108,212,134,174,9,266,-34,-140,-433
108227,144,33,391,91,-129,696,294,473,103,51,359,76,159,75,300,456,349,-133,-54,-5,170,-626,-17,74,215,129,217,-89,204,-65,-161,-486
108228,131,14,388,81,-119,697,268,486,116,53,347,65,153,80,294,320,378,-142,-40,-11,176,-648,53,98,235,116,194,0,264,-48,-117,-492
108229,153,19,401,90,-129,699,255,474,117,44,335,50,138,73,287,142,385,-133,-49,-23,162,-675,58,90,229,120,108,30,254,-32,-121,-455
108230,146,34,382,86,-130,688,278,460,95,33,333,41,133,55,282,395,375,-131,-76,-42,140,-751,17,58,194,115,100,80,254,-42,-117,-421
108231,164,54,379,90,-107,703,281,471,114,48,332,45,127,30,264,591,379,-138,-86,-54,103,-826,34,50,170,83,106,105,242,-74,-127,-435
108232,126,7,333,99,-111,698,252,469,105,47,322,49,103,21,244,515,323,-176,-102,-63,99,-926,13,28,158,60,104,124,247,-81,-163,-479
108233,95,-22,300,84,-138,676,216,476,87,39,324,53,103,20,244,453,188,-182,-84,-77,109,-740,12,43,154,65,112,157,270,-55,-126,-474
108234,89,-3,273,65,-123,681,234,468,111,43,323,69,119,32,259,471,203,-166,-68,-60,131,-576,22,68,195,92,98,180,301,-26,-95,-473
108235,135,43,306,90,-109,693,281,486,119,42,332,104,127,37,260,487,277,-153,-57,-44,151,-543,50,92,204,128,122,199,325,-3,-66,-473
108236,174,57,353,97,-84,695,287,454,121,39,357,90,116,12,267,359,313,-162,-80,-57,180,-585,36,84,173,134,225,112,261,-15,-59,-449
108237,195,75,381,96,-88,696,309,452,98,49,359,62,119,5,297,-46,259,-187,-84,-43,212,-642,-47,54,174,124,294,-25,172,-64,-91,-414
108238,177,72,406,104,-77,710,286,461,108,61,382,72,125,17,308,-39,340,-195,-75,-40,262,-653,-52,50,197,165,351,-8,205,-24,-65,-453
108239,144,87,397,92,-73,719,306,433,100,62,369,61,103,33,311,324,335,-176,-43,-29,232,-599,-8,79,206,184,254,129,281,27,-6,-462
108240,134,79,343,52,-87,689,277,422,86,52,319,20,96,35,287,397,284,-174,-62,-35,206,-537,-2,69,203,154,167,124,287,29,15,-423
108241,171,78,335,66,-86,702,293,421,96,47,333,-8,124,58,283,291,298,-164,-65,-31,197,-553,-19,58,203,151,169,68,274,43,2,-293
108242,199,104,340,66,-99,707,319,412,102,65,357,19,108,59,281,285,292,-180,-46,-31,142,-569,-31,45,187,126,162,-27,227,14,-53,-268
108243,223,107,374,60,-83,723,324,438,117,81,382,96,118,77,295,436,322,-162,-33,-12,114,-714,36,82,229,138,116,-24,281,27,-6,-283
108244,195,100,363,81,-72,723,315,436,117,79,366,109,137,90,298,452,284,-150,-19,4,131,-746,5,106,246,143,157,33,312,46,7,-270
108245,166,61,342,67,-108,697,308,416,108,32,336,87,106,53,240,355,279,-163,-54,-38,71,-633,0,84,204,114,145,58,307,17,-17,-309
108246,157,88,347,42,-128,705,321,426,97,31,331,71,114,36,252,420,322,-167,-42,-42,87,-569,27,107,195,116,148,126,323,21,-12,-328
108247,159,110,343,73,-106,730,350,459,117,62,359,88,157,42,281,379,414,-123,-26,-32,113,-520,45,153,241,145,206,254,390,60,4,-275
108248,185,116,339,89,-101,721,350,472,119,75,369,93,144,45,266,362,444,-122,-29,-35,88,-558,62,152,246,130,175,260,398,61,9,-295
108249,184,132,357,94,-105,721,342,445,116,55,358,79,131,49,266,391,419,-134,-27,-42,90,-609,36,158,241,113,146,161,345,26,-7,-305
108250,166,99,346,42,-107,724,320,424,94,57,326,67,121,46,246,396,354,-130,-45,-33,73,-648,37,151,241,114,199,174,349,15,-6,-339
108251,160,98,337,67,-86,716,315,430,116,68,351,56,145,54,247,459,281,-119,-34,-8,84,-630,55,167,271,155,285,201,374,61,-14,-362
108252,182,111,362,79,-68,723,321,434,105,59,352,43,139,43,259,457,247,-147,-18,-24,109,-608,54,167,276,135,258,176,372,55,-26,-368
108253,177,112,361,86,-101,727,307,435,105,46,318,34,118,5,235,423,270,-166,-50,-55,73,-653,0,125,239,95,101,-15,240,-39,-105,-337
108254,209,129,402,114,-75,749,309,455,126,69,344,41,139,25,243,419,328,-185,-46,-46,87,-728,-83,101,232,92,55,-117,152,-100,-117,-393
108255,222,96,413,91,-64,740,296,469,139,51,317,56,150,27,232,268,287,-177,-54,-54,22,-808,-45,115,242,64,13,35,238,-56,-105,-417
108256,200,98,413,101,-67,752,287,479,141,55,308,46,170,41,229,6,249,-165,-29,-49,11,-774,9,133,255,45,16,122,304,-55,-110,-396
108257,199,137,407,103,-76,752,294,460,123,74,351,39,166,39,247,182,316,-148,-41,-62,48,-761,22,142,249,45,39,261,359,-20,-112,-449
108258,147,106,370,65,-101,743,280,460,109,51,324,61,148,31,233,372,344,-131,-37,-48,66,-686,107,172,260,47,40,459,442,33,-72,-448
108259,157,113,347,64,-80,727,285,463,110,50,302,35,154,23,212,411,274,-146,-36,-33,72,-638,88,161,252,68,59,339,397,26,-59,-411
108260,206,134,382,108,-64,727,280,465,120,49,312,35,132,11,208,450,282,-156,-38,-71,59,-640,60,146,262,61,135,171,370,-1,-61,-446
108261,233,167,408,115,-58,734,289,467,115,50,298,36,126,12,197,402,247,-175,-58,-81,33,-701,-17,133,269,47,189,72,298,-18,-97,-475
108262,265,183,418,127,-50,721,302,463,107,40,278,11,133,9,194,191,253,-207,-58,-73,20,-794,-66,112,249,44,90,-15,267,-16,-76,-380
108263,282,194,427,112,-42,737,274,441,123,52,294,8,136,14,222,-59,291,-188,-28,-45,24,-811,-25,136,269,76,45,-27,322,22,-28,-346
108264,252,191,390,101,-41,726,278,437,104,55,314,4,124,25,239,-29,277,-187,-25,-31,63,-699,-65,147,298,110,60,-36,309,25,0,-356
108265,257,179,369,113,-46,719,310,458,100,65,320,28,142,24,238,239,363,-166,-16,-23,83,-624,-20,168,291,110,53,-2,337,39,-28,-450
108266,246,182,382,112,-32,714,312,478,120,62,285,26,153,18,235,306,334,-166,-19,-29,70,-655,-17,155,287,81,33,18,355,17,-68,-514
108267,242,161,358,123,-36,699,273,471,126,42,271,-5,151,6,243,137,323,-168,-12,-12,40,-689,-23,157,299,113,78,34,369,38,-14,-420
108268,280,170,384,126,-32,711,285,463,116,32,292,-19,145,0,232,106,290,-155,-42,-12,19,-683,-48,163,277,111,89,44,376,60,-24,-383
108269,270,173,430,143,-43,720,305,469,116,30,316,-16,136,-6,235,201,257,-152,-45,-20,45,-706,-45,140,264,114,93,68,373,46,-22,-391
108270,244,157,384,122,-38,725,303,454,113,32,314,-14,115,-1,251,180,246,-157,-45,-30,41,-713,-50,142,264,117,90,55,366,25,-17,-411
108271,244,168,379,143,-8,735,304,459,137,41,319,33,124,8,275,282,269,-139,-27,-6,90,-758,15,173,280,149,128,145,416,51,-5,-415
108272,251,165,395,131,-25,725,284,456,135,38,302,54,131,0,268,381,300,-139,-32,4,108,-764,61,185,275,148,135,238,468,67,8,-416
108273,215,137,359,101,-43,717,263,413,89,30,283,8,112,-9,236,376,264,-160,-63,-23,84,-734,29,154,261,130,158,200,424,30,-41,-436
108274,227,132,371,106,-43,708,256,408,113,23,284,-4,115,-12,239,337,269,-192,-59,-20,91,-723,-17,149,255,144,208,174,365,5,-51,-397
108275,220,140,380,92,-38,704,285,418,120,32,291,7,106,5,251,340,290,-163,-51,-16,109,-739,-18,145,258,150,253,69,340,-17,-45,-391
108276,202,111,366,93,-38,712,284,421,110,45,295,12,103,1,262,345,288,-175,-50,-16,105,-757,-36,122,258,147,235,-33,272,-68,-83,-409
108277,194,110,342,88,-61,726,272,393,101,49,307,-5,96,-13,257,308,204,-195,-75,-16,114,-674,-50,104,238,152,213,0,238,-81,-90,-357
108278,189,93,336,104,-58,719,242,426,102,49,281,15,114,-27,243,163,190,-161,-68,-30,76,-748,-4,128,233,150,155,78,263,-76,-86,-467
108279,205,92,344,137,-42,726,243,459,140,63,298,57,138,3,254,150,227,-110,-31,-10,100,-809,39,159,260,152,159,142,321,-57,-84,-493
108280,189,54,338,128,-56,720,233,439,135,42,290,53,139,13,252,203,200,-106,-37,-23,114,-775,53,177,263,150,180,158,335,-29,-93,-436
108281,196,41,334,92,-73,715,228,411,113,35,286,14,119,11,241,259,189,-163,-53,-45,104,-883,-38,143,244,131,274,2,248,-93,-144,-453
108282,194,78,317,85,-88,713,236,414,112,49,293,-7,114,8,250,228,192,-182,-51,-26,102,-979,-81,125,240,132,326,-80,224,-107,-126,-457
108283,175,61,296,56,-93,685,223,405,113,43,296,-3,100,5,248,133,220,-180,-38,-31,62,-780,-67,140,259,122,199,-75,226,-92,-137,-474
108284,172,58,314,47,-109,678,194,395,106,54,270,-11,112,14,227,157,185,-175,-29,-26,36,-685,-46,171,271,122,84,-14,238,-91,-132,-439
108285,159,37,315,63,-113,668,163,405,104,49,240,-1,144,37,212,185,181,-132,1,-19,25,-743,-9,198,293,129,74,122,283,-54,-135,-400
108286,136,18,269,41,-130,662,159,394,101,19,240,-12,141,37,223,-12,201,-114,0,-16,34,-863,-13,186,302,122,141,69,229,-86,-187,-494
108287,133,34,263,25,-130,683,197,399,97,35,267,-13,133,30,244,-147,174,-124,-7,4,58,-857,-14,193,312,126,184,-34,218,-96,-182,-551
108288,140,44,280,44,-127,673,189,404,105,33,259,0,118,59,231,157,201,-159,-14,-22,64,-769,-61,158,284,109,69,-155,157,-135,-215,-532
108289,153,41,282,66,-106,663,173,382,121,42,239,4,118,71,217,378,224,-149,-2,-7,56,-775,-70,153,296,106,0,-180,142,-133,-213,-573
108290,160,60,301,65,-82,668,172,390,120,51,238,-22,109,54,213,315,182,-163,-19,-8,33,-860,-63,132,297,79,-65,-118,135,-153,-231,-596
108291,151,48,298,40,-92,660,172,390,91,45,223,-51,91,41,209,289,163,-170,-28,-26,45,-905,-85,124,286,74,-31,-137,120,-155,-253,-587
108292,156,57,305,45,-95,657,176,386,104,38,214,-25,95,47,193,231,194,-184,-43,-34,56,-885,-81,123,288,76,-7,-138,131,-149,-237,-584
108293,176,77,331,53,-78,676,215,367,100,47,240,-20,90,53,197,125,241,-194,-32,-27,60,-827,-100,111,282,78,-13,-144,124,-136,-225,-615
108294,195,123,377,89,-50,700,241,405,128,66,274,2,131,67,208,168,220,-160,-10,-15,19,-778,-110,123,299,89,18,-105,158,-100,-201,-570
108295,177,103,336,76,-85,688,212,411,117,50,251,-19,120,37,179,253,169,-178,-29,-53,-38,-790,-108,104,271,70,-1,-71,141,-110,-237,-550
108296,191,108,326,76,-83,693,230,413,99,21,254,-32,116,41,173,233,160,-184,-33,-62,-8,-771,-55,134,258,66,19,-71,143,-129,-236,-543
108297,184,107,381,95,-66,716,242,448,124,49,278,20,122,33,193,148,214,-154,-23,-38,47,-794,-11,161,294,76,144,-31,176,-93,-182,-563
108298,179,111,379,105,-71,730,214,458,121,38,273,45,137,24,198,115,244,-142,-34,-37,57,-904,-36,158,304,95,166,-37,200,-83,-175,-582
108299,190,127,341,111,-63,709,218,432,115,18,278,18,139,40,205,218,183,-160,-31,-34,42,-939,-77,149,274,78,35,-41,201,-90,-213,-598
108300,172,133,314,117,-66,712,232,431,108,23,289,24,120,38,199,305,146,-171,-19,-59,24,-849,-80,136,257,28,-96,-8,187,-88,-236,-544
108301,181,123,316,100,-57,734,257,419,124,47,292,4,120,53,208,359,110,-172,-6,-43,19,-744,-119,146,277,44,-78,67,244,-63,-195,-509
108302,157,94,319,97,-62,696,233,416,120,24,252,0,98,50,182,279,109,-203,-35,-56,-13,-714,-172,109,265,32,-49,-67,182,-119,-236,-566
108303,146,75,284,91,-84,667,210,425,113,14,235,11,97,34,190,213,136,-194,-22,-41,-15,-801,-128,123,277,41,-22,-51,159,-122,-221,-538
108304,145,78,311,73,-86,676,215,426,116,32,269,7,112,70,198,112,69,-201,-17,-23,19,-818,-145,137,296,65,12,-90,189,-99,-195,-534
108305,162,76,346,95,-77,700,243,421,122,28,284,-3,110,61,223,45,130,-210,-2,-12,37,-778,-149,118,311,83,36,-101,180,-79,-214,-562
108306,121,49,316,61,-86,669,238,388,101,35,290,-38,92,55,231,231,153,-236,-24,-6,65,-854,-165,119,307,103,89,-22,227,-66,-206,-576
108307,98,32,303,46,-106,663,228,378,89,32,263,-39,77,58,218,313,142,-223,-40,-3,48,-859,-134,128,295,91,63,98,283,-23,-202,-611
108308,110,56,308,94,-80,691,227,399,125,62,286,1,96,80,228,270,146,-219,-16,14,56,-728,-120,120,307,104,40,102,255,-19,-172,-579
108309,129,53,294,80,-92,682,223,403,113,54,273,-1,88,60,217,240,160,-219,-32,-9,49,-736,-152,77,285,100,52,-112,121,-120,-197,-557
108310,115,-3,265,66,-128,648,183,390,91,25,219,-42,68,43,172,150,110,-241,-47,-55,0,-834,-179,35,252,42,58,-234,87,-159,-244,-620
108311,164,17,290,78,-105,674,175,395,101,37,229,-31,93,57,190,-98,143,-220,-35,-39,26,-932,-121,68,267,77,125,-191,131,-110,-203,-603
108312,180,35,292,74,-101,690,213,409,99,37,277,-22,89,57,211,-220,164,-217,-43,-22,95,-902,-112,78,277,122,179,-176,176,-69,-134,-613
108313,172,25,283,83,-88,695,233,431,98,42,293,-9,98,55,225,52,184,-226,-51,-19,90,-753,-158,79,276,124,97,-236,130,-75,-135,-611
108314,183,75,335,102,-70,704,251,466,126,63,291,53,125,66,255,244,254,-154,-10,6,98,-649,-38,132,329,158,122,-101,226,7,-70,-516
108315,231,97,346,113,-92,713,285,450,125,59,333,47,135,76,275,202,261,-128,-5,28,108,-631,3,153,354,163,103,-46,288,35,-66,-468
108316,251,101,361,137,-102,722,300,462,106,61,345,51,130,90,297,205,311,-127,15,47,162,-641,-20,166,350,193,107,-8,300,67,-37,-476
108317,232,107,368,133,-94,713,326,508,105,65,350,20,143,91,282,168,304,-139,34,63,208,-591,-26,166,351,206,102,33,340,113,-11,-419
