,Fp1,Fp2,F7,F3,Fz,F4,F8,FC5,FC1,FC2,FC6,T7,C3,Cz,C4,T8,TP9,CP5,CP1,CP2,CP6,TP10,P7,P3,Pz,P4,P8,PO9,O1,Oz,O2,PO10
248516,-1,241,640,-28,-204,523,574,560,63,0,614,-38,348,143,196,55,101,-116,217,194,269,366,340,164,278,321,425,-34,377,170,72,214
248517,8,282,586,-35,-215,537,568,574,70,-12,585,-87,351,125,189,86,7,-131,213,187,257,328,316,153,266,288,417,-61,349,143,33,122
248518,63,330,575,-26,-231,507,513,573,48,-21,558,-80,349,117,189,144,36,-150,191,172,244,287,288,135,250,257,360,-41,325,114,-2,75
248519,82,343,551,-13,-228,506,508,573,50,-20,564,-50,324,102,185,135,114,-162,177,159,221,195,279,121,245,255,284,-61,288,75,-25,71
248520,142,413,580,5,-198,533,585,630,61,-9,583,10,333,115,183,87,137,-151,207,171,234,112,287,128,242,283,351,-142,287,89,-4,145
248521,175,427,607,27,-196,557,593,642,56,-18,572,30,367,115,182,7,112,-127,221,176,256,322,336,154,267,284,408,-60,310,120,24,197
248522,221,455,656,41,-195,539,598,635,59,-32,575,-12,356,105,199,-77,100,-129,209,186,287,436,327,146,261,299,438,-43,296,106,21,216
248523,229,517,706,33,-192,562,667,641,75,-22,593,-82,349,102,217,-92,81,-129,210,204,282,240,322,146,260,308,442,-18,304,108,-4,196
248524,268,563,735,29,-180,588,720,612,70,-8,619,-42,326,93,216,-60,57,-136,192,193,272,109,335,145,247,290,421,77,338,117,14,184
248525,358,634,775,59,-139,604,770,614,60,-14,632,1,329,103,201,88,63,-139,192,184,281,134,353,153,238,278,389,101,360,127,8,162
248526,397,656,790,88,-135,635,775,632,53,-10,650,23,344,100,207,157,80,-131,205,189,294,329,387,174,265,293,376,75,394,163,6,173
248527,400,672,794,76,-142,648,755,645,65,-21,644,145,347,86,176,131,170,-94,218,183,289,407,442,206,270,288,400,104,400,196,35,202
248528,448,755,827,68,-127,675,817,638,54,4,681,82,340,78,181,118,163,-77,198,168,288,350,429,175,259,242,393,22,365,179,35,161
248529,542,843,866,90,-111,687,828,641,59,-14,680,21,340,69,177,78,176,-70,177,141,289,166,411,162,218,237,396,57,355,137,21,132
248530,607,903,828,101,-98,687,834,651,66,-4,673,46,350,87,197,99,242,-46,193,161,299,167,459,204,230,269,440,304,416,188,76,194
248531,651,905,819,109,-93,705,836,671,71,10,662,80,351,102,234,73,257,-74,206,160,303,420,513,207,245,273,441,352,475,249,98,207
248532,669,993,823,105,-78,748,882,642,48,31,699,74,322,83,186,-235,194,-109,158,126,259,471,417,137,207,235,389,82,383,193,53,184
248533,680,1039,842,82,-71,750,915,598,31,29,715,21,283,79,179,-389,88,-158,122,96,239,443,333,112,159,207,364,-135,322,142,32,146
248534,737,1076,856,93,-40,768,924,593,38,22,733,17,284,71,167,-241,77,-166,145,91,241,388,331,115,163,199,340,-138,328,119,3,46
248535,759,1080,874,107,-41,765,834,586,39,10,683,8,284,69,164,-90,6,-154,107,80,206,297,338,96,167,206,368,-17,355,153,48,98
248536,773,1086,888,87,-56,735,829,572,33,-1,672,14,241,47,136,66,-49,-196,68,58,197,222,324,72,123,180,358,-32,340,160,38,86
248537,832,1132,893,129,-28,753,857,592,38,4,691,21,246,37,150,-132,16,-196,76,64,196,50,326,47,122,185,362,-77,301,110,26,58
248538,863,1181,888,143,-5,744,866,609,59,24,679,0,251,32,154,-204,67,-205,69,42,194,51,326,26,112,178,353,-149,264,68,-1,49
248539,894,1180,916,152,-12,737,859,600,51,21,632,-39,236,34,115,28,85,-206,59,23,185,224,350,39,96,166,326,-134,273,100,0,59
248540,934,1212,912,166,-14,729,841,590,44,-4,609,-47,221,11,110,162,26,-212,50,25,187,283,335,55,99,191,325,-122,292,118,50,78
248541,946,1247,906,174,1,744,847,596,48,-6,621,-49,225,3,107,65,-37,-210,63,47,200,279,290,61,116,206,319,-87,317,137,72,140
248542,946,1277,968,196,7,745,872,630,61,0,606,-34,255,-1,96,-2,-33,-195,62,42,203,155,298,50,131,197,322,-118,313,119,37,126
248543,969,1313,952,198,10,741,883,666,65,-7,612,-17,268,6,99,2,-106,-196,75,54,182,60,301,61,140,191,309,13,356,134,33,115
248544,947,1299,924,209,14,764,899,704,69,-14,634,26,275,13,127,-98,-78,-189,86,49,206,240,314,73,135,199,325,101,384,160,50,103
248545,960,1265,935,205,28,743,894,701,76,0,637,50,281,21,147,-123,8,-183,106,66,215,381,308,85,140,218,326,-23,368,143,58,92
248546,990,1339,938,180,-2,730,882,658,50,-31,637,-17,280,1,119,-106,19,-198,82,53,139,244,300,71,123,180,297,-72,363,125,11,97
248547,1037,1350,955,182,-5,821,934,676,57,3,686,-44,296,21,139,40,53,-184,97,71,143,71,325,95,127,172,254,-39,355,114,-29,53
248548,1036,1314,967,172,-2,834,964,643,60,21,721,-52,277,18,168,171,46,-178,98,87,201,-18,348,74,138,166,193,-59,325,69,-46,-9
248549,1023,1323,939,162,-2,796,941,615,55,13,712,-36,279,32,175,-78,-12,-178,88,87,223,125,360,69,133,164,202,-34,312,74,-54,-28
248550,1010,1299,954,163,-18,766,886,630,41,8,690,-41,263,19,148,-361,-22,-194,69,71,169,70,328,50,118,173,329,-63,274,72,-51,29
248551,987,1294,920,150,-24,794,888,596,25,6,697,-41,229,-11,136,-146,54,-233,48,60,181,32,289,26,74,141,348,-100,248,40,-79,80
248552,931,1284,872,140,-29,801,863,604,37,0,669,-84,223,-12,115,24,28,-247,44,33,158,193,281,25,67,131,336,-90,251,35,-87,53
248553,925,1284,868,127,-5,798,839,639,25,-7,643,-91,250,-6,99,63,17,-249,44,23,128,239,283,16,59,125,356,-56,245,30,-84,81
248554,918,1259,890,132,0,785,849,628,34,5,632,-90,257,0,112,40,51,-225,60,30,155,231,295,37,44,133,355,-52,251,37,-85,138
248555,908,1255,894,147,11,790,878,601,32,23,632,-86,246,14,117,41,74,-212,80,36,172,137,317,41,97,142,326,-34,263,36,-91,34
248556,874,1217,882,107,-24,783,844,562,20,18,644,-90,231,17,147,13,47,-239,68,39,197,169,319,27,102,143,313,-59,253,44,-88,-6
248557,855,1201,870,86,-36,782,867,538,16,4,655,-99,217,-4,157,110,2,-274,55,52,237,281,265,-3,86,150,255,-92,224,36,-81,-24
248558,868,1193,858,85,-35,794,891,561,20,-2,658,-57,233,28,154,105,-60,-222,70,83,210,65,242,8,137,178,266,-39,270,83,-33,66
248559,864,1187,857,85,-37,750,871,554,26,0,644,-61,243,13,126,19,-103,-245,75,84,174,-12,229,17,125,179,275,-66,265,90,-19,100
248560,862,1207,853,120,-10,734,844,588,54,0,642,-32,260,30,148,-154,-49,-225,120,101,191,290,267,59,158,230,378,-96,278,121,28,156
248561,826,1168,840,124,-32,730,841,580,52,-7,656,-43,262,40,157,-144,-1,-209,127,127,209,438,270,87,195,264,398,-83,306,166,66,174
248562,799,1102,850,96,-32,743,816,576,58,-9,648,-40,258,35,154,-38,53,-206,130,128,193,398,291,100,212,263,380,-46,334,195,101,181
248563,826,1097,889,120,-24,772,809,590,60,6,669,-28,264,32,170,63,89,-187,136,124,224,371,338,123,212,283,417,-11,380,216,128,206
248564,817,1102,880,143,-18,802,836,607,56,8,694,-41,256,30,196,198,65,-171,144,143,294,395,340,126,217,326,473,28,379,204,139,231
248565,801,1083,840,155,-1,803,857,614,78,21,705,-18,276,39,219,225,44,-171,143,168,335,398,321,119,220,345,482,51,364,188,122,254
248566,764,1060,837,152,-25,779,830,636,44,-1,694,5,279,46,212,180,16,-168,126,156,355,341,317,114,220,328,470,71,349,189,91,226
248567,736,1018,847,149,-21,766,828,653,53,9,703,4,306,66,223,189,53,-138,165,182,385,357,365,129,259,358,489,145,405,212,117,229
248568,730,974,859,146,-12,767,785,667,91,17,712,-1,319,60,253,173,53,-137,178,204,420,302,366,130,251,381,508,109,387,205,134,225
248569,694,909,841,109,-45,734,730,617,57,16,677,-12,281,42,251,-14,6,-177,124,180,408,221,321,74,207,325,431,-71,281,106,57,147
248570,682,898,853,103,-51,720,750,605,76,18,677,-27,296,78,256,-208,14,-162,135,181,440,225,313,89,194,315,471,-113,260,68,18,155
248571,650,881,828,95,-52,693,715,575,59,-10,653,18,274,36,249,-283,-139,-188,91,176,411,237,204,51,172,287,478,-208,157,5,-47,120
248572,632,848,822,86,-57,698,700,584,54,-17,663,51,261,35,252,-291,-121,-176,107,184,363,322,193,52,172,302,468,-141,197,44,3,149
248573,613,843,777,72,-60,703,692,576,45,-10,637,-7,255,38,266,6,-12,-184,117,177,348,219,201,43,182,300,458,-133,195,47,10,164
248574,596,830,742,67,-53,693,644,581,57,0,615,-35,270,55,243,282,117,-171,131,188,328,60,270,67,198,298,427,-52,254,80,51,154
248575,550,818,708,72,-61,704,658,577,53,12,617,-132,262,47,249,266,151,-176,131,188,331,100,309,75,184,313,413,-82,273,88,26,138
248576,568,805,759,74,-46,705,648,578,46,20,636,-126,265,57,274,164,142,-174,124,199,333,281,291,72,201,338,421,-128,243,83,44,150
248577,549,768,769,63,-55,694,633,564,53,15,621,-60,256,62,250,67,98,-177,125,188,323,229,282,99,219,361,438,-52,291,119,50,153
248578,545,756,780,87,-60,703,681,584,67,42,651,-12,280,71,243,-86,122,-116,157,193,339,60,368,130,220,338,448,52,358,144,76,187
248579,498,716,719,55,-86,652,632,591,26,28,630,-13,275,58,253,-212,24,-136,130,168,344,140,367,133,208,303,408,-2,337,111,32,133
248580,464,708,663,45,-94,617,613,609,45,12,637,3,289,47,262,-138,25,-113,133,167,359,221,358,136,196,304,432,-30,349,119,19,68
248581,462,697,679,47,-88,642,634,593,38,7,654,6,293,48,253,38,94,-119,145,168,325,400,333,131,186,289,418,17,379,127,3,121
248582,464,692,734,76,-58,657,662,603,56,24,654,30,310,64,263,200,132,-123,158,171,327,490,349,159,196,297,442,32,381,137,12,224
248583,448,633,735,51,-85,637,658,614,46,28,633,23,308,46,244,228,185,-98,153,150,329,399,360,151,209,291,402,72,391,145,28,197
248584,416,642,720,36,-87,650,647,598,21,15,635,0,302,41,253,289,134,-92,159,168,347,390,386,165,215,292,373,163,454,182,41,147
248585,417,621,724,31,-105,639,646,571,32,1,638,5,309,55,229,261,58,-80,152,172,326,224,418,181,208,281,386,300,535,228,62,108
248586,399,601,724,36,-112,635,632,582,46,9,644,17,307,74,231,233,57,-70,173,179,308,133,452,198,232,306,411,355,533,240,90,171
248587,384,567,714,46,-103,614,569,575,44,13,559,20,318,81,239,280,106,-55,187,188,327,289,452,216,244,314,412,224,483,217,38,168
248588,373,577,723,63,-98,605,580,613,56,8,551,83,334,90,235,221,211,-22,186,173,325,326,436,192,238,290,403,28,453,207,60,148
248589,323,547,724,47,-124,583,525,616,60,-6,559,102,327,73,211,109,211,-62,178,160,274,313,444,191,203,276,363,38,476,227,87,154
248590,310,543,791,75,-136,584,500,654,71,1,568,118,324,77,212,23,137,-59,178,151,267,302,460,190,199,271,309,135,475,206,86,131
248591,278,547,765,61,-121,529,513,648,65,-7,572,132,332,67,198,-82,151,-71,171,139,237,126,436,187,205,271,334,87,454,224,111,199
248592,274,539,727,69,-117,493,499,672,76,2,559,93,339,70,195,-24,199,-61,195,153,263,225,395,191,216,285,409,-55,434,218,137,235
248593,347,551,758,66,-92,589,523,699,97,24,574,87,367,104,231,50,166,-33,203,183,317,402,425,188,242,334,480,30,463,257,167,194
248594,358,489,760,43,-110,565,523,642,76,-1,576,72,335,73,213,-115,73,-68,192,183,322,422,422,150,227,309,399,49,428,251,172,155
248595,397,499,792,48,-111,560,537,646,66,20,578,91,351,72,198,-175,163,-65,207,188,283,316,424,176,228,333,388,116,477,275,210,228
248596,396,502,754,29,-104,577,541,634,71,24,580,77,341,85,225,45,248,-83,205,213,278,231,414,185,254,357,410,103,456,286,211,300
248597,341,464,736,20,-122,545,503,606,64,7,541,68,306,94,233,94,242,-95,187,197,279,300,398,171,251,357,462,-5,394,237,178,264
248598,315,480,737,29,-136,532,487,619,50,-3,536,81,293,89,212,55,168,-87,194,186,305,280,415,174,257,351,501,9,431,290,234,273
248599,311,503,753,60,-126,564,514,664,68,33,574,117,324,86,237,67,192,-42,210,226,356,251,445,193,275,386,492,70,460,319,248,305
248600,299,498,744,59,-130,569,515,676,58,29,581,69,317,70,246,72,154,-53,184,219,338,335,432,195,278,390,490,74,447,302,250,297
248601,326,470,746,59,-133,586,508,663,42,12,562,96,319,77,245,95,107,-57,185,215,349,458,438,208,298,410,515,150,462,316,273,327
248602,324,508,710,50,-115,602,527,660,55,1,579,95,316,79,240,104,125,-55,202,228,332,517,461,232,297,433,523,235,494,354,296,350
248603,337,531,708,35,-145,583,544,658,38,7,575,121,309,72,203,-98,162,-49,222,224,278,502,475,238,307,420,516,222,496,337,282,336
248604,345,509,724,26,-156,602,535,663,37,4,561,122,299,81,222,-438,174,-44,221,218,281,439,442,223,302,416,502,130,476,330,295,325
248605,314,474,725,12,-122,591,523,652,35,15,572,73,312,79,248,-207,174,-50,217,219,313,338,414,212,299,397,477,92,443,294,278,299
248606,318,472,750,26,-105,572,537,653,38,19,577,62,330,96,248,120,145,-55,228,225,315,338,420,233,292,374,484,96,468,293,231,287
248607,290,457,744,15,-137,563,525,635,46,14,537,50,300,79,216,75,149,-66,205,201,289,388,413,230,287,351,460,94,469,291,195,234
248608,264,429,739,22,-133,547,463,627,57,18,515,56,289,75,182,-106,196,-62,229,181,275,356,410,222,277,350,458,103,450,271,173,224
248609,266,440,739,13,-129,533,463,639,40,-1,522,48,322,64,189,-108,214,-77,235,186,286,346,425,237,282,336,435,81,459,263,161,226
248610,279,422,778,24,-132,536,437,661,48,-4,524,68,322,75,181,-14,179,-74,209,173,261,310,431,237,287,297,370,78,424,202,89,170
248611,271,379,785,26,-135,552,388,652,60,0,515,65,318,100,177,-21,159,-56,222,165,217,301,477,256,302,291,359,244,469,214,73,157
248612,251,371,773,47,-126,537,399,662,75,-10,488,78,339,114,164,-78,210,-17,234,169,202,293,508,268,308,310,352,260,510,229,101,153
248613,294,394,782,69,-122,540,389,685,75,6,475,89,360,113,164,-86,241,-27,250,189,212,296,450,244,290,308,388,119,461,220,114,192
248614,299,402,799,61,-111,527,394,688,62,9,449,97,346,93,148,-45,247,-74,226,171,228,327,383,207,245,300,412,-156,351,168,120,225
248615,305,390,788,53,-122,506,408,666,58,-26,405,67,326,55,104,6,232,-90,194,107,184,155,374,183,216,269,359,-58,372,165,111,180
248616,318,401,834,73,-135,521,416,669,67,-25,431,73,306,55,91,124,197,-108,183,99,165,55,368,172,196,231,256,62,376,112,33,88
248617,333,405,857,100,-113,533,415,693,87,-5,440,88,348,82,114,36,196,-86,182,128,204,16,409,172,203,251,309,51,378,123,64,143
248618,288,381,801,79,-115,465,403,724,76,-17,420,83,359,80,118,-143,232,-75,175,117,204,126,437,155,198,277,414,70,403,146,83,245
248619,287,369,818,93,-129,454,399,736,100,-32,407,120,354,89,134,-101,220,-44,204,118,225,399,466,174,181,281,485,149,430,172,101,272
248620,269,373,822,106,-138,481,378,739,92,-37,410,143,355,76,123,14,263,-30,198,124,229,314,479,170,170,268,484,187,435,163,87,272
248621,276,376,820,110,-132,485,406,726,78,-56,411,130,341,61,118,96,262,-61,159,106,242,265,445,141,155,247,451,171,417,133,47,275
248622,298,377,825,116,-137,515,465,724,100,-53,466,103,346,65,144,175,280,-73,157,91,271,389,416,127,138,250,409,141,385,103,38,224
248623,300,371,800,119,-129,522,418,748,97,-35,439,149,343,61,133,139,303,-81,166,97,248,350,432,136,166,237,405,143,384,109,63,207
248624,306,336,789,111,-107,532,411,757,82,-25,445,161,340,63,128,61,296,-70,155,87,211,254,475,141,158,233,419,197,381,127,36,262
248625,300,352,775,129,-112,522,433,725,75,-37,457,122,341,53,127,7,279,-98,146,68,235,254,456,119,132,232,471,159,352,77,35,277
248626,324,379,799,127,-108,511,442,723,95,-40,470,114,340,74,141,-20,284,-71,155,90,271,325,448,124,150,234,528,224,406,111,73,318
248627,327,406,791,105,-124,505,440,700,89,-44,492,89,331,46,142,5,198,-105,135,92,294,498,381,112,122,229,465,192,396,123,29,286
248628,353,440,847,125,-88,544,487,716,99,2,558,88,344,59,184,33,126,-140,160,92,340,549,341,84,123,222,423,35,303,67,6,218
248629,353,442,845,111,-76,551,506,696,86,-5,586,57,322,74,205,3,145,-142,146,96,332,430,306,76,130,206,434,21,261,38,-18,201
248630,348,428,819,112,-72,551,534,696,67,-5,582,71,300,53,190,77,137,-167,117,86,314,472,301,52,100,184,397,24,226,-8,-45,219
248631,397,471,851,158,-82,569,555,710,80,-7,594,118,293,37,158,171,93,-153,108,60,309,504,314,27,89,161,380,-50,202,-38,-75,231
248632,415,512,894,172,-89,566,545,728,87,-11,581,162,314,34,144,79,120,-122,111,31,269,465,337,31,80,161,427,-72,208,-39,-97,238
248633,381,474,871,145,-97,568,530,743,74,-14,569,143,308,27,133,-224,237,-129,99,29,208,416,357,61,88,152,442,13,230,-16,-98,223
248634,388,499,831,141,-87,615,569,769,88,-15,608,128,323,29,154,-213,303,-122,109,60,229,398,352,61,104,155,408,52,233,-41,-92,178
248635,366,467,827,143,-85,603,514,752,86,-30,598,83,336,29,163,-78,250,-97,120,57,238,363,383,76,105,167,406,33,241,-27,-92,194
248636,352,428,832,130,-91,565,444,745,76,-31,551,70,326,32,147,8,208,-69,134,50,228,338,385,96,103,158,407,46,232,-20,-91,200
248637,309,397,770,103,-109,542,446,726,75,-52,524,53,321,12,105,-96,157,-93,95,42,204,292,383,73,105,158,383,18,215,-34,-113,131
248638,285,404,775,115,-93,550,460,698,86,-50,529,51,360,29,130,-109,173,-74,108,50,221,251,419,92,124,176,373,24,236,-4,-134,97
248639,242,384,773,70,-116,517,420,672,86,-46,509,49,348,9,109,0,172,-82,103,47,186,224,416,102,107,176,331,127,301,1,-109,88
248640,243,343,748,70,-140,518,409,674,86,-51,489,82,348,3,99,90,124,-87,91,35,160,161,421,109,92,171,333,134,312,20,-82,131
248641,257,344,751,92,-125,509,399,648,74,-51,484,65,348,2,90,73,27,-95,92,6,168,182,349,82,74,138,344,-65,196,-18,-121,136
248642,218,321,718,106,-126,517,419,645,86,-45,495,24,327,-4,92,-55,46,-112,93,5,166,328,329,61,54,102,315,-74,176,-64,-150,87
248643,183,295,714,111,-128,500,402,643,81,-65,504,6,301,-1,112,-88,114,-142,77,13,160,366,317,32,35,97,295,-118,132,-117,-174,60
248644,149,255,658,59,-142,510,385,626,85,-54,508,13,296,-8,109,-14,101,-161,57,-4,132,212,313,47,37,87,266,-42,174,-83,-185,50
248645,116,219,633,37,-160,481,341,602,79,-44,506,-1,264,-24,107,-21,126,-144,55,-11,128,75,352,53,31,96,262,117,226,-31,-174,57
248646,113,219,614,31,-155,477,332,603,96,-58,471,4,288,-9,118,-251,105,-117,78,13,136,61,386,84,59,111,282,210,278,1,-131,71
248647,107,257,553,43,-163,506,359,592,74,-56,484,-18,275,-19,122,-314,-25,-136,71,5,146,241,333,70,40,95,278,-14,222,-9,-142,69
248648,86,256,550,21,-175,507,355,570,54,-53,499,-122,244,-35,107,-29,-69,-191,62,-4,128,302,275,15,34,79,247,-226,161,-45,-141,19
248649,83,238,548,3,-156,527,329,567,64,-66,481,-109,262,-10,74,123,-24,-202,53,-3,149,297,287,15,52,104,262,-155,192,-5,-127,20
248650,91,245,572,7,-167,518,350,529,47,-59,474,-66,234,-9,105,64,10,-198,44,-3,153,263,288,13,58,102,267,-97,220,-10,-110,22
248651,160,309,641,35,-139,541,390,536,68,-24,521,-33,266,22,140,-38,101,-175,77,48,195,310,338,46,86,135,302,-49,275,44,-110,68
248652,202,323,653,52,-143,536,387,561,75,-34,547,-21,277,13,146,-198,155,-159,92,86,187,294,382,79,127,172,316,39,324,98,-58,94
248653,190,292,636,29,-151,514,413,546,50,-56,563,-55,264,-3,173,-209,114,-167,103,79,217,274,357,93,151,209,311,47,357,116,-24,105
248654,241,344,678,4,-137,530,440,557,58,-29,609,-46,274,48,192,-61,110,-159,99,113,270,330,334,89,166,227,334,7,304,106,4,89
248655,253,358,680,3,-126,566,452,576,83,-4,636,-17,285,56,241,-51,114,-128,143,148,310,325,353,114,198,256,362,35,328,122,53,127
248656,221,332,631,-4,-151,528,394,556,62,-28,554,-31,274,19,233,-13,64,-139,134,132,309,217,344,129,206,272,363,89,385,165,54,122
248657,215,324,679,10,-145,569,400,579,56,-8,579,35,276,20,229,36,69,-132,158,139,340,132,359,147,214,312,396,95,413,198,70,171
248658,211,354,693,20,-148,593,448,575,51,-5,632,46,276,22,243,52,57,-129,145,148,357,201,357,157,225,317,415,33,420,211,77,188
248659,193,332,653,7,-155,586,448,585,32,-1,632,4,278,26,272,74,120,-111,153,160,387,392,395,177,243,316,431,129,447,238,108,216
248660,194,317,658,-4,-137,570,469,625,39,6,668,13,286,46,305,129,104,-100,164,169,408,421,412,213,278,321,437,213,455,274,159,221
248661,222,342,690,29,-138,566,473,651,44,20,663,52,301,63,285,99,79,-83,191,190,405,301,360,203,288,340,428,72,439,271,147,208
248662,203,339,689,21,-138,576,505,611,52,14,672,42,304,63,278,161,106,-83,194,191,397,268,377,233,286,372,457,71,485,301,182,265
248663,235,366,735,42,-120,616,531,638,81,46,702,71,347,106,293,322,196,-13,229,236,393,205,467,278,319,399,448,120,528,354,234,281
248664,223,370,718,8,-129,588,525,634,65,34,694,51,327,87,274,437,232,-14,201,209,365,222,490,264,316,359,285,151,528,331,209,171
248665,216,383,663,2,-145,593,517,668,48,36,673,97,317,65,283,335,131,-24,205,192,354,128,446,243,297,374,374,125,543,355,221,230
