,Fp1,Fp2,F7,F3,Fz,F4,F8,FC5,FC1,FC2,FC6,T7,C3,Cz,C4,T8,TP9,CP5,CP1,CP2,CP6,TP10,P7,P3,Pz,P4,P8,PO9,O1,Oz,O2,PO10
9833,430,111,634,388,424,718,190,601,209,156,477,169,388,97,544,721,396,148,309,376,153,164,788,347,317,341,487,294,215,169,361,452
9834,283,163,643,238,433,713,93,557,179,180,534,162,348,78,549,753,319,141,281,360,163,150,762,308,280,334,466,212,171,127,315,442
9835,224,340,669,193,453,648,115,575,177,181,430,91,347,89,525,809,155,187,318,377,181,300,918,328,294,347,519,176,99,71,280,315
9836,226,302,595,167,445,545,99,608,174,162,380,61,393,106,512,774,162,197,338,394,161,302,904,363,321,336,542,92,106,80,307,307
9837,220,292,592,179,441,503,70,409,152,154,489,161,366,98,508,733,306,158,310,380,126,341,464,334,314,313,387,85,102,78,300,442
9838,307,151,602,196,431,495,105,589,183,148,454,293,377,127,510,698,391,152,329,408,142,396,501,378,357,339,439,318,219,198,405,574
9839,314,-70,621,287,422,654,81,605,183,161,410,187,354,112,523,712,259,110,324,413,154,354,619,372,347,322,425,353,233,198,378,462
9840,370,40,627,364,411,652,77,655,186,144,425,106,363,102,511,766,352,157,316,399,137,304,665,369,334,316,447,327,187,135,331,466
9841,348,325,670,398,410,768,157,652,200,134,424,190,407,89,506,801,417,183,319,379,161,329,769,380,316,333,495,268,152,109,312,423
9842,297,581,519,406,423,710,214,622,195,165,478,185,401,101,519,840,407,173,331,390,171,402,802,385,314,324,461,267,197,109,273,320
9843,310,683,588,428,420,426,240,695,213,155,431,58,418,104,522,871,366,171,344,409,181,369,837,395,356,340,441,388,271,204,375,518
9844,325,522,557,388,413,367,200,667,233,132,389,-9,412,109,517,821,322,171,340,398,170,362,775,400,360,355,489,339,289,241,426,612
9845,372,267,526,452,420,260,166,712,233,112,364,65,406,95,512,753,299,175,327,414,191,345,662,380,332,360,498,367,258,212,408,546
9846,458,237,612,458,451,199,212,797,235,136,358,115,394,111,511,739,296,136,322,394,216,311,656,333,295,320,476,315,171,77,246,369
9847,418,325,587,367,459,349,182,773,214,132,501,113,396,99,493,808,264,126,310,383,119,326,698,344,304,291,415,229,156,50,228,354
9848,353,381,621,268,413,525,182,630,179,102,495,46,382,85,481,775,328,182,300,368,68,278,734,373,308,276,384,297,166,60,225,313
9849,332,377,722,241,378,419,247,567,184,75,293,121,383,97,482,656,349,228,312,370,160,292,807,423,318,319,446,380,215,117,273,366
9850,361,370,774,307,383,403,178,516,188,110,423,229,384,120,512,638,368,262,339,411,184,289,897,443,325,329,458,440,248,117,298,344
9851,360,463,809,324,413,503,139,546,190,124,451,199,420,127,539,721,413,270,344,403,216,219,828,424,343,342,476,317,182,90,281,342
9852,409,451,705,218,413,480,107,524,194,113,447,188,388,91,545,825,422,190,326,399,335,300,761,387,322,391,747,267,179,110,301,326
9853,463,412,597,265,403,597,224,534,193,111,467,160,368,83,482,770,397,137,301,354,137,277,741,367,295,322,469,279,204,135,322,383
9854,437,361,632,394,432,726,224,601,190,135,519,108,374,67,479,863,296,133,291,337,35,294,665,353,283,273,272,306,233,186,330,491
9855,434,345,672,357,453,662,155,552,177,157,518,146,359,58,519,792,259,148,284,361,176,307,699,366,292,341,484,340,251,213,367,465
9856,463,332,741,264,488,673,133,596,180,151,487,125,350,44,477,701,243,131,271,328,106,282,708,331,256,273,378,284,160,106,241,254
9857,489,300,684,261,471,762,64,635,177,127,361,157,334,51,457,697,295,114,258,319,89,209,694,286,227,234,371,211,128,84,247,336
9858,475,329,659,364,450,662,71,682,164,154,373,151,372,68,461,725,273,150,287,347,106,139,678,324,265,267,416,290,221,182,338,458
9859,374,305,472,309,412,525,111,747,169,147,344,19,353,45,448,733,153,134,256,306,80,86,625,295,206,210,387,205,126,49,154,287
9860,276,238,207,354,412,573,128,938,185,138,382,-81,311,32,462,744,144,41,232,297,142,257,593,253,194,219,416,158,65,-7,131,254
9861,283,215,289,428,440,576,100,1182,230,157,385,-85,346,55,473,723,215,11,244,322,126,222,589,246,211,225,407,125,48,23,209,295
9862,334,215,391,294,441,565,117,1170,244,146,382,-83,372,64,448,686,274,31,252,322,52,214,595,253,219,203,266,99,15,-46,142,275
9863,406,183,492,322,427,629,70,839,222,151,363,-6,356,71,443,649,264,80,280,334,59,168,612,274,234,215,277,186,76,9,181,299
9864,398,279,634,368,449,641,102,739,201,155,417,-8,337,74,474,750,269,69,285,334,116,150,663,277,239,247,379,255,112,79,241,349
9865,256,360,574,228,461,581,191,610,191,132,406,33,292,76,451,729,288,39,243,322,108,291,690,292,239,250,396,246,103,67,222,373
9866,259,345,584,329,470,664,153,370,170,140,425,105,266,62,464,705,222,70,249,324,101,269,663,282,219,231,406,258,122,63,239,407
9867,383,295,705,399,498,696,106,168,165,170,494,101,281,76,503,757,253,98,275,344,130,283,670,279,228,255,414,225,100,43,251,387
9868,388,242,683,210,464,458,118,284,156,153,459,72,303,65,482,707,179,86,271,346,141,304,654,273,228,279,465,132,116,56,270,470
9869,474,343,712,340,483,149,119,429,186,173,503,87,332,67,495,656,216,121,274,341,139,177,681,287,225,253,423,250,151,70,248,365
9870,507,391,756,439,445,367,124,468,189,140,459,122,350,57,473,649,253,152,291,330,97,73,703,318,239,245,360,336,191,108,261,244
9871,487,370,721,458,437,699,149,592,209,120,390,89,341,64,448,782,270,117,281,343,115,278,637,309,246,278,439,288,186,115,283,375
9872,523,367,758,488,463,720,110,592,213,117,385,40,316,47,417,743,327,118,254,307,75,146,671,280,203,236,412,263,161,80,243,342
9873,392,309,676,441,450,664,0,517,202,105,403,19,328,42,412,664,274,95,243,291,50,155,765,288,197,209,399,388,213,119,252,306
9874,266,315,643,466,456,678,7,542,195,115,370,54,342,31,409,648,250,153,251,311,66,328,1084,318,214,221,393,403,216,135,262,320
9875,307,338,610,420,454,718,-33,545,186,114,337,51,314,31,416,646,149,102,233,279,64,207,758,272,181,207,380,227,102,47,244,310
9876,449,375,663,398,450,673,-79,569,179,116,393,69,311,37,428,640,126,101,250,300,63,196,409,242,180,201,398,66,21,-15,194,334
9877,466,378,653,335,450,660,-43,682,196,116,493,42,324,41,431,636,324,54,254,292,82,153,488,229,198,236,390,41,36,3,208,355
9878,492,385,559,273,451,591,84,767,205,113,343,33,360,41,423,644,396,82,267,299,89,109,675,281,220,232,382,274,98,34,180,280
9879,576,318,639,331,446,477,124,737,205,100,162,12,360,68,434,656,90,93,284,325,113,205,559,299,263,275,551,264,144,66,241,316
9880,549,355,627,316,415,350,91,773,211,93,316,-9,357,57,426,617,123,87,294,331,100,246,481,299,250,265,549,168,156,86,222,297
9881,482,317,654,252,399,543,75,701,174,98,327,75,330,41,406,654,239,23,269,310,75,211,525,274,215,229,444,46,91,25,173,280
9882,301,228,636,296,417,667,88,680,189,105,320,155,322,22,382,603,211,-20,238,265,4,172,520,235,191,203,238,54,17,-9,158,308
9883,253,157,389,242,424,661,-1,689,201,90,245,56,325,29,382,588,61,6,251,298,2,147,545,256,223,231,295,188,139,86,254,381
9884,360,168,431,226,449,624,18,744,183,122,248,-55,292,53,430,619,57,38,257,340,60,235,617,289,260,255,383,196,154,117,252,380
9885,436,290,531,350,452,627,39,688,177,113,307,-22,287,49,440,612,211,55,237,326,37,218,584,298,239,212,325,116,112,38,176,274
9886,380,318,491,379,452,594,29,631,205,113,328,-119,321,57,435,593,209,108,262,309,30,206,535,301,242,216,314,162,140,59,225,294
9887,336,125,439,459,400,523,35,569,197,86,290,-76,323,39,421,585,161,103,281,299,39,141,661,326,251,236,419,148,169,105,244,251
9888,224,66,485,490,399,429,68,489,222,95,306,129,331,58,440,593,277,115,297,332,62,57,774,346,263,254,407,289,176,98,215,254
9889,257,69,568,401,410,618,53,554,210,120,324,54,345,77,461,564,293,110,301,331,49,135,716,339,263,230,245,375,208,107,238,368
9890,233,159,528,281,414,479,45,567,186,132,355,-20,321,89,468,536,204,97,291,341,103,132,617,345,267,263,388,416,234,144,278,351
9891,229,305,559,215,404,320,52,530,187,128,324,-21,304,88,467,625,247,81,276,337,106,53,626,300,247,254,416,197,124,32,156,200
9892,340,342,587,250,427,431,61,648,203,133,348,40,344,99,460,724,290,98,296,374,133,207,703,330,284,304,458,186,157,106,245,313
9893,377,410,562,302,445,273,108,734,192,98,362,81,356,112,428,676,207,107,296,349,64,154,689,336,270,267,304,163,132,104,235,287
9894,294,406,548,260,431,342,182,692,201,99,342,78,332,111,456,699,153,118,310,386,89,198,682,352,290,292,361,218,190,137,291,351
9895,293,355,572,357,438,517,166,604,190,128,378,-1,324,106,480,707,144,57,307,378,99,184,652,334,291,315,441,217,175,126,288,385
9896,342,331,614,381,436,419,127,341,174,108,377,-37,305,86,473,697,123,66,288,361,120,233,641,302,275,292,461,182,138,83,227,331
9897,290,307,563,246,448,495,71,233,179,146,362,-30,298,92,483,695,81,21,266,371,151,143,583,285,274,304,457,162,129,75,243,315
9898,332,322,557,318,431,642,67,533,180,135,401,-36,317,85,473,650,131,61,272,364,131,47,557,292,243,280,392,173,122,53,236,226
9899,363,294,575,355,446,696,74,631,165,110,301,-54,318,58,457,583,22,44,262,349,62,225,614,286,243,263,345,170,153,70,221,263
9900,339,260,581,359,466,683,120,618,178,120,323,84,308,65,480,625,146,46,256,369,109,182,617,269,253,310,413,163,155,120,326,411
9901,236,243,457,295,443,579,138,597,181,106,435,63,284,48,473,645,297,9,240,359,148,164,634,249,246,316,463,177,157,150,354,481
9902,265,194,389,109,416,570,122,653,161,96,370,-210,279,23,479,663,145,-24,229,340,173,214,572,191,192,287,452,93,40,-1,204,323
9903,323,170,296,180,417,526,66,708,154,109,333,-301,294,55,511,748,118,4,247,363,222,247,535,213,219,301,524,127,43,-10,194,303
9904,400,173,325,288,435,391,24,790,174,128,335,-132,310,75,495,689,99,26,272,371,162,245,534,243,231,300,476,137,81,51,239,361
9905,448,76,483,245,426,533,47,777,145,129,369,-58,313,54,470,703,173,69,264,338,41,212,617,281,230,259,354,175,100,46,201,252
9906,437,165,394,222,435,744,64,645,137,160,426,-12,308,92,551,737,219,69,273,381,160,116,663,305,264,317,435,145,134,72,268,320
9907,392,293,529,277,414,719,5,578,144,144,380,38,277,79,517,661,248,-1,282,402,161,195,671,287,272,347,443,203,169,86,259,359
9908,292,378,581,393,426,699,-22,529,178,162,366,-75,296,83,539,744,226,59,290,425,231,131,707,305,299,401,699,344,240,159,335,376
9909,285,274,582,338,411,641,-32,446,160,148,390,-23,287,63,518,686,117,78,267,375,183,40,642,295,266,338,527,204,140,76,258,193
9910,318,182,585,306,409,484,-63,458,155,129,373,-6,288,33,474,547,116,91,256,340,78,185,577,268,248,263,237,120,96,44,223,362
9911,266,204,502,348,443,462,0,451,167,152,423,-143,282,54,479,510,142,76,250,335,60,166,896,276,263,268,293,28,99,47,206,320
9912,337,306,543,325,464,436,11,507,177,127,483,-215,324,33,477,573,102,82,237,322,32,1,715,258,247,224,284,18,63,-4,135,212
9913,395,353,536,305,440,436,-21,564,169,94,347,-21,340,35,435,644,12,100,259,305,20,92,389,263,249,220,316,114,66,2,147,255
9914,424,408,500,293,424,260,120,553,193,96,84,87,356,58,409,639,124,128,319,340,51,86,466,323,289,269,361,231,185,121,256,352
9915,423,420,534,288,441,182,95,478,209,93,176,24,306,53,400,599,174,78,288,335,41,94,584,323,279,264,382,281,202,168,340,416
9916,268,362,467,289,419,353,35,497,209,72,205,40,333,52,379,587,185,90,283,315,18,98,637,311,267,244,354,341,217,144,299,363
9917,215,198,435,260,423,572,-15,516,158,83,262,54,314,31,372,551,93,35,237,280,-8,124,594,258,223,195,307,261,131,22,143,261
9918,239,184,474,231,437,690,-50,538,146,87,251,33,269,46,370,546,37,-44,196,271,-12,105,491,180,171,147,256,22,-53,-101,64,139
9919,207,227,433,282,442,700,-16,502,144,107,253,45,260,37,361,557,130,-20,187,245,-23,72,536,170,150,132,215,10,-76,-132,14,62
9920,289,155,479,360,476,637,19,525,157,129,316,-150,258,37,373,548,78,-21,184,263,-23,119,486,160,161,129,230,-62,-76,-130,21,69
9921,343,90,421,235,477,513,33,544,139,106,238,-196,253,25,379,459,118,-27,189,275,-2,55,427,159,181,135,238,-5,-52,-89,80,165
9922,296,54,374,202,480,412,15,517,155,104,244,-112,250,27,405,499,55,-29,194,265,37,44,419,169,164,152,257,117,-6,-49,81,143
9923,236,190,467,207,488,451,-2,450,150,106,282,-139,228,44,402,534,136,-69,191,281,-4,9,505,184,158,145,190,101,2,-48,72,22
9924,237,291,442,108,467,408,-6,421,135,108,340,-222,198,34,397,553,99,-106,171,287,-15,108,478,146,159,161,245,-104,-64,-99,82,62
9925,283,275,427,231,444,481,-3,507,137,131,345,-201,242,34,430,582,4,-13,211,306,49,106,493,163,170,197,375,-38,-54,-56,143,197
9926,292,287,462,293,451,540,-9,480,152,122,252,-91,270,36,424,544,90,35,214,288,72,91,506,166,168,182,403,-33,-56,-106,51,143
9927,283,331,415,283,442,548,-31,518,156,131,268,-119,255,38,451,516,109,-16,193,304,67,6,482,156,174,176,344,-29,-59,-96,61,180
9928,310,318,338,276,437,504,-40,608,146,151,311,-219,224,41,462,635,153,-106,199,312,87,-12,492,162,184,225,399,-14,-67,-54,151,237
9929,359,228,452,316,437,517,-55,501,178,137,272,-87,258,45,446,629,124,-73,217,322,64,-36,530,191,175,220,381,33,-43,-80,114,214
9930,246,50,450,283,419,707,-50,520,160,134,233,-11,246,40,426,589,143,-37,207,308,31,138,622,211,170,179,287,67,-4,-65,125,225
9931,162,4,369,254,417,653,-52,522,146,127,254,-67,261,60,445,573,96,34,240,306,36,184,634,239,213,210,291,49,61,14,179,292
9932,159,72,439,301,448,543,-90,480,160,129,226,-89,255,55,423,540,-41,21,222,294,-4,180,500,212,202,183,263,100,49,-22,131,216
9933,93,134,469,291,433,499,-96,451,162,105,168,-72,241,55,387,551,-6,17,216,290,-26,119,475,190,173,175,255,55,0,-67,115,187
9934,166,143,482,354,443,492,-64,529,167,107,197,-114,266,50,387,551,48,1,229,285,-30,98,448,228,212,190,275,28,-12,-44,110,235
9935,222,99,474,457,472,399,-87,506,206,113,202,-97,306,52,379,535,62,56,252,294,-32,54,537,266,234,201,255,22,52,-14,133,176
9936,281,125,457,429,484,446,-73,423,181,110,210,-186,261,42,383,541,-6,-3,224,291,-30,116,549,209,214,181,264,111,41,-26,150,174
9937,325,154,531,337,477,501,-137,403,166,109,231,-192,242,36,369,524,113,-10,216,286,-28,173,558,178,182,152,238,107,-19,-57,100,189
9938,326,198,459,198,440,538,-158,411,153,126,305,-130,256,42,375,458,200,4,208,275,-33,51,606,186,166,164,239,117,6,-39,115,197
9939,351,324,452,165,457,560,-139,464,169,130,375,-48,243,47,368,483,-10,0,211,288,-25,-15,609,206,191,162,243,135,53,-17,143,175
9940,482,302,544,206,448,515,-30,534,180,120,200,7,286,46,381,591,28,57,241,296,14,0,597,232,222,189,292,148,58,1,171,239
9941,499,254,515,203,449,605,-48,533,155,120,225,38,274,34,383,561,117,48,217,302,55,109,644,253,214,202,339,198,96,40,195,248
9942,432,240,486,268,462,576,-50,466,163,138,280,-13,269,40,412,554,147,51,234,308,128,119,675,263,245,221,431,202,123,55,220,283
9943,448,344,510,376,461,173,-45,481,185,120,253,46,279,50,383,594,223,66,238,294,-24,187,722,269,213,182,401,195,131,30,181,226
9944,426,389,517,397,452,224,-37,537,200,92,223,8,309,39,363,536,283,92,259,295,-33,196,795,297,223,184,358,295,177,67,214,200
9945,359,324,525,319,450,409,-13,633,202,75,275,-149,315,49,373,461,251,93,267,264,-96,61,806,300,223,147,89,356,206,85,204,311
9946,252,187,515,283,427,463,-55,626,196,86,186,-132,319,50,361,423,123,137,274,284,-76,67,1029,323,237,157,266,195,188,116,230,351
9947,294,132,513,305,434,592,-58,664,182,90,159,-60,305,31,363,448,91,86,250,287,-72,6,746,286,199,145,253,75,134,79,211,260
9948,272,126,475,244,426,579,-44,628,177,81,182,-95,304,29,388,539,183,76,233,268,-32,27,451,245,167,147,320,197,47,8,126,234
9949,250,87,330,279,406,472,-108,542,186,87,143,-310,286,20,395,503,76,-25,220,251,-32,7,333,178,146,109,290,14,-79,-126,37,123
9950,199,40,235,300,425,466,-96,550,205,102,186,-312,283,50,394,431,64,-61,225,278,-22,-78,463,201,200,154,194,115,-1,-68,103,205
9951,230,145,386,110,440,579,-62,562,171,128,284,-263,282,38,448,451,99,-31,237,321,53,-5,540,231,212,225,312,133,25,-16,169,329
9952,246,205,403,198,426,586,-106,528,162,122,312,-247,299,37,461,474,66,-47,254,335,86,138,452,218,220,232,339,113,20,-33,144,255
9953,258,315,383,363,395,437,-121,508,159,109,256,-285,303,25,425,526,49,-53,252,318,30,109,419,219,203,213,252,108,-6,-58,110,160
9954,220,386,380,322,405,470,-68,443,159,90,262,-251,292,36,458,598,104,-24,291,367,83,87,478,253,255,263,295,78,-15,-65,113,222
9955,214,442,448,310,425,580,-40,454,165,129,274,-152,290,90,506,659,102,10,304,412,215,113,497,268,291,324,437,37,6,-7,187,293
9956,190,445,453,258,431,544,24,370,165,136,251,26,301,87,472,593,95,30,301,370,65,125,548,288,274,274,344,72,17,4,175,302
9957,231,367,465,328,433,569,20,423,146,126,277,-69,316,84,468,609,117,6,309,369,60,217,589,270,271,257,339,157,47,28,203,331
9958,426,315,556,393,455,579,29,464,173,136,354,-83,360,90,510,713,165,55,321,407,168,286,599,282,298,315,448,264,116,85,253,382
9959,445,180,478,369,462,650,-37,476,202,156,345,62,349,88,514,755,85,38,319,401,162,169,574,269,285,306,434,207,61,19,178,222
9960,426,200,420,341,457,559,57,518,201,183,388,-11,323,84,528,769,49,6,304,411,146,201,546,255,279,306,420,39,-5,-31,154,277
9961,388,303,393,315,453,506,58,662,200,165,367,-147,391,91,524,744,204,104,329,411,149,249,623,312,299,314,381,87,54,12,221,364
9962,313,290,394,211,454,512,58,615,190,150,370,-133,419,98,522,723,195,155,334,417,160,286,629,326,317,369,483,200,128,115,326,481
9963,342,275,483,215,481,378,59,537,168,168,406,-68,356,106,564,754,242,119,322,437,257,314,648,318,340,408,611,282,171,184,405,599
9964,454,363,670,309,486,329,159,571,142,185,409,55,314,120,562,762,312,85,320,442,258,477,694,302,339,370,559,237,132,101,287,391
9965,511,502,725,261,490,477,238,653,206,188,458,72,373,132,576,827,327,144,333,432,258,387,733,313,326,352,535,296,182,143,306,389
9966,443,446,670,238,455,486,275,552,195,151,446,38,340,103,578,908,252,103,298,395,274,396,719,304,288,341,702,213,136,86,268,457
9967,507,401,661,306,450,549,285,495,184,152,439,94,332,93,558,925,244,101,282,389,267,398,698,294,264,317,679,268,119,58,252,340
9968,530,459,646,347,440,668,216,503,184,156,529,114,336,93,538,829,315,130,298,386,196,461,760,290,260,282,436,314,141,106,288,422
9969,492,543,611,345,448,728,213,513,188,169,654,105,330,85,528,870,301,114,302,373,176,426,751,277,254,283,421,284,175,153,345,520
9970,531,629,633,282,458,761,331,567,189,174,483,173,329,81,521,943,341,97,302,369,197,409,639,286,266,288,519,392,209,172,375,538
9971,562,436,648,245,453,608,248,605,182,142,342,157,324,77,508,912,254,111,288,346,165,417,702,282,258,265,541,402,187,148,328,527
9972,568,269,594,364,470,501,213,649,194,165,517,78,329,82,530,852,216,120,297,363,167,324,766,286,253,262,496,359,173,141,336,484
9973,475,270,596,417,470,638,189,668,206,164,507,49,339,87,522,743,185,120,286,349,145,383,1022,290,234,234,431,361,173,102,235,427
9974,447,390,660,412,486,745,201,682,192,185,538,130,342,110,534,684,498,170,286,347,147,358,816,306,250,258,439,446,239,161,284,436
9975,486,466,681,436,506,834,242,687,187,204,534,44,341,104,539,691,351,95,273,337,94,315,454,279,240,213,350,409,207,115,227,372
9976,411,421,579,483,474,664,160,723,205,177,340,39,360,97,488,759,339,74,294,330,57,332,526,281,230,198,345,331,137,63,176,223
9977,426,350,577,458,443,566,113,798,219,180,383,133,363,100,510,812,437,61,304,339,102,373,630,259,240,214,398,237,61,26,195,285
9978,370,285,585,365,441,391,120,785,183,153,379,110,356,89,497,772,336,103,273,319,88,359,604,265,211,200,346,218,40,1,158,277
9979,324,334,600,327,458,592,151,602,196,156,359,-91,327,75,485,748,140,67,263,323,70,262,516,229,203,192,336,56,-15,-62,132,271
9980,384,400,529,242,430,741,178,472,185,147,395,-89,298,99,483,726,200,48,275,340,60,75,545,236,216,207,354,39,-9,-58,134,265
9981,475,488,554,124,425,617,184,562,190,148,421,55,337,132,521,748,202,101,325,373,107,171,629,295,262,261,370,139,59,-10,164,255
9982,406,346,609,115,423,604,173,478,201,173,438,122,356,153,559,805,116,107,359,424,183,326,633,340,307,318,421,182,103,51,219,327
