,Fp1,Fp2,F7,F3,Fz,F4,F8,FC5,FC1,FC2,FC6,T7,C3,Cz,C4,T8,TP9,CP5,CP1,CP2,CP6,TP10,P7,P3,Pz,P4,P8,PO9,O1,Oz,O2,PO10
124619,237,-324,396,260,-26,573,303,361,127,-69,455,472,622,-36,135,242,390,217,161,199,152,463,458,374,332,164,481,310,476,364,281,271
124620,181,-374,278,142,-41,483,247,254,35,-163,380,413,520,-135,51,282,172,86,45,117,92,386,303,268,237,92,443,138,369,262,200,216
124621,82,-424,104,72,-24,403,176,162,-36,-240,358,311,431,-213,-15,272,66,-16,-32,42,55,318,184,169,147,30,442,27,282,164,138,175
124622,66,-431,84,50,-9,382,135,68,-88,-258,311,240,400,-251,-44,107,18,-69,-84,6,45,283,172,119,109,8,490,84,258,168,115,92
124623,72,-373,115,95,-18,406,119,111,-43,-227,288,211,440,-214,-7,66,214,-24,-35,60,82,331,282,185,171,98,549,162,330,257,230,106
124624,145,-382,220,130,-49,450,192,184,-4,-167,334,176,494,-124,54,130,282,68,54,123,151,367,396,238,239,169,545,105,378,328,336,251
124625,219,-370,322,236,-34,541,262,326,94,-72,523,316,605,-45,144,237,250,176,143,218,193,356,484,321,326,230,520,194,457,424,407,354
124626,274,-254,394,293,-23,648,334,397,176,17,599,428,668,23,248,387,324,251,225,276,261,400,482,386,405,291,572,200,516,461,432,407
124627,254,-209,393,290,-46,649,325,407,191,59,589,429,703,68,301,362,499,264,262,340,314,562,528,453,466,356,714,367,606,507,476,493
124628,226,-285,349,287,-25,679,313,376,186,68,643,433,700,58,331,289,560,278,273,349,307,552,554,462,465,361,738,397,605,492,452,408
124629,144,-391,244,225,-30,631,228,347,110,-6,635,366,628,-2,241,304,482,208,207,271,244,512,509,394,385,287,635,268,551,394,322,263
124630,61,-475,206,161,-28,537,161,283,33,-117,528,293,560,-98,117,239,378,116,117,174,123,367,383,289,275,138,463,75,389,225,100,0
124631,-1,-513,91,86,-17,418,100,201,-26,-214,408,225,497,-186,4,179,320,56,46,61,4,114,350,235,209,53,324,115,338,212,72,-32
124632,-36,-537,44,60,-21,402,98,205,-59,-246,432,244,490,-225,-9,154,255,61,-2,33,13,146,367,216,181,50,324,142,358,237,120,21
124633,6,-524,127,121,-29,447,69,268,-15,-200,480,254,531,-181,23,226,321,95,68,88,75,449,434,280,244,105,431,179,424,303,213,114
124634,103,-444,260,205,-28,511,188,326,58,-138,507,336,604,-111,56,316,351,163,121,147,117,570,472,343,318,171,513,111,414,314,236,219
124635,167,-399,350,248,-41,557,264,361,116,-79,562,420,677,-32,122,357,480,229,198,226,187,606,553,413,402,226,585,233,503,394,294,239
124636,238,-315,388,289,-46,621,258,390,175,-5,635,458,724,57,218,434,552,293,285,300,271,710,642,530,495,328,720,404,637,537,443,388
124637,268,-262,429,302,-43,722,355,446,225,59,690,467,773,112,267,487,509,333,309,361,332,728,688,577,528,377,818,393,665,593,494,436
124638,253,-208,434,319,-37,687,391,460,226,64,722,494,783,111,285,505,587,371,310,370,364,722,709,559,538,385,834,357,672,598,484,427
124639,139,-311,347,259,-29,571,316,409,165,-22,609,451,706,42,195,408,549,301,268,299,268,609,650,495,492,339,724,303,618,556,431,333
124640,37,-430,228,166,-33,459,221,311,68,-132,457,360,609,-62,80,256,404,182,156,203,169,413,531,397,390,250,599,208,519,479,364,214
124641,-30,-509,97,64,-33,393,166,216,-18,-208,308,253,518,-146,5,257,308,88,47,129,126,383,423,314,312,197,561,131,419,422,343,194
124642,-44,-555,70,59,-23,353,158,221,-36,-227,296,214,487,-185,-3,168,277,47,21,123,90,479,401,296,274,191,587,9,363,375,340,193
124643,9,-529,156,109,-27,421,193,258,-20,-191,409,248,518,-138,31,125,287,90,69,151,137,327,484,357,316,238,684,140,451,461,416,267
124644,117,-487,277,159,-38,486,268,297,51,-119,495,360,580,-81,109,190,376,177,136,249,243,296,508,384,404,332,810,338,584,616,522,352
124645,193,-392,395,266,-35,580,363,394,139,-32,604,488,697,-9,228,311,465,292,249,340,320,465,582,489,491,415,874,447,678,671,557,409
124646,281,-304,504,336,-37,662,362,534,211,41,683,585,798,60,306,387,513,377,334,394,378,559,654,559,547,461,856,446,714,683,594,438
124647,316,-280,514,365,-49,682,313,573,248,77,702,617,831,88,323,394,417,398,340,414,399,680,636,564,559,468,836,449,727,700,609,424
124648,282,-275,501,365,-43,685,269,534,222,55,662,573,810,62,282,342,401,371,287,398,382,647,582,533,547,457,812,459,680,683,620,441
124649,193,-340,416,302,-36,627,228,467,165,-10,603,471,753,3,214,306,334,303,227,360,333,535,468,448,494,431,781,251,559,617,660,455
124650,70,-514,271,206,-33,518,67,368,80,-104,462,358,637,-78,127,188,209,180,130,281,218,472,345,338,414,323,606,96,436,533,589,491
124651,-43,-646,147,120,-44,428,-10,262,-15,-187,342,309,537,-171,26,89,166,71,46,159,76,382,289,245,289,170,422,89,315,330,278,167
124652,-49,-551,55,78,-44,375,-67,205,-53,-239,272,267,493,-212,-24,118,78,24,-5,79,2,131,243,192,203,90,284,24,219,215,105,-95
124653,-18,-551,53,126,-36,442,-42,227,-3,-207,361,204,524,-163,-5,111,43,25,43,115,12,123,204,207,245,107,280,-3,247,230,127,15
124654,63,-531,142,213,-39,471,52,336,71,-153,406,274,604,-85,60,12,194,81,124,174,51,289,279,272,332,157,400,91,340,308,202,58
124655,133,-473,261,279,-28,540,154,410,168,-73,443,367,699,17,180,55,292,186,220,264,151,415,422,383,411,271,598,249,429,394,323,152
124656,226,-385,357,321,-46,590,211,437,207,-27,468,461,760,71,201,184,348,250,253,309,180,465,470,387,448,303,678,159,429,414,385,307
124657,301,-343,451,336,-43,623,213,459,256,6,465,544,787,112,230,265,359,293,314,344,211,534,539,440,469,326,678,205,479,514,499,455
124658,281,-338,440,352,-44,601,179,494,268,21,508,481,820,102,245,294,339,307,294,328,198,449,535,441,462,329,619,122,460,481,526,451
124659,196,-364,415,323,-29,547,125,452,208,-40,493,405,771,45,181,228,371,252,253,250,133,325,437,410,370,240,484,62,413,387,350,293
124660,100,-469,265,220,-27,459,47,337,112,-143,337,287,659,-68,74,151,219,147,138,152,44,239,305,298,282,135,397,37,348,288,198,171
124661,41,-518,133,184,-17,400,-98,307,18,-222,250,210,573,-155,8,72,68,49,31,86,-50,37,170,196,216,35,315,-31,274,176,121,16
124662,29,-577,113,132,-30,336,-119,276,-26,-274,172,143,527,-199,-75,93,108,-8,-13,29,-95,110,170,156,140,-17,278,-5,204,87,1,-79
124663,20,-555,202,146,-51,331,-42,263,-3,-268,135,206,563,-187,-75,115,178,40,3,50,-80,178,247,168,149,-8,267,7,223,122,33,-67
124664,95,-470,305,210,-50,428,44,323,47,-188,396,288,605,-126,29,14,269,132,66,106,-23,115,336,231,218,80,332,-61,282,239,155,57
124665,190,-396,390,294,-48,537,144,429,114,-116,457,353,647,-53,88,135,360,177,123,179,48,119,343,283,287,133,392,-59,280,233,171,94
124666,295,-330,475,365,-54,593,221,457,193,-47,519,432,713,20,162,288,448,231,193,264,154,243,397,355,384,206,420,55,371,317,237,152
124667,324,-227,481,390,-49,624,268,463,220,-2,552,422,744,32,218,344,448,252,240,307,188,443,453,400,411,234,436,122,428,365,244,142
124668,326,-230,508,430,-34,642,255,479,221,11,516,397,732,46,229,282,461,240,254,312,193,474,459,396,388,217,408,147,416,294,154,76
124669,263,-320,420,359,-28,577,210,413,170,-43,426,343,682,7,138,127,404,164,182,245,121,343,447,358,338,148,348,165,412,245,115,33
124670,95,-449,287,249,-33,473,154,288,64,-135,347,257,580,-84,35,23,303,103,87,159,13,201,437,301,252,87,263,135,371,226,69,-62
124671,4,-585,224,187,-29,396,43,224,-17,-231,259,221,497,-177,-53,-101,151,23,20,69,-84,-62,341,197,171,1,196,12,273,155,3,-130
124672,2,-641,176,137,-31,354,3,197,-51,-272,214,165,472,-212,-82,-140,129,-31,-28,27,-117,-51,217,125,150,-29,175,-37,213,105,-11,-49
124673,38,-556,186,141,-36,373,-11,224,-30,-240,256,149,474,-182,-52,-77,-25,-24,-17,65,-97,188,192,150,166,23,228,-13,223,133,20,0
124674,131,-499,256,221,-29,462,-7,322,30,-170,358,257,544,-101,40,-5,93,64,45,134,-24,58,319,216,223,77,276,100,299,155,2,-132
124675,227,-438,305,325,-31,541,80,409,136,-85,444,376,655,3,128,111,320,195,171,237,94,210,452,325,340,190,396,82,386,256,90,-77
124676,266,-290,358,385,-48,602,193,461,230,-32,470,458,732,70,161,228,428,286,260,328,184,555,550,431,427,294,568,179,489,369,234,145
124677,348,-205,456,415,-53,657,235,525,262,11,517,536,785,114,217,226,498,362,343,388,251,592,606,505,495,363,677,420,645,504,392,292
124678,348,-243,480,387,-36,681,254,522,247,19,543,515,762,104,243,277,486,353,354,385,259,636,585,506,492,354,637,386,609,485,387,321
124679,300,-288,395,351,-45,634,259,458,172,-20,569,449,728,52,214,289,464,272,264,336,201,515,496,454,443,316,544,187,503,429,318,279
124680,199,-379,307,254,-25,563,231,371,76,-114,511,370,634,-35,146,206,282,159,161,232,123,413,361,333,360,210,453,46,396,338,190,124
124681,94,-483,213,157,-9,439,188,251,-19,-214,419,285,495,-167,29,121,194,46,49,117,22,331,263,207,210,78,325,-61,256,152,-1,-89
124682,85,-464,202,136,-20,391,139,218,-53,-233,395,283,458,-216,-19,112,215,22,-10,60,-16,206,230,159,145,34,278,-69,192,87,-46,-113
124683,117,-462,266,186,-32,429,146,247,-28,-205,406,235,482,-193,37,248,263,55,4,95,28,296,270,183,189,70,344,-25,234,164,44,-37
124684,210,-436,325,219,-33,508,170,309,21,-160,512,209,535,-134,87,270,366,86,63,139,93,326,356,239,232,122,403,46,322,236,140,77
124685,268,-369,375,269,-59,582,190,362,72,-94,547,320,604,-62,171,339,392,150,120,193,175,402,415,312,301,176,512,131,373,294,187,124
124686,357,-317,446,344,-75,689,249,419,130,-25,640,421,653,-30,239,438,439,216,160,254,248,486,454,351,354,231,600,147,349,328,202,170
124687,456,-280,573,416,-49,735,374,488,192,30,648,536,720,14,280,493,570,317,233,321,314,390,564,422,420,304,680,276,478,430,319,291
124688,424,-203,617,390,-47,744,403,495,189,49,713,524,728,23,287,485,548,314,220,328,344,439,565,443,429,320,731,328,508,475,367,333
124689,388,-204,485,334,-40,682,380,482,140,-15,632,451,654,-34,211,337,382,244,148,234,206,454,492,371,315,171,564,346,410,302,88,98
124690,257,-312,354,256,-57,539,299,384,49,-134,484,342,566,-143,85,209,294,146,37,104,83,302,348,239,179,8,355,9,220,135,-56,-23
124691,163,-408,235,155,-35,452,195,255,-49,-226,381,264,463,-233,-7,164,156,43,-66,7,-7,276,249,122,93,-63,231,-197,92,32,-122,-93
124692,129,-450,204,107,-24,400,131,216,-91,-282,336,240,412,-279,-54,84,147,-13,-124,-51,-66,138,214,59,37,-125,133,-70,106,21,-157,-153
124693,157,-460,237,133,-26,447,123,232,-67,-249,360,312,445,-253,-5,71,156,33,-98,-14,-34,242,237,122,68,-78,229,-33,169,108,-19,-31
124694,193,-392,315,206,-35,518,210,333,14,-167,408,415,537,-171,74,181,285,138,-3,83,41,325,372,224,161,26,321,104,297,210,73,43
124695,270,-262,384,286,-43,575,313,435,100,-101,470,481,595,-95,124,213,468,205,77,159,105,351,487,320,233,106,374,239,406,259,69,45
124696,338,-221,431,335,-42,683,340,496,173,0,588,534,685,-8,206,264,623,276,192,281,207,621,557,426,372,247,551,262,499,401,308,330
124697,339,-171,473,374,-38,732,330,545,212,28,640,556,747,34,231,294,582,335,244,323,257,558,603,482,420,297,620,294,550,443,393,450
124698,359,-80,497,394,-45,700,339,592,217,20,638,612,784,52,248,255,663,385,246,299,237,494,685,492,400,263,548,442,557,337,216,218
124699,314,-219,394,315,-41,622,318,559,140,-28,588,585,719,-13,204,259,610,319,174,225,173,484,638,429,344,220,519,412,549,318,203,151
124700,261,-361,312,232,-36,516,281,499,45,-125,500,490,638,-103,112,296,462,237,71,166,116,365,538,345,274,166,475,228,435,236,171,85
124701,144,-444,245,152,-50,435,196,411,-43,-209,388,433,545,-194,18,231,409,152,-14,95,61,287,452,285,195,90,470,171,378,223,160,102
124702,86,-449,223,110,-50,419,100,341,-75,-257,390,419,504,-235,-15,153,433,114,-34,78,27,265,446,276,184,77,473,234,407,247,175,94
124703,131,-432,238,164,-39,461,126,390,-20,-219,449,454,544,-179,38,155,482,201,25,120,60,328,554,355,226,118,509,323,484,283,183,125
124704,193,-351,335,205,-34,529,211,472,51,-141,561,493,622,-114,96,260,547,262,86,189,149,474,566,388,297,184,604,229,492,361,275,210
124705,316,-270,433,266,-22,606,250,539,123,-67,640,571,688,-35,183,359,684,312,176,270,242,565,635,467,370,303,670,285,557,433,410,329
124706,338,-268,481,351,-26,674,318,605,191,-2,624,643,758,14,215,302,737,375,217,336,269,551,705,529,436,348,626,362,601,460,415,334
124707,344,-180,511,361,-51,671,404,575,212,25,597,681,763,52,234,372,670,388,237,336,293,597,707,510,477,356,635,322,567,456,397,326
124708,369,-185,488,338,-54,670,400,522,214,21,620,657,730,63,241,347,636,349,257,330,281,603,684,485,448,335,619,291,568,454,398,388
124709,323,-288,438,276,-34,593,330,511,177,-38,537,585,684,9,176,300,615,324,225,301,223,481,601,439,413,282,570,317,583,464,403,412
124710,225,-449,342,186,-47,502,223,370,61,-122,463,465,582,-72,86,205,440,223,111,220,143,265,471,328,312,198,492,143,442,343,283,256
124711,88,-513,232,98,-44,438,201,271,-22,-187,454,326,515,-130,48,139,235,100,8,142,87,253,351,246,234,150,498,33,317,278,223,163
124712,29,-491,231,43,-30,352,172,274,-45,-253,316,326,488,-166,9,159,163,92,11,109,43,151,354,231,182,87,442,11,263,166,90,11
124713,54,-469,271,94,-38,361,121,326,-13,-241,337,389,518,-148,-6,136,273,128,55,99,22,11,388,222,192,45,350,-61,223,67,-17,-110
124714,116,-440,314,163,-38,502,129,348,27,-154,477,438,562,-85,91,130,357,130,82,179,71,285,362,232,267,115,368,56,283,198,146,131
124715,238,-329,416,243,-52,591,218,402,98,-70,503,423,653,-10,189,270,452,170,159,252,156,464,372,297,324,189,442,144,362,285,260,194
124716,323,-255,455,283,-38,646,310,446,156,-3,591,420,687,46,239,346,565,260,218,297,222,465,493,365,372,237,455,220,420,329,294,169
124717,353,-225,481,322,-55,705,351,507,184,34,655,506,715,66,272,411,577,294,240,325,262,453,544,397,397,260,480,230,447,354,333,198
124718,362,-172,468,340,-42,722,457,546,199,28,673,547,720,63,295,456,603,305,230,313,253,458,564,380,385,249,465,209,417,307,200,49
124719,315,-219,415,277,-48,614,355,486,132,-41,519,529,643,-13,194,320,577,257,159,247,193,401,525,340,345,217,488,216,388,285,186,83
124720,235,-285,345,202,-20,545,251,381,39,-132,468,437,539,-121,112,178,437,137,54,161,108,237,379,219,234,132,435,99,238,212,173,86
124721,131,-328,228,95,-38,501,206,289,-70,-221,422,345,459,-238,25,124,295,47,-51,44,23,126,282,106,122,36,294,18,149,58,47,-1
124722,110,-413,239,71,-27,445,152,269,-93,-257,290,333,405,-268,-41,88,168,-1,-120,-11,-59,162,233,61,74,-26,228,-26,117,11,-34,-87
124723,167,-411,303,116,-44,430,223,289,-61,-249,357,307,405,-231,-14,114,181,0,-91,23,-23,332,251,97,97,-9,286,-72,107,58,16,-20
124724,227,-320,409,160,-52,480,273,336,-17,-207,393,302,467,-197,36,145,214,55,-44,65,28,459,318,160,140,49,365,-16,173,100,73,70
124725,312,-279,478,259,-29,581,346,416,86,-111,509,360,593,-82,126,274,335,171,45,160,121,420,432,259,247,146,426,108,260,189,148,127
124726,344,-363,535,331,-32,658,437,458,154,-35,629,464,650,1,193,318,363,211,129,229,197,377,476,322,318,202,492,195,347,286,227,227
124727,324,-421,490,365,-59,708,441,500,186,1,689,514,674,5,235,331,465,231,168,256,206,520,538,322,328,197,505,139,333,238,176,208
124728,339,-359,489,385,-37,700,390,539,190,10,724,520,676,7,258,376,401,244,170,255,233,536,463,308,319,207,508,107,313,188,146,144
124729,276,-341,456,347,-42,618,270,514,118,-62,591,367,635,-49,165,312,309,167,93,186,172,387,352,247,241,127,481,-33,238,111,83,44
124730,224,-343,377,228,-33,525,201,377,31,-167,457,259,529,-148,93,252,326,58,17,92,88,237,256,179,154,50,406,-18,213,56,-22,-21
124731,132,-398,276,137,-32,462,169,248,-51,-252,416,129,405,-250,38,230,159,-45,-84,14,49,269,138,60,71,-1,357,-90,145,-16,-97,-99
124732,65,-396,286,100,-36,381,126,186,-107,-291,336,101,364,-278,-42,177,121,-67,-118,-18,-7,215,138,32,27,-50,296,-105,154,4,-70,-120
124733,97,-372,308,110,-29,458,184,215,-74,-257,405,153,412,-241,6,159,215,-24,-70,34,37,260,179,97,85,6,377,-25,243,74,20,-9
124734,190,-316,356,169,-39,500,282,293,4,-199,500,283,499,-157,67,243,279,53,17,110,161,373,290,213,186,128,537,81,368,199,155,139
124735,289,-200,451,231,-61,564,417,350,70,-125,574,400,582,-85,155,359,406,178,98,188,192,357,432,316,254,186,557,248,465,280,202,171
124736,348,-158,546,334,-48,661,490,464,140,-37,603,446,653,-28,227,409,569,290,166,263,264,492,553,412,321,242,604,390,560,322,199,156
124737,374,-142,585,392,-47,692,537,525,203,-9,648,498,729,20,259,462,634,375,224,314,315,542,676,518,415,333,668,571,720,472,361,351
124738,383,-108,568,384,-28,684,504,558,213,7,670,543,762,15,276,445,658,427,238,332,324,573,736,557,431,336,711,672,777,536,405,373
124739,313,-183,439,338,-52,644,319,525,154,-35,630,494,700,-50,236,318,620,349,172,258,268,510,677,479,355,275,633,575,737,483,354,282
124740,206,-294,263,242,-57,564,257,413,29,-160,497,361,564,-164,116,212,399,153,32,121,132,379,438,282,188,127,486,82,422,197,117,114
124741,105,-357,168,137,-29,453,179,340,-46,-257,383,262,464,-256,-20,93,230,74,-66,-4,1,144,322,150,84,-16,328,-84,255,8,-75,-71
124742,40,-396,180,105,-42,394,82,299,-77,-325,313,222,427,-291,-79,19,237,56,-103,-54,-86,225,330,120,27,-78,205,-51,244,-15,-135,-158
124743,44,-381,221,152,-36,425,93,339,-28,-275,333,316,503,-240,-32,65,357,97,-33,5,-50,334,376,196,94,-36,223,-11,279,87,-12,-16
124744,108,-336,310,177,-36,511,205,400,33,-194,416,369,549,-161,34,122,365,160,10,78,18,358,408,243,173,52,279,-59,315,170,112,152
124745,231,-305,419,227,-39,579,295,488,116,-98,492,451,636,-57,111,295,471,270,106,200,129,475,520,342,287,170,434,56,456,306,243,296
124746,320,-264,461,293,-14,642,397,492,181,-55,530,526,708,45,191,432,544,352,196,291,211,575,623,429,371,243,524,234,553,362,229,264
124747,350,-264,449,310,-23,669,394,507,219,-25,530,528,728,59,230,441,541,382,239,311,223,620,639,469,407,275,495,311,590,367,219,99
124748,379,-270,451,289,-50,627,331,467,212,-20,513,533,711,45,228,414,550,367,227,317,194,528,598,436,401,251,431,257,536,329,181,44
124749,334,-293,402,240,-42,588,268,414,168,-62,518,521,671,0,168,282,533,318,168,245,130,404,525,375,346,167,347,121,419,253,130,35
124750,229,-396,349,142,-42,510,229,355,70,-166,442,382,586,-93,50,94,497,231,64,141,29,360,434,286,238,81,317,-18,292,154,88,24
124751,126,-493,229,48,-51,415,172,260,-26,-271,310,296,497,-183,-49,-15,362,139,-15,42,-83,252,360,183,131,-22,216,-80,198,79,5,-101
124752,85,-544,192,47,-20,391,135,279,-32,-271,295,372,480,-199,-83,36,205,138,-43,37,-80,243,316,159,122,-23,221,-94,192,91,22,-97
124753,124,-419,236,70,-29,398,173,343,-3,-253,375,429,528,-183,-26,42,243,164,-11,63,-42,259,352,211,163,23,264,-71,217,125,43,-57
124754,207,-314,307,128,-50,456,258,412,44,-196,458,475,595,-120,68,190,355,222,65,134,60,283,403,255,238,100,385,50,305,238,149,61
124755,298,-232,415,195,-45,561,298,478,113,-97,554,527,673,-27,172,379,522,310,154,248,203,257,536,367,360,220,552,206,452,375,310,219
124756,385,-116,492,268,-39,620,358,537,174,-13,610,597,720,41,242,444,690,380,230,317,286,516,647,474,448,337,672,263,541,465,416,305
124757,424,-87,510,274,-55,692,412,555,198,25,693,604,730,80,268,501,627,383,259,374,337,648,635,487,492,366,697,268,553,477,426,319
124758,389,-114,528,313,-33,676,387,527,187,25,731,633,714,86,280,485,641,370,272,389,342,621,642,485,478,379,715,347,547,490,456,318
124759,327,-205,500,281,-45,609,288,535,155,-21,677,634,694,53,236,371,643,343,208,339,285,614,617,437,436,344,685,287,474,454,415,265
124760,249,-244,365,193,-30,533,209,439,64,-94,605,511,605,-23,149,313,533,255,119,265,195,533,471,325,344,242,554,203,387,335,265,192
124761,170,-307,362,135,-25,410,151,369,-17,-180,493,409,529,-125,72,259,393,156,44,167,108,406,345,235,253,153,424,151,266,230,156,151
124762,101,-408,331,99,-35,410,158,396,-64,-228,420,352,485,-180,52,232,291,92,1,108,61,411,307,160,210,104,420,27,189,145,93,66
124763,133,-398,283,122,-23,456,169,385,-22,-193,445,380,511,-147,91,199,402,124,26,144,99,503,382,209,244,127,459,74,208,171,93,41
124764,182,-362,348,150,-12,513,258,421,27,-140,531,438,565,-87,131,147,450,185,49,187,116,505,456,253,260,121,423,113,252,192,103,102
124765,226,-309,422,183,-42,549,322,473,61,-78,568,534,624,-34,183,257,469,231,112,213,150,517,480,304,289,154,426,152,299,224,137,169
124766,279,-329,530,246,-42,660,384,513,156,7,640,641,716,41,275,403,575,309,196,289,223,569,570,410,366,230,490,283,414,295,175,214
124767,325,-328,521,271,-55,661,349,558,186,34,724,646,736,73,286,486,592,297,221,325,263,673,569,428,372,258,544,337,440,345,201,297
124768,358,-274,514,269,-58,733,369,556,191,47,783,651,732,62,322,446,607,296,218,316,263,508,554,420,350,244,472,247,435,287,140,186
