,Fp1,Fp2,F7,F3,Fz,F4,F8,FC5,FC1,FC2,FC6,T7,C3,Cz,C4,T8,TP9,CP5,CP1,CP2,CP6,TP10,P7,P3,Pz,P4,P8,PO9,O1,Oz,O2,PO10
233532,-370,249,-278,-285,234,469,-316,13,29,-15,118,-273,154,19,-11,232,417,-66,172,569,92,523,657,261,310,479,338,-112,199,216,134,0
233533,-351,212,-293,-320,229,458,-442,-20,16,-24,76,-272,127,19,-23,138,431,-272,162,574,61,565,743,278,290,473,336,-110,216,239,144,23
233534,-390,281,-238,-173,243,479,-443,-36,8,-14,56,-232,104,16,-10,67,391,-228,162,561,28,564,686,320,277,469,269,-146,186,188,84,-159
233535,-393,314,-135,-196,240,335,-353,-76,2,-22,12,-137,104,23,-12,74,447,-165,160,548,29,532,703,321,276,453,237,-100,189,158,-2,-331
233536,-361,304,-98,-267,269,195,-207,-118,20,-35,76,-180,134,22,15,105,463,-112,189,580,33,513,746,328,313,487,273,-44,235,222,46,-157
233537,-304,356,-88,-267,262,177,-274,-160,-3,-52,56,-188,83,16,-21,167,406,-201,151,562,9,439,726,315,292,477,279,-155,222,209,65,-127
233538,-299,371,-93,-245,265,168,-293,-22,33,-25,-9,-164,115,25,-6,185,441,-176,171,594,52,571,773,325,319,510,343,-115,262,283,190,-10
233539,-317,314,-185,-260,244,151,-267,5,41,-40,-39,-152,132,24,-22,104,469,-139,210,601,69,596,811,324,336,526,402,-28,278,365,303,109
233540,-331,236,-152,-229,259,266,-262,27,37,-40,-28,-175,137,11,-19,106,309,-135,183,576,48,609,762,298,319,509,425,-271,223,308,274,139
233541,-325,180,-176,-210,273,417,-314,-12,38,-30,-41,-55,122,26,-24,115,354,-120,171,563,78,611,849,297,304,495,477,-252,190,291,304,263
233542,-300,168,-234,-182,289,406,-299,0,54,-28,-54,73,93,12,-51,57,441,-123,167,542,55,535,852,290,286,430,471,-244,135,228,188,270
233543,-307,59,-229,-181,295,250,-294,57,36,-51,-34,-27,104,-21,-89,38,406,-152,135,491,-61,492,828,230,210,346,303,-290,4,23,-55,-72
233544,-264,98,-206,-187,318,127,-249,71,56,-49,-22,-70,116,-18,-84,13,444,-134,155,474,-91,424,838,212,202,344,189,-272,9,4,-104,-373
233545,-244,242,-172,-173,323,126,-210,34,59,-33,-30,-132,144,3,-55,32,549,-148,175,538,-51,454,795,199,247,351,227,-248,57,69,-55,-293
233546,-305,318,-170,-170,293,145,-169,-92,43,-51,-28,-81,111,11,-54,92,541,-161,178,529,-51,495,711,198,234,377,200,-231,53,58,-35,-196
233547,-400,336,-205,-232,265,246,-204,-113,35,-46,0,13,84,6,-42,13,526,-160,159,513,-46,455,701,224,247,384,197,-236,38,74,-30,-242
233548,-358,301,-6,-252,251,314,-279,-54,32,-26,-12,-110,104,0,-39,-8,389,-184,140,527,-86,440,645,203,222,358,184,-338,2,31,-27,-229
233549,-331,101,174,-217,237,287,-341,-70,16,-37,-51,-135,71,-13,-69,-6,355,-175,99,516,-107,369,671,197,194,309,159,-326,-35,4,-83,-350
233550,-287,100,86,-200,266,262,-311,17,12,-32,-79,-138,72,-10,-69,36,407,-196,105,501,-71,309,769,223,192,282,163,-291,12,-17,-131,-382
233551,-218,229,48,-167,296,347,-258,52,40,-30,-83,-158,129,15,-5,75,489,-155,152,532,10,271,835,248,227,319,209,-208,68,8,-103,-367
233552,-277,244,-13,-141,258,313,-326,43,49,-10,-125,-156,101,19,36,-24,508,-120,157,552,-1,271,836,286,250,363,202,-16,163,79,-98,-447
233553,-357,296,-72,-102,253,195,-371,59,53,-22,-211,-143,109,14,9,-69,483,-111,195,542,-31,298,870,327,276,352,115,191,263,188,-2,-397
233554,-338,283,-212,-65,249,191,-394,20,74,-52,-184,-133,125,19,-136,116,508,-77,210,548,-93,371,898,373,313,367,182,307,354,297,197,-110
233555,-268,299,-178,-86,255,240,-356,11,83,-56,-84,-126,116,17,-170,149,435,-113,185,558,-107,447,808,357,296,399,273,-131,241,248,251,79
233556,-250,329,-101,-142,270,268,-348,19,58,-33,-20,-183,98,8,-81,-4,291,-181,163,568,-93,408,616,262,269,389,266,-457,70,109,170,184
233557,-251,329,-166,-224,243,241,-373,90,53,-43,-20,-168,124,8,-80,-70,315,-119,157,532,-113,341,581,276,250,351,189,-190,204,156,93,11
233558,-244,447,-168,-201,257,274,-289,40,75,-3,38,-71,140,29,-60,-31,280,-150,166,531,-86,378,593,290,244,344,123,-273,215,142,8,-246
233559,-189,486,-59,-207,265,311,-246,9,76,0,16,-84,115,35,-59,-67,269,-162,156,538,-76,391,629,263,238,322,34,-360,127,36,-121,-471
233560,-220,460,-122,-231,260,272,-289,66,72,-23,-50,-165,146,37,-62,-41,227,-58,182,535,-122,380,516,241,217,281,14,-566,-41,-118,-230,-548
233561,-311,433,-168,-162,263,203,-343,54,87,-50,-97,-64,125,31,-28,-10,288,-137,200,563,-63,503,587,297,270,375,192,-568,-17,30,17,-170
233562,-335,378,-114,-141,253,258,-294,22,52,-51,-21,-154,57,7,-22,-116,284,-310,145,541,-119,498,607,243,236,338,95,-520,-45,-71,-163,-399
233563,-292,368,-72,-163,260,274,-284,27,48,-41,24,-250,72,-1,-50,-75,253,-233,142,553,-109,475,556,248,229,320,105,-466,-42,-95,-168,-361
233564,-274,365,-9,-182,253,156,-263,-11,53,-74,-35,-208,78,-22,-62,-28,328,-186,123,535,-73,516,570,270,224,341,148,-403,-25,-31,-98,-265
233565,-247,351,62,-161,285,194,-228,-50,59,-38,-55,-79,94,0,-62,56,304,-164,173,537,-58,584,638,283,252,370,164,-348,33,14,-34,-319
233566,-227,278,-77,-205,267,231,-286,-79,33,-35,-71,124,76,11,-50,51,391,-138,171,529,-59,580,755,279,243,364,169,-177,75,50,9,-244
233567,-189,289,-13,-193,284,200,-337,32,53,-47,-49,45,121,5,-58,37,359,-161,192,531,-50,583,745,260,249,367,203,-369,96,99,86,-92
233568,-189,246,114,-139,296,304,-349,85,80,-25,-33,-57,152,28,-50,65,287,-128,196,554,-12,551,797,273,271,378,258,-251,178,163,110,-58
233569,-225,152,87,-113,275,337,-351,70,65,-35,-68,-74,157,23,-55,38,300,-84,174,556,-15,491,793,287,267,365,275,-178,201,152,94,-192
233570,-286,257,104,-70,247,396,-327,24,76,-27,-80,-94,140,22,-26,19,390,-104,149,543,-7,472,662,264,242,356,276,-227,111,84,-35,-303
233571,-259,414,116,-14,279,303,-244,2,77,-41,-79,-54,162,20,-32,44,369,-98,122,522,-45,507,651,279,236,359,255,-202,101,111,-31,-312
233572,-213,465,62,-20,264,410,-259,47,62,-21,-116,-63,144,19,-36,11,394,-93,114,519,-46,545,651,261,247,352,266,-259,100,128,40,-177
233573,-254,342,25,-37,268,537,-296,132,66,-11,-163,-93,133,5,-23,3,445,-112,129,503,-31,464,692,239,233,355,250,-282,115,128,51,-139
233574,-283,223,-64,-108,276,447,-285,90,56,-13,-151,100,80,19,-43,85,531,-154,109,518,-7,457,752,257,247,369,209,-225,152,174,63,-152
233575,-222,187,47,-137,308,291,-246,94,68,-5,-36,101,69,33,-10,143,572,-99,149,551,33,445,815,294,267,372,233,-171,211,180,66,-136
233576,-215,189,125,-153,293,242,-221,106,71,-21,-29,-46,91,18,-13,110,543,-58,165,557,18,470,864,295,247,357,257,16,278,186,62,-141
233577,-208,323,155,-139,296,338,-208,78,52,-20,-2,-88,102,21,17,133,483,-81,154,554,90,512,866,306,254,381,345,-137,237,232,178,14
233578,-116,377,121,-147,298,358,-164,98,62,21,64,-108,102,13,34,110,428,-97,191,567,120,536,835,304,268,454,399,-316,185,199,182,50
233579,-91,464,161,-192,299,310,-168,129,67,-6,49,-104,119,24,32,76,428,-87,202,593,88,522,802,322,281,460,372,-202,268,231,196,52
233580,-118,536,163,-151,302,267,-124,173,72,-10,55,-55,166,36,32,119,432,-21,181,591,63,531,793,344,286,411,290,-152,240,170,97,-125
233581,-158,553,72,-120,296,195,-61,208,73,-3,50,-39,190,27,24,120,423,40,182,571,33,579,830,367,281,369,249,-117,199,129,34,-168
233582,-298,503,-149,-34,286,112,-89,168,60,-41,16,-9,157,31,-9,76,404,-30,197,583,18,584,906,383,301,393,279,-79,231,216,219,34
233583,-264,437,-181,-36,273,95,-182,140,72,-60,-24,-10,160,21,-8,26,353,-57,190,564,-35,578,873,384,280,377,221,-36,233,187,86,-94
233584,-172,348,-125,-160,266,119,-165,85,67,-27,-3,-63,160,31,72,-28,325,-120,193,588,26,585,721,362,294,406,234,-204,215,190,46,-82
233585,-148,330,36,-151,272,183,-139,56,58,-18,-34,-59,145,42,90,-137,342,-109,203,579,11,589,712,369,289,400,195,-192,172,145,14,-215
233586,-196,415,38,-132,255,237,-218,71,60,-28,36,-42,185,26,-16,-191,329,-43,207,585,-40,584,728,395,310,385,167,-57,236,188,34,-263
233587,-186,464,-44,-147,276,314,-259,75,44,-16,43,-54,181,-10,-115,-50,207,-90,168,544,-109,523,577,313,240,299,76,-382,60,20,-111,-511
233588,-108,370,75,-150,307,375,-249,80,45,3,-7,1,153,18,-91,10,158,-114,176,532,-83,519,552,291,226,265,114,-597,-50,-95,-178,-453
233589,-131,306,45,-190,291,337,-317,17,43,-2,-24,26,147,21,-83,41,159,34,172,552,-73,524,553,322,232,292,163,-504,13,-40,-78,-328
233590,-155,341,16,-250,293,378,-347,-30,50,-1,-26,-85,161,24,-55,100,325,-42,157,558,-52,531,601,336,250,332,208,-300,106,53,-19,-241
233591,-174,457,103,-213,314,389,-265,-3,41,49,65,-85,157,55,3,74,405,-196,172,554,-13,596,693,323,292,384,273,-302,124,114,61,14
233592,-123,594,200,-254,333,422,-173,-19,31,25,98,-52,157,54,4,52,257,-114,182,567,-47,603,710,317,288,367,245,-359,81,79,-2,-20
233593,-101,529,165,-275,306,397,-151,-116,18,-14,38,-73,93,15,-18,-12,221,-110,139,529,-82,558,712,261,207,298,145,-462,-45,-101,-184,-355
233594,-88,423,172,-154,320,414,-142,-57,43,31,82,115,84,21,-6,12,287,-98,135,520,-68,588,785,276,231,303,189,-433,-37,-80,-145,-426
233595,-134,377,118,-143,309,470,-151,-82,10,33,63,237,43,16,-32,45,368,-162,116,519,-30,494,729,249,245,323,231,-320,14,-2,-90,-341
233596,-196,444,104,-77,287,337,-139,39,33,-5,18,-4,98,13,-38,28,327,-192,105,525,-34,459,636,227,219,340,201,-275,53,25,-78,-245
233597,-190,523,91,-52,289,230,-176,90,33,-11,42,28,106,13,-13,45,330,-176,112,544,-33,504,667,254,228,332,184,-226,87,54,-39,-263
233598,-189,622,77,-58,300,164,-161,89,39,-11,37,23,128,28,27,63,396,-128,134,586,-16,544,694,278,259,374,243,-183,130,84,-8,-198
233599,-213,607,74,-76,305,165,-126,114,56,0,38,-109,158,33,16,97,343,-106,166,573,5,562,712,292,289,399,259,-218,138,108,25,-119
233600,-291,493,71,-105,308,255,-131,178,66,-6,-46,-162,166,38,6,156,328,-42,202,588,32,630,741,337,305,435,275,-158,219,176,73,-62
233601,-406,406,-16,-179,302,321,-167,247,67,-19,-86,-142,185,49,5,160,350,-31,231,601,29,632,806,338,321,433,311,-44,224,201,126,-13
233602,-497,310,-38,-123,295,427,-213,166,75,1,3,-57,182,56,20,105,301,-138,214,603,46,620,824,361,329,448,329,-42,280,267,245,172
233603,-368,313,34,-98,281,521,-236,122,57,9,9,-23,181,52,-13,216,336,-114,197,590,74,587,747,396,329,435,336,-111,303,272,223,195
233604,-186,267,102,-147,300,334,-114,20,59,-2,-49,-39,154,48,-45,409,435,-88,185,584,73,614,754,375,328,413,269,-12,282,207,114,-119
233605,-135,202,99,-187,325,290,-99,0,51,6,18,-54,144,39,11,300,367,-101,152,568,33,582,747,335,272,393,174,-73,168,76,-78,-400
233606,-141,156,62,-198,291,277,-173,53,33,-21,8,-112,134,18,-13,258,340,-135,151,548,42,545,706,294,259,405,279,-177,147,115,25,-161
233607,-81,222,141,-168,296,223,-277,107,36,-19,45,-105,132,18,41,221,337,-127,150,562,94,464,742,290,253,445,341,-358,117,123,142,-39
233608,-89,241,232,-163,287,277,-241,86,44,-10,-3,-94,122,19,109,42,294,-104,134,574,107,595,763,258,246,432,330,-470,44,55,84,-94
233609,-146,223,137,-200,281,330,-319,39,37,-14,-22,-34,120,19,119,-83,277,-2,121,584,80,672,680,284,259,431,324,-398,87,155,165,-31
233610,-195,351,93,-144,289,376,-350,-85,46,-3,68,229,59,31,42,-37,305,-67,140,578,68,660,625,311,303,470,352,-271,186,295,305,124
233611,-363,471,-126,1,278,410,-392,110,66,-3,100,45,109,25,-54,-131,308,-252,119,530,17,640,620,261,263,416,263,-244,109,179,82,-131
233612,-330,541,-183,7,263,268,-384,168,79,-27,63,-133,139,38,-32,-29,319,-223,106,535,35,602,563,234,246,382,264,-218,86,92,-35,-182
233613,-209,566,-128,-87,269,295,-301,-7,52,8,72,-127,92,21,17,53,343,-247,105,523,25,629,561,249,246,382,252,-168,79,36,-101,-281
233614,-120,574,-86,-220,255,371,-300,-81,10,1,73,-228,67,12,-17,52,285,-264,83,511,-27,601,542,241,226,348,197,-285,-2,-51,-166,-383
233615,-77,608,82,-313,281,270,-252,-89,-27,-5,-4,-282,43,22,-34,68,203,-276,85,520,-29,554,538,230,220,342,210,-353,-1,8,-44,-223
233616,-30,568,120,-298,286,116,-228,-44,-5,-37,-50,-328,99,28,-41,-31,117,-245,105,534,-32,459,551,235,234,333,183,-322,49,63,-3,-157
233617,0,514,63,-269,284,113,-253,-37,9,-16,10,-305,108,36,-35,-60,67,-224,101,556,-44,437,525,242,253,333,217,-391,73,108,92,-16
233618,-34,454,43,-277,301,286,-286,-20,14,-13,-66,-239,110,50,-63,-16,140,-222,105,555,-78,522,574,276,254,325,266,-373,89,117,97,115
233619,-143,418,-10,-286,255,321,-319,-8,12,-24,-168,-249,71,31,-73,-68,186,-241,111,550,-65,504,601,275,264,337,231,-334,117,145,91,89
233620,-217,380,-65,-218,254,374,-326,51,38,-31,-126,-232,70,21,-97,-80,210,-224,93,531,-132,431,590,246,220,265,57,-316,26,-37,-189,-433
233621,-304,324,-64,-64,256,476,-304,109,35,-14,-27,-231,103,14,-82,-71,160,-202,71,485,-154,329,594,206,193,230,-19,-337,6,-97,-277,-560
233622,-306,287,-57,-107,288,533,-311,57,30,-13,-40,-212,89,5,-58,-90,114,-228,71,502,-106,389,656,217,197,282,84,-278,68,24,-118,-275
233623,-307,284,-35,-119,308,374,-360,96,56,-27,-31,-171,100,20,-92,-95,148,-205,95,501,-103,399,736,242,238,285,57,-171,118,59,-94,-385
233624,-329,261,39,-180,297,257,-321,61,53,-18,1,-139,121,29,-61,-51,187,-183,114,514,-102,364,751,268,244,294,16,-206,150,66,-86,-447
233625,-275,281,71,-250,312,222,-281,22,49,-8,-29,-39,103,27,-11,5,313,-153,124,530,-49,375,810,263,251,319,101,-247,124,51,-57,-303
233626,-164,402,-55,-236,309,193,-274,-55,62,-10,-19,178,64,7,-28,4,340,-168,116,521,-28,361,785,251,234,312,122,-253,84,2,-133,-402
233627,-38,479,0,-127,292,206,-307,-30,58,-25,11,60,101,14,-44,20,275,-168,106,525,-13,423,719,239,221,325,181,-330,48,20,-100,-301
233628,-9,386,113,-99,328,214,-299,54,76,-33,18,-146,145,51,-10,51,283,-160,139,539,65,507,661,298,251,369,313,-283,103,103,35,-88
233629,-71,380,72,-163,317,298,-242,8,61,-30,38,-239,123,43,-8,79,227,-178,121,520,64,508,563,234,242,387,275,-451,84,70,34,-160
233630,-51,479,215,-150,320,329,-269,23,69,2,52,-276,133,47,-5,38,215,-161,122,506,0,545,634,239,274,355,167,-285,89,83,5,-221
233631,-82,370,292,-107,341,183,-378,26,79,-15,49,-265,137,45,14,44,234,-147,135,543,15,591,634,296,286,370,253,-191,154,211,164,58
233632,-161,292,96,-167,313,270,-493,40,38,-25,29,-243,122,16,-44,-38,234,-201,89,483,-45,539,612,257,222,315,163,-202,137,138,1,-137
233633,-189,330,37,-116,318,344,-503,146,63,-44,18,-203,158,8,-78,-56,230,-194,86,455,-148,434,637,230,158,238,-44,-251,35,-55,-235,-578
233634,-234,398,-96,-147,301,314,-430,173,79,-16,34,-189,138,23,-36,-56,217,-186,84,430,-114,462,565,199,140,240,-63,-426,-123,-147,-227,-535
233635,-309,481,-88,-97,271,349,-411,81,72,-22,-49,-185,129,28,37,-109,169,-120,90,462,-93,490,566,175,153,278,43,-410,-135,-102,-137,-344
233636,-389,498,-105,-33,296,260,-403,84,63,-38,-125,-230,141,21,24,-108,102,-116,74,463,-83,425,532,136,162,281,74,-616,-146,-88,-137,-262
233637,-396,380,-51,-91,296,339,-310,-21,61,0,105,-241,114,25,-4,-128,145,-279,93,456,-85,403,578,149,173,294,95,-540,-70,-43,-71,-199
233638,-214,383,0,-164,311,343,-176,-43,58,42,155,-211,108,45,-49,-148,180,-236,111,469,-88,464,528,166,181,290,65,-434,-42,-58,-145,-305
233639,-93,373,131,-226,299,234,-159,13,21,-2,28,-213,118,15,-74,-87,155,-254,91,443,-140,403,482,118,146,249,-29,-498,-110,-200,-320,-521
233640,-16,459,194,-201,307,204,-170,25,10,8,-2,-126,89,5,-31,46,100,-281,82,480,-87,403,493,145,178,306,42,-434,-23,-65,-138,-273
233641,-13,547,193,-194,334,225,-134,58,22,-18,53,-110,67,13,-40,40,146,-265,85,471,-83,472,497,149,150,294,44,-402,-33,-81,-136,-307
233642,-9,512,128,-241,304,245,-166,11,30,-13,67,-108,51,13,-43,23,265,-225,81,474,-86,475,533,116,149,262,-35,-359,-51,-120,-261,-433
233643,-56,348,-15,-188,301,272,-216,9,46,-33,29,-185,68,9,-75,-6,262,-179,74,469,-109,474,545,118,135,240,-46,-332,-71,-167,-283,-430
233644,-144,305,-116,-96,319,337,-258,66,50,-49,1,-206,76,19,-72,7,119,-249,55,442,-127,487,526,103,131,268,-5,-363,-85,-127,-211,-359
233645,-160,435,-73,-125,314,391,-292,35,42,-26,-41,-190,71,25,-78,2,93,-228,82,468,-99,467,605,153,161,305,65,-182,25,-30,-175,-434
233646,-194,518,69,-183,294,274,-219,36,39,-34,-59,-205,85,17,-64,-12,36,-222,108,470,-50,431,676,170,175,345,142,-173,45,-40,-174,-462
233647,-146,563,216,-231,306,239,-163,87,47,-19,-18,-110,119,26,-41,64,-91,-158,131,469,-20,446,754,181,176,346,109,-416,-17,-79,-157,-370
233648,-66,564,167,-224,297,315,-196,56,51,-20,-70,-59,123,18,-79,284,179,-129,97,496,10,458,829,189,193,355,159,-433,-52,-78,-97,-223
233649,-59,504,91,-203,305,432,-184,55,52,-19,-31,-158,117,24,-50,316,319,-194,114,487,33,467,719,188,204,371,183,-452,-1,-21,-8,-113
233650,-79,415,80,-184,321,491,-165,19,45,15,40,-168,93,29,0,270,273,-222,115,487,46,530,620,173,216,408,242,-405,42,26,15,-85
233651,-107,404,24,-113,326,416,-146,8,21,31,67,-24,68,19,-3,271,208,-228,111,515,59,534,581,174,227,418,225,-445,19,42,32,-86
233652,-161,389,-28,-134,316,376,-152,80,27,18,50,-7,51,30,-13,134,136,-232,117,525,70,468,537,169,212,416,205,-437,-9,51,20,-51
233653,-199,469,-14,-206,308,314,-95,79,34,10,4,27,35,45,-13,5,157,-248,116,534,62,555,533,207,227,441,233,-299,48,84,82,-28
233654,-147,560,129,-240,305,322,-185,11,55,16,-41,-13,51,37,0,-23,280,-302,91,462,-16,603,541,206,210,390,174,-344,-6,22,-5,-237
233655,-142,574,95,-204,301,369,-268,0,41,11,21,-126,89,13,-4,-30,250,-255,65,465,-50,611,503,133,202,353,92,-385,-32,-16,-121,-358
233656,-249,525,-3,-177,300,339,-289,47,50,22,26,-164,117,7,-9,17,188,-240,70,497,-39,578,530,136,205,391,135,-382,12,21,31,-180
233657,-318,359,-107,-124,313,348,-300,28,39,8,15,-157,85,-7,-6,-2,163,-268,65,492,-68,501,543,123,182,386,188,-374,-14,9,77,-28
233658,-322,212,-55,-118,313,430,-321,50,45,32,-2,-223,79,24,-12,-42,154,-213,62,504,-39,531,571,111,175,382,199,-367,-14,26,43,12
233659,-240,189,-5,-148,292,455,-340,83,48,17,-92,-186,125,17,-49,-80,185,-47,94,473,-64,490,610,126,173,322,111,-279,-11,0,-63,-277
233660,-80,302,85,-212,301,446,-296,71,39,30,-22,-190,98,4,-27,-35,193,-256,86,490,-11,557,594,120,183,364,140,-381,-4,49,33,-209
233661,-72,439,101,-220,310,340,-185,92,34,49,52,-199,87,35,4,8,136,-283,61,492,5,626,562,106,179,380,217,-442,-8,23,22,-127
233662,-103,461,137,-216,324,265,-183,101,42,20,51,-99,90,3,-6,2,82,-209,26,464,-72,609,590,105,114,235,21,-477,-132,-236,-317,-589
233663,-84,452,214,-215,310,223,-237,95,18,-4,-25,-77,66,-38,23,41,132,-219,4,438,-71,612,584,104,93,232,-3,-415,-135,-236,-274,-570
233664,-104,467,227,-217,310,197,-170,137,15,-11,39,-87,97,-27,-22,70,184,-205,43,449,-74,682,626,152,121,287,83,-248,-16,-92,-103,-374
233665,-233,463,43,-218,307,256,-131,204,22,-41,84,-131,109,-45,-148,54,166,-218,51,414,-132,637,617,141,115,283,82,-291,-34,-69,-130,-347
233666,-303,463,-39,-94,311,282,-250,227,66,-20,44,-120,136,-42,-125,60,234,-177,48,432,-105,561,612,157,123,325,101,-252,-34,-45,-67,-271
233667,-205,456,10,-39,304,331,-320,97,40,-13,26,-73,95,-34,-43,53,221,-175,26,441,-74,509,579,155,106,326,122,-311,-30,-37,-64,-252
233668,-91,482,192,-22,337,323,-218,81,56,21,80,-57,98,-7,-13,-33,262,-202,6,442,-34,620,644,166,144,327,159,-257,-17,-62,-98,-290
233669,-85,483,249,-62,321,320,-206,100,48,4,53,-19,111,-5,-32,-58,243,-192,24,430,-38,664,651,142,143,317,119,-336,-44,-70,-112,-288
233670,-78,540,185,-145,320,391,-185,74,46,18,102,-28,109,0,-12,75,242,-171,83,459,-20,711,644,175,155,333,137,-348,-13,-51,-111,-236
233671,-69,586,138,-155,320,380,-150,30,47,32,150,-42,100,17,33,151,232,-210,101,520,30,692,689,214,194,395,192,-338,32,26,-14,-112
233672,4,522,130,-200,300,329,-172,91,26,19,96,-99,97,30,10,217,227,-179,91,530,-6,678,717,211,203,379,184,-392,35,43,26,-49
233673,-30,475,126,-222,277,391,-216,88,31,22,108,-72,105,8,24,160,213,-144,67,487,-5,679,719,188,187,350,135,-425,6,-24,-22,-114
233674,-76,498,184,-195,301,504,-218,106,30,42,163,-48,94,14,46,89,222,-156,94,471,-32,686,759,197,156,317,33,-401,-78,-155,-237,-438
233675,-108,381,156,-236,311,638,-228,24,-3,52,171,-51,91,9,42,81,218,-173,81,480,-54,681,790,196,156,299,46,-350,-73,-156,-249,-450
233676,-61,430,174,-248,294,479,-258,-12,6,37,64,-63,78,-8,26,87,205,-192,66,477,-40,614,738,196,165,307,134,-314,6,-52,-56,-235
233677,-60,457,266,-211,324,361,-196,37,25,38,118,-1,97,13,54,114,150,-162,85,507,-8,623,697,230,195,357,190,-117,97,25,10,-119
233678,-52,459,255,-194,342,356,-154,-3,18,59,187,120,62,10,56,163,313,-207,91,522,31,647,569,211,189,394,206,-374,31,-23,-83,-140
233679,-32,548,275,-162,333,335,-89,44,18,39,136,41,92,3,54,138,351,-226,108,501,25,615,526,218,172,369,178,-430,-32,-20,-80,-210
233680,-61,577,261,-142,307,262,-30,95,19,13,77,-66,129,19,54,125,303,-184,98,486,37,608,571,246,200,372,227,-365,-6,54,75,-55
233681,-73,538,218,-91,320,217,-66,145,37,9,69,9,129,6,34,102,279,-166,73,494,13,628,600,244,200,376,209,-374,5,34,58,-197
