,Fp1,Fp2,F7,F3,Fz,F4,F8,FC5,FC1,FC2,FC6,T7,C3,Cz,C4,T8,TP9,CP5,CP1,CP2,CP6,TP10,P7,P3,Pz,P4,P8,PO9,O1,Oz,O2,PO10
47887,-184,-1,-79,-492,-248,105,-168,-25,30,55,74,172,147,-188,60,-2,-15,23,-119,-152,-250,17,225,34,78,17,-170,-176,7,-329,-190,-212
47888,-204,-18,-52,-389,-250,101,-173,32,55,48,74,48,166,-162,69,-92,-104,4,-122,-157,-287,-22,173,9,83,7,-208,-177,8,-344,-204,-234
47889,-101,-136,104,-425,-249,56,-227,-28,38,54,79,-111,155,-147,73,-166,-113,-2,-128,-140,-277,-24,155,19,98,16,-202,-167,8,-338,-190,-241
47890,-58,-84,199,-475,-257,29,-297,5,34,42,86,-79,182,-125,65,-154,-97,23,-96,-119,-262,-14,185,53,128,48,-162,-40,46,-297,-161,-256
47891,-69,37,245,-477,-281,-190,-361,34,31,20,-11,-92,176,-131,45,-124,-83,9,-85,-115,-250,1,132,37,136,62,-126,-27,49,-322,-190,-383
47892,-108,97,294,-460,-300,-92,-284,58,39,53,19,-32,188,-114,92,6,-105,26,-86,-91,-202,59,79,42,157,62,-66,-60,54,-302,-159,-390
47893,-171,64,284,-445,-279,-97,-280,72,33,60,93,2,197,-103,112,199,-58,27,-68,-78,-177,114,69,51,165,88,-65,-82,52,-284,-98,-268
47894,-149,22,337,-569,-252,-92,-173,-19,12,79,95,74,156,-102,120,114,61,18,-75,-77,-183,70,97,74,165,97,-75,-83,87,-253,-76,-223
47895,-224,102,233,-467,-276,-100,-69,38,25,59,70,104,146,-112,91,-48,101,1,-73,-92,-218,-55,100,83,170,86,-101,-48,126,-233,-88,-231
47896,-255,53,65,-412,-267,-102,-111,35,48,37,95,41,139,-138,77,-38,39,24,-61,-110,-265,-18,167,115,155,56,-180,-50,153,-202,-106,-294
47897,-189,-51,132,-430,-261,-62,-194,51,31,52,82,-46,174,-137,103,84,-23,47,-62,-107,-229,-3,172,132,164,72,-150,48,170,-172,-84,-313
47898,-244,-34,105,-397,-255,30,-139,58,44,56,85,-57,229,-138,92,10,-79,67,-63,-113,-231,-26,141,119,153,79,-95,22,141,-199,-60,-187
47899,-131,46,26,-368,-236,-47,-190,88,74,47,75,-48,252,-131,62,-99,-10,81,-43,-113,-251,100,167,106,139,70,-78,20,130,-194,-63,-58
47900,29,54,209,-474,-240,-53,-200,7,35,31,72,-40,209,-175,75,-115,2,58,-65,-133,-249,117,162,100,124,75,-89,-58,97,-223,-77,-49
47901,86,97,368,-498,-240,-55,-98,17,30,40,80,-38,196,-175,95,-57,11,65,-47,-112,-193,132,195,133,163,122,-42,-51,131,-187,-50,7
47902,-105,96,451,-439,-225,-52,-66,51,55,47,95,-155,228,-165,114,58,39,64,-34,-77,-137,181,224,148,172,169,10,-66,174,-160,-4,48
47903,-240,94,431,-457,-249,-67,-39,42,41,37,103,-205,239,-171,126,100,-14,60,-22,-83,-122,204,203,140,197,172,54,-97,181,-146,13,-68
47904,-99,84,334,-486,-269,-69,-47,29,30,43,112,22,206,-170,130,117,14,94,-23,-49,-78,219,238,154,232,184,106,-7,192,-129,30,-100
47905,-10,95,315,-445,-252,-49,-69,13,34,61,142,74,179,-168,163,160,10,82,-43,-36,-52,231,259,163,222,197,109,-18,192,-143,1,-40
47906,-23,54,304,-439,-249,-10,-119,33,23,59,140,24,163,-172,166,151,-7,50,-56,-41,-65,199,262,160,219,156,60,-88,170,-160,-6,6
47907,-102,43,271,-432,-272,22,-185,7,7,61,69,-2,137,-188,149,162,-32,68,-63,-43,-81,190,284,137,204,172,61,-31,188,-137,30,112
47908,-70,21,237,-383,-261,104,-287,33,5,73,27,-84,130,-192,126,281,-84,8,-92,-69,-110,207,191,103,180,145,34,-50,149,-170,-2,58
47909,-193,-92,147,-425,-254,200,-404,-97,-21,95,118,-144,70,-205,133,238,-77,-43,-110,-76,-129,203,66,55,163,131,-14,-80,109,-204,-37,-74
47910,-198,-100,82,-474,-246,58,-322,-191,-31,80,160,-50,60,-201,140,154,-68,-11,-101,-76,-112,162,136,72,173,142,28,-88,75,-206,-49,-253
47911,-162,-36,3,-468,-251,76,-267,119,-12,77,98,41,83,-190,144,199,23,-15,-97,-75,-124,223,181,71,181,151,84,-51,94,-208,-58,-293
47912,-324,10,-82,-310,-243,133,-160,77,22,101,116,-22,116,-161,173,136,9,-12,-76,-59,-108,227,162,75,197,169,66,-48,143,-149,-13,-101
47913,-260,87,-44,-281,-231,-64,-121,-195,43,103,181,-186,139,-130,221,16,-12,0,-58,-19,-59,239,184,119,219,186,63,-35,164,-139,10,5
47914,-328,-56,-11,-248,-239,-27,-164,-140,58,105,231,-320,150,-129,219,44,-14,-13,-55,-21,-62,210,150,121,211,162,51,-19,149,-169,0,-53
47915,-304,8,95,-298,-252,-50,-130,-85,37,110,207,-273,162,-117,201,144,1,12,-41,-14,-45,207,131,106,224,172,67,6,155,-169,26,-20
47916,-117,14,219,-415,-257,-107,-154,-43,26,80,140,-307,166,-114,171,127,-36,24,-40,-17,-96,155,77,108,204,158,34,25,148,-163,-4,-44
47917,-68,-3,272,-498,-263,-173,-166,-58,42,45,88,-94,170,-133,122,72,-107,41,-44,-74,-161,57,88,75,164,115,-10,4,95,-215,-58,-216
47918,12,69,367,-480,-263,-123,-114,18,44,50,105,39,165,-142,114,65,-60,51,-65,-105,-166,45,132,68,166,97,-8,12,112,-230,-73,-450
47919,9,145,383,-476,-243,-27,-20,17,49,72,144,70,166,-140,143,102,0,63,-64,-80,-150,154,124,97,172,102,13,-26,114,-219,-67,-416
47920,-92,73,258,-470,-236,-21,-33,66,70,71,141,15,207,-144,134,89,-37,76,-40,-82,-154,163,142,99,158,108,14,-105,119,-228,-72,-217
47921,-125,45,218,-452,-244,-20,-42,86,63,52,121,-39,200,-160,103,50,-42,83,-53,-122,-160,159,176,103,159,95,-32,-96,105,-208,-80,-104
47922,-140,47,204,-457,-258,51,-44,48,54,47,94,-55,167,-166,92,31,-70,25,-76,-118,-215,133,131,78,131,41,-90,-112,58,-242,-112,-32
47923,-164,101,217,-465,-252,-95,-69,29,42,38,56,-127,151,-171,99,41,-69,24,-76,-113,-179,145,110,71,127,51,-77,-103,69,-220,-106,-47
47924,-157,27,195,-574,-271,-87,-136,10,25,34,82,-230,142,-187,106,37,-40,-24,-113,-125,-192,128,55,51,130,53,-105,-104,59,-231,-104,-50
47925,-164,-40,208,-617,-249,72,-225,8,28,58,154,-14,131,-177,149,140,-9,-24,-100,-105,-189,75,51,39,131,49,-123,-73,76,-244,-115,-139
47926,-164,-182,233,-514,-229,233,-161,91,36,101,171,-29,122,-165,168,188,-28,-10,-99,-96,-170,151,95,55,130,44,-166,-76,75,-255,-120,-216
47927,-222,-136,175,-387,-235,238,-106,89,27,96,117,-184,115,-199,126,36,-49,-36,-101,-129,-188,144,85,33,116,34,-137,-111,60,-274,-132,-126
47928,-264,-109,168,-452,-222,240,-272,39,31,91,56,-125,115,-180,149,96,-60,0,-83,-109,-174,63,122,52,124,68,-85,-117,90,-251,-106,-100
47929,-168,-68,185,-503,-223,170,-403,24,37,112,102,-50,139,-139,181,130,-40,40,-62,-74,-166,142,178,109,165,102,-55,-56,127,-204,-68,-57
47930,-105,-87,26,-440,-240,144,-372,43,34,96,126,18,164,-147,145,17,-82,65,-54,-81,-164,138,167,100,184,98,-15,-58,145,-205,-90,-87
47931,-76,2,-63,-401,-262,33,-315,76,14,61,84,14,159,-162,121,-14,-47,67,-64,-65,-150,140,161,95,190,128,-14,-98,122,-204,-49,-49
47932,-119,76,46,-353,-246,-83,-179,119,76,56,80,17,209,-125,153,-5,60,90,-21,-41,-121,174,233,155,213,152,13,-22,178,-158,17,-5
47933,-150,157,172,-383,-249,-107,-72,5,66,67,96,125,212,-111,164,31,88,86,-3,-32,-116,175,246,155,220,161,41,5,215,-136,4,-5
47934,-74,166,239,-482,-262,-101,-18,-241,34,69,142,265,169,-104,180,117,96,101,-6,-24,-108,191,245,157,231,161,63,24,205,-122,28,-33
47935,0,153,294,-535,-267,-137,-80,-27,51,46,129,84,188,-105,168,84,37,98,-7,-59,-131,223,222,146,225,145,37,-9,176,-141,4,-149
47936,-53,119,384,-651,-227,-69,-114,21,44,56,117,-46,189,-113,168,44,-12,81,-16,-70,-132,140,169,142,226,131,41,-10,155,-168,-2,-228
47937,-112,54,317,-489,-218,-22,-156,40,50,59,74,-118,186,-127,121,78,-70,55,-44,-94,-184,37,148,130,203,114,12,-19,145,-196,-36,-132
47938,-152,17,272,-399,-233,-39,-394,1,47,23,47,-165,178,-148,59,-18,-127,20,-55,-136,-246,12,121,97,155,64,-75,-54,111,-226,-73,-148
47939,-134,13,256,-426,-252,119,-461,-1,43,24,22,-114,162,-160,53,-143,-113,34,-59,-136,-260,25,134,98,155,45,-141,-62,137,-216,-102,-205
47940,-187,5,116,-416,-288,-13,-302,0,39,5,5,-104,165,-155,51,-178,-67,30,-54,-144,-253,-82,200,112,142,49,-103,-155,120,-221,-100,-233
47941,-279,-167,18,-417,-290,-32,-266,3,25,-9,17,-178,150,-167,30,-149,-114,11,-89,-179,-278,-78,224,88,108,2,-118,-228,86,-276,-158,-287
47942,-232,-74,0,-464,-285,-85,-217,10,43,8,23,-367,172,-134,59,-57,-94,6,-81,-162,-245,-49,169,101,143,21,-85,-112,126,-263,-149,-183
47943,-335,5,33,-424,-267,-89,-208,-81,48,25,42,-237,148,-129,93,0,-41,2,-65,-128,-213,55,102,101,150,43,-22,20,114,-226,-77,-133
47944,-374,108,158,-397,-251,-76,-237,-163,29,41,73,-30,133,-134,96,59,-19,-4,-72,-99,-161,184,84,100,135,71,14,28,123,-208,-35,-80
47945,-169,117,186,-274,-235,-63,-356,3,52,45,108,-7,170,-127,101,91,-15,17,-74,-100,-152,187,103,84,128,79,25,25,126,-208,-46,-43
47946,-77,50,202,-336,-225,74,-365,-8,70,76,149,-78,162,-113,135,116,32,0,-63,-90,-178,171,138,99,151,71,-1,-9,132,-206,-33,-64
47947,-98,-7,236,-392,-245,71,-266,0,36,42,115,-210,136,-144,103,52,29,-40,-92,-132,-233,171,131,68,128,43,-60,-92,119,-197,-71,-266
47948,-109,0,244,-359,-239,-26,-128,58,40,38,112,-167,138,-154,94,9,-39,-26,-83,-142,-218,178,150,77,123,45,-28,-133,97,-232,-74,-309
47949,-116,17,127,-426,-224,25,-83,30,48,63,110,73,118,-135,120,36,-16,19,-84,-104,-177,187,195,91,148,70,-3,-110,95,-210,-42,-175
47950,-152,74,149,-475,-224,64,-61,-26,51,48,117,-99,130,-157,123,70,-15,21,-68,-96,-171,182,217,107,173,90,2,-52,112,-167,-7,-67
47951,-154,71,219,-464,-220,131,-27,-52,28,66,141,-393,113,-175,133,169,14,5,-78,-94,-148,186,134,96,186,106,-6,22,152,-168,-16,24
47952,-78,37,228,-482,-205,276,-47,58,47,111,211,-315,167,-140,187,200,28,36,-38,-60,-117,202,85,141,207,138,-20,50,188,-141,8,64
47953,7,22,262,-454,-223,31,-121,86,35,93,149,-170,193,-157,153,221,-23,66,-11,-59,-123,246,136,164,224,137,-29,47,212,-127,22,-11
47954,26,81,141,-399,-253,-59,-110,117,30,50,73,-50,200,-176,123,233,-27,82,-12,-72,-127,229,183,163,221,129,-37,-18,197,-147,-12,-144
47955,19,124,174,-434,-241,-35,-110,128,41,46,83,55,181,-169,129,162,-9,119,-24,-61,-144,215,235,172,218,120,-64,-50,183,-146,-18,-168
47956,-7,195,274,-386,-231,-3,-77,45,47,62,156,76,186,-170,151,187,-3,104,-13,-71,-117,169,294,166,229,124,-31,-43,178,-162,-45,-48
47957,-73,202,282,-433,-241,53,-71,-62,14,65,179,55,150,-172,167,239,47,77,-34,-82,-111,96,294,169,196,119,-46,-52,170,-167,-81,-87
47958,-155,162,258,-438,-244,36,-50,-46,9,53,150,30,122,-195,114,107,54,26,-66,-108,-210,136,214,136,146,59,-101,-61,137,-189,-79,-146
47959,-135,109,254,-420,-231,13,-30,-3,4,47,142,27,114,-197,110,101,63,-21,-83,-141,-229,145,113,116,136,51,-110,-47,125,-210,-96,-181
47960,-122,96,221,-498,-229,22,-18,-5,-11,46,134,-9,94,-185,108,67,-14,-32,-103,-152,-216,140,57,81,125,33,-99,-74,111,-231,-130,-174
47961,-117,171,206,-512,-231,-74,-3,43,-9,45,95,-60,120,-175,85,-7,-107,-2,-93,-155,-227,184,55,57,106,28,-79,-91,76,-253,-148,-210
47962,-174,164,197,-445,-247,-43,21,5,11,48,59,-49,138,-163,90,66,-89,40,-69,-148,-204,237,101,75,119,56,-28,-81,91,-239,-124,-116
47963,-249,119,286,-493,-252,150,45,-185,3,68,124,15,135,-154,125,141,-59,68,-86,-140,-183,233,137,82,127,45,-49,-50,93,-239,-123,-93
47964,-125,99,368,-568,-243,141,20,-203,-2,52,178,81,158,-162,115,105,-29,81,-83,-143,-212,122,149,88,111,7,-105,-73,68,-273,-156,-327
47965,-14,131,305,-501,-228,38,-37,78,16,46,143,57,188,-138,108,87,2,86,-65,-142,-220,112,158,108,118,21,-93,-89,98,-270,-163,-303
47966,-17,112,210,-475,-206,162,-100,123,46,65,103,72,197,-112,116,218,-9,100,-45,-118,-211,160,171,139,135,41,-63,-75,88,-279,-143,-182
47967,-71,105,181,-445,-233,85,-163,119,34,33,95,-102,184,-155,91,139,-64,61,-60,-138,-250,138,141,114,122,23,-72,-118,66,-294,-145,-150
47968,-115,3,203,-375,-258,1,-265,100,28,10,80,-219,146,-176,65,-104,-42,35,-107,-171,-296,185,91,77,87,-3,-141,-133,64,-298,-176,-180
47969,-97,31,254,-401,-225,26,-325,116,29,32,135,-173,155,-158,82,-110,0,28,-94,-156,-246,94,83,59,88,0,-115,-142,54,-302,-167,-180
47970,-130,-1,228,-386,-229,-7,-274,120,38,23,132,-118,146,-165,80,-25,-57,51,-99,-172,-243,53,96,65,81,7,-90,-225,66,-307,-154,-153
47971,-124,6,232,-313,-247,-138,-244,114,40,9,51,-22,151,-168,56,13,-78,59,-100,-187,-267,90,160,72,88,-21,-118,-175,70,-324,-189,-182
47972,-18,-14,269,-360,-241,-10,-203,27,39,24,95,90,154,-166,81,53,14,54,-88,-158,-252,127,195,91,82,5,-107,-49,106,-266,-121,-111
47973,-27,38,313,-367,-252,19,-147,46,51,19,127,48,144,-173,112,89,41,37,-105,-160,-212,181,161,80,95,33,-89,-21,125,-231,-108,-31
47974,-65,112,355,-360,-252,-48,-130,88,27,32,112,-82,146,-182,106,84,-18,19,-110,-149,-205,175,140,61,97,28,-78,-38,107,-230,-102,-67
47975,-36,85,328,-374,-240,11,-69,127,38,33,142,-146,179,-182,115,80,-7,42,-91,-114,-205,150,169,86,82,38,-53,-139,79,-275,-127,-157
47976,-86,80,283,-376,-223,93,-52,-23,35,46,158,15,168,-176,138,131,71,54,-97,-102,-157,172,232,87,108,43,-7,-173,76,-250,-99,-218
47977,-112,62,248,-391,-232,145,-61,-23,18,54,133,4,117,-185,132,146,77,26,-111,-116,-186,150,239,80,117,49,-25,-124,91,-241,-107,-171
47978,-113,83,247,-416,-242,10,-95,50,28,41,99,-70,116,-186,107,131,49,-3,-90,-139,-209,165,191,75,114,67,-42,-114,109,-235,-73,-121
47979,-107,-32,286,-353,-228,178,-79,109,60,56,91,-23,147,-178,109,136,-6,4,-83,-136,-223,130,162,79,122,41,-66,-87,102,-245,-89,-259
47980,-144,-19,278,-272,-233,25,-165,165,73,53,104,-26,162,-199,105,37,-69,-13,-105,-160,-259,118,129,67,84,-4,-147,-137,50,-293,-151,-366
47981,-192,103,169,-269,-220,-13,-220,137,64,51,94,24,146,-173,101,3,-79,-16,-107,-157,-251,94,131,73,84,25,-125,-111,63,-280,-158,-202
47982,-156,114,167,-327,-215,65,-191,149,56,77,122,-16,139,-159,120,23,-62,-34,-99,-131,-201,-27,75,73,94,40,-83,-45,103,-264,-139,-115
47983,-263,123,135,-313,-216,66,-188,125,74,81,127,-54,142,-154,119,-64,-50,-26,-98,-128,-230,30,33,62,101,12,-132,-91,77,-265,-147,-123
47984,-272,110,174,-403,-218,69,-184,160,55,81,106,-203,155,-157,106,-69,-58,-22,-96,-148,-258,40,28,64,104,7,-145,-156,67,-286,-165,-163
47985,-159,85,232,-488,-242,51,-112,10,17,52,53,-264,142,-176,116,4,-57,-37,-115,-133,-236,22,69,72,106,32,-152,-122,78,-271,-156,-178
47986,-102,92,294,-527,-234,34,-135,-91,13,51,78,-212,128,-166,132,70,-78,-31,-118,-119,-206,-12,79,68,112,30,-125,-81,94,-283,-140,-159
47987,-116,100,316,-567,-240,-5,-165,-55,17,43,88,-88,99,-174,103,50,-78,-58,-114,-134,-225,-50,61,69,93,25,-156,-84,92,-277,-183,-207
47988,-81,94,262,-573,-247,-42,-50,-10,8,36,64,-81,84,-172,81,-98,-59,-56,-110,-156,-292,-16,94,71,93,-4,-202,-65,110,-251,-168,-195
47989,-91,59,176,-522,-250,-43,-54,-22,29,39,53,-169,83,-171,66,-106,-66,-27,-111,-156,-301,-2,90,62,100,-15,-167,-82,92,-261,-181,-310
47990,-42,66,185,-526,-253,-93,-66,-44,23,35,50,-216,101,-155,67,-102,-54,-30,-120,-140,-278,-21,90,65,92,10,-143,-146,66,-288,-186,-368
47991,-136,2,130,-603,-272,-74,-92,-68,-13,19,54,-237,67,-162,71,-93,-75,-85,-144,-140,-273,41,61,38,75,2,-126,-159,48,-302,-180,-271
47992,-175,21,95,-595,-286,-48,-119,-60,-3,34,76,-216,64,-167,86,-35,-135,-66,-127,-132,-256,51,72,36,100,7,-109,-160,70,-285,-144,-112
47993,-216,18,68,-494,-259,-93,-158,-59,26,57,94,-136,88,-156,112,64,-104,-31,-108,-112,-239,78,117,63,126,64,-94,-153,107,-236,-92,-11
47994,-225,41,52,-460,-259,-14,-109,-305,26,59,97,-2,85,-157,150,152,-45,-6,-99,-87,-162,167,180,102,153,88,-36,-98,144,-226,-89,-59
47995,-209,6,-3,-516,-259,12,-133,-122,23,69,71,-126,122,-153,166,202,-71,-25,-84,-62,-133,209,166,118,163,106,24,-92,99,-240,-90,-176
47996,-220,-115,-16,-491,-241,93,-222,20,37,88,145,-202,135,-136,178,307,-53,-1,-53,-48,-109,212,169,126,185,126,79,-94,99,-211,-87,-169
47997,-308,-158,11,-478,-255,81,-318,0,25,86,137,-292,102,-169,148,117,-36,-13,-74,-78,-142,127,154,100,156,94,23,-125,116,-218,-97,-124
47998,-340,-182,84,-445,-262,53,-235,-5,2,68,132,-286,95,-174,141,-102,39,-53,-82,-86,-158,90,113,91,153,76,-47,-120,131,-224,-103,-172
47999,-169,1,165,-434,-264,1,-81,-32,-5,61,149,-249,119,-177,144,-71,63,-61,-84,-91,-164,111,168,127,156,90,-54,-63,180,-199,-66,-150
48000,-78,141,231,-431,-232,14,0,-12,36,88,157,-242,142,-147,179,66,20,23,-65,-74,-153,184,240,195,202,127,-21,-11,251,-143,6,-28
48001,-164,114,228,-441,-261,-7,-11,4,23,79,154,-406,135,-166,155,79,3,34,-56,-92,-152,174,260,194,175,117,-13,-3,237,-132,16,16
48002,-188,120,299,-422,-253,31,-20,47,54,78,148,-450,187,-145,134,88,40,60,-29,-81,-135,175,292,217,180,115,4,36,260,-118,23,8
48003,-161,98,310,-423,-233,122,-62,113,55,80,167,-290,232,-156,139,110,27,89,-13,-76,-127,182,276,223,191,145,0,80,265,-118,45,-100
48004,-166,56,261,-446,-250,162,-101,85,29,62,183,-63,199,-182,142,48,22,109,-20,-96,-148,144,289,206,177,141,3,64,255,-128,32,-208
48005,-105,112,259,-459,-251,-5,-140,71,42,54,161,0,206,-154,150,43,69,114,-37,-93,-118,129,305,215,183,147,40,59,272,-118,53,-161
48006,-171,100,186,-380,-220,45,-174,71,67,85,175,-17,208,-140,159,112,52,84,-25,-91,-115,136,282,199,191,137,60,32,263,-118,42,-191
48007,-351,16,141,-381,-249,114,-205,-71,34,55,151,-33,149,-181,127,132,1,36,-66,-105,-160,114,243,151,164,106,6,-44,195,-173,-12,-257
48008,-326,12,118,-391,-254,45,-183,-52,26,58,119,-84,126,-191,127,103,-38,2,-79,-125,-179,101,175,116,146,89,-13,-116,133,-227,-71,-191
48009,-179,55,176,-361,-229,51,-118,21,36,58,107,-114,150,-189,140,75,24,-4,-85,-111,-197,120,154,117,147,69,-48,-128,123,-239,-107,-81
48010,-143,65,194,-384,-226,73,-81,26,31,49,111,-90,141,-173,128,44,31,-2,-92,-109,-215,139,175,119,123,80,-86,-136,105,-255,-104,-103
48011,-146,-33,209,-460,-244,241,-74,13,32,92,142,-107,130,-176,142,43,-52,27,-109,-107,-222,164,199,88,113,65,-97,-119,88,-279,-146,-300
48012,-148,26,235,-480,-232,111,-111,23,50,88,130,-57,158,-162,154,151,-81,43,-99,-93,-182,67,214,126,109,47,-46,-135,75,-304,-152,-423
48013,-200,21,262,-485,-248,75,-173,33,31,108,141,-49,160,-161,149,179,-44,18,-106,-109,-187,67,173,105,109,49,-84,-191,34,-343,-198,-415
48014,-173,41,298,-502,-238,107,-196,35,28,115,172,-67,148,-167,184,128,-23,16,-111,-100,-209,160,152,97,110,67,-114,-172,48,-326,-184,-288
48015,-137,68,264,-476,-224,40,-153,40,39,113,145,-28,154,-154,184,109,-46,16,-106,-90,-161,61,97,90,109,84,-93,-144,58,-309,-145,-127
48016,-119,31,233,-481,-212,72,-86,45,52,103,142,7,148,-156,184,56,-43,23,-101,-93,-152,74,88,83,116,60,-91,-97,74,-274,-122,-32
48017,-91,5,213,-514,-207,91,-3,24,28,106,147,-28,134,-196,155,4,-29,31,-96,-110,-191,56,93,86,109,44,-120,-152,72,-278,-117,-20
48018,-160,71,212,-504,-240,43,-17,34,24,96,113,-109,108,-201,141,-21,-11,21,-125,-141,-229,39,95,71,83,5,-147,-172,52,-332,-183,-170
48019,-220,94,205,-444,-211,45,-7,43,51,99,69,-133,140,-192,151,54,13,13,-109,-133,-215,58,82,76,94,-1,-141,-137,51,-328,-195,-197
48020,-230,48,170,-411,-218,69,-27,74,46,91,78,-149,161,-192,128,22,-51,3,-109,-151,-238,55,78,71,87,4,-129,-158,16,-316,-184,-231
48021,-347,72,146,-413,-225,40,-88,78,39,62,85,-138,168,-206,104,-10,-142,-2,-99,-153,-259,14,67,63,76,-7,-146,-121,26,-331,-173,-250
48022,-280,92,154,-414,-238,11,-97,66,46,56,87,-132,174,-194,114,6,-108,-3,-103,-147,-249,17,81,59,102,-13,-144,-118,35,-324,-169,-215
48023,-142,40,151,-386,-243,-19,-111,69,57,75,114,-147,172,-168,154,56,-29,-29,-104,-113,-208,29,70,81,132,24,-109,-104,48,-294,-150,-182
48024,-98,-33,116,-471,-256,31,-135,-29,23,74,80,-130,112,-184,137,17,-66,-74,-115,-114,-223,40,65,49,106,9,-127,-250,3,-330,-176,-295
48025,-192,-21,72,-429,-250,21,-115,-16,20,67,63,-177,103,-177,130,-31,-81,-49,-123,-130,-274,42,122,51,111,14,-160,-315,-12,-356,-203,-295
48026,-203,23,54,-409,-243,-50,-139,28,29,71,61,-221,124,-154,133,8,-87,-32,-104,-108,-269,23,131,58,111,26,-169,-260,27,-344,-191,-219
48027,-179,-32,1,-418,-251,-12,-192,38,45,50,50,-231,124,-168,120,-13,-58,-32,-95,-110,-270,1,123,53,121,42,-189,-182,35,-337,-180,-238
48028,-212,-13,-15,-410,-259,44,-211,68,32,30,23,-356,140,-190,106,-69,-27,-65,-111,-138,-280,-15,64,40,108,5,-216,-127,30,-340,-180,-278
48029,-212,1,6,-421,-255,29,-198,87,21,32,13,-498,158,-170,95,-55,-46,-105,-125,-140,-269,-46,5,34,125,5,-191,-120,29,-318,-174,-259
48030,-222,3,0,-448,-270,10,-204,17,33,39,31,-366,129,-166,104,-42,-85,-69,-114,-120,-234,25,44,56,148,45,-156,-88,69,-278,-133,-265
48031,-250,14,1,-467,-266,10,-195,-86,29,56,70,-101,125,-156,107,37,-58,-47,-88,-77,-217,12,90,87,160,69,-98,-47,119,-222,-80,-225
48032,-301,22,-13,-483,-259,-24,-168,-142,40,68,58,6,144,-120,131,208,-27,6,-54,-63,-167,132,176,139,210,93,-27,-26,184,-159,-4,-79
48033,-293,-69,-14,-462,-260,9,-184,-309,40,66,5,-1,123,-122,120,208,10,14,-41,-66,-176,165,244,143,213,109,0,-66,191,-110,9,-60
48034,-266,-68,66,-452,-279,-1,-186,-305,21,67,51,-55,106,-145,128,116,61,14,-56,-62,-165,129,283,140,209,116,-14,-92,153,-156,16,-181
48035,-266,-6,103,-490,-251,44,-119,-396,21,87,156,-108,98,-144,171,58,48,12,-67,-47,-137,126,202,126,201,124,-5,-70,139,-201,-28,-269
48036,-252,86,154,-443,-248,25,-121,-114,35,88,172,-248,114,-151,186,182,-3,-57,-72,-41,-120,92,78,88,203,137,39,-14,154,-168,-8,-352
