,Fp1,Fp2,F7,F3,Fz,F4,F8,FC5,FC1,FC2,FC6,T7,C3,Cz,C4,T8,TP9,CP5,CP1,CP2,CP6,TP10,P7,P3,Pz,P4,P8,PO9,O1,Oz,O2,PO10
30724,-227,-111,-86,110,48,386,-54,340,19,-49,432,-308,192,71,218,113,-200,-20,125,199,57,150,268,112,222,104,275,69,185,309,87,-78
30725,-185,-71,-106,113,52,407,-1,318,10,-51,409,-305,160,57,237,101,-163,-47,110,204,49,158,261,96,188,87,250,3,94,219,33,-145
30726,-136,-52,-113,108,64,434,25,346,-3,-30,441,-245,123,55,278,181,-131,-19,110,215,115,188,294,99,209,118,318,-6,54,228,76,-101
30727,-106,-38,-59,145,90,432,34,386,16,-10,450,-210,185,73,295,227,-109,36,121,235,125,196,380,139,236,143,350,38,85,241,72,-76
30728,-72,-6,-29,168,87,449,49,403,42,3,447,-217,177,72,297,223,-82,13,127,241,115,192,350,140,242,164,316,103,151,263,83,-85
30729,-58,19,-25,174,104,458,80,405,47,2,458,-220,167,71,318,277,-111,13,144,269,164,227,332,148,261,206,364,110,165,317,104,-67
30730,-85,28,-40,149,101,458,72,420,45,12,431,-201,202,71,322,300,-72,65,151,292,240,303,409,182,283,258,451,157,225,374,172,15
30731,-82,33,-57,154,88,457,64,409,58,3,413,-150,209,86,354,260,-33,118,164,284,217,304,449,203,310,246,448,180,283,426,228,16
30732,-27,53,-4,144,94,472,47,367,34,-2,414,-133,171,56,342,237,-28,89,141,280,167,297,436,192,304,219,353,107,227,409,211,48
30733,23,109,40,190,143,514,89,414,38,14,498,-106,171,58,325,234,-5,119,136,284,194,349,428,167,319,251,419,107,193,372,192,43
30734,18,116,23,191,139,519,124,447,40,-4,555,-92,197,52,298,122,27,125,148,281,218,368,494,199,318,246,452,173,256,381,204,42
30735,37,94,10,194,143,534,128,446,47,10,528,-75,197,80,350,240,60,129,156,302,223,390,503,248,339,276,469,238,319,436,237,65
30736,45,109,5,218,145,528,154,476,54,22,531,-84,206,110,356,327,44,122,183,324,243,423,456,222,354,279,478,187,274,418,228,103
30737,50,116,-6,188,131,516,133,469,42,11,532,-103,207,99,318,373,15,93,167,311,257,394,444,209,348,258,500,148,238,385,242,148
30738,51,136,19,196,124,474,99,418,46,-9,466,-106,205,102,321,351,7,130,155,308,231,334,465,209,358,276,508,185,241,390,242,92
30739,74,165,30,226,148,508,116,381,71,9,463,-92,194,110,364,302,26,142,167,303,236,281,473,212,357,259,495,171,254,401,218,13
30740,73,149,30,223,175,505,88,402,79,6,480,-91,213,112,338,241,19,113,183,298,229,309,496,220,372,249,461,143,280,394,243,22
30741,60,150,-1,232,169,487,105,422,90,-35,482,-83,211,93,240,213,-24,125,178,276,201,341,492,218,360,234,424,126,241,366,220,16
30742,87,172,46,234,166,483,108,437,104,-15,465,-130,226,107,281,305,15,104,186,275,178,382,447,203,335,232,418,157,228,408,229,63
30743,49,138,35,222,150,454,75,434,89,-44,447,-122,239,99,269,244,-1,101,198,267,154,322,415,196,314,213,433,119,181,350,198,28
30744,5,119,-13,217,139,440,15,430,99,-54,438,-77,238,94,268,160,0,114,208,274,139,283,432,197,314,198,419,105,165,317,159,-53
30745,17,136,-23,194,138,433,55,421,96,-47,461,-98,244,115,243,172,-27,123,218,261,106,281,420,194,322,159,341,89,166,307,145,-5
30746,7,123,12,223,132,414,65,426,102,-49,450,-140,252,115,242,172,-20,118,221,256,87,285,440,218,337,136,328,119,205,363,192,39
30747,18,107,37,252,145,403,0,425,121,-51,468,-127,255,122,246,219,-22,127,219,250,97,314,439,212,328,169,381,93,191,361,196,99
30748,-13,82,23,233,142,394,-28,416,118,-71,399,-125,239,111,210,171,-10,105,202,228,65,285,448,188,311,142,412,75,166,306,157,7
30749,-7,68,-5,213,129,388,-57,424,111,-84,340,-122,238,113,213,185,36,98,199,238,76,237,473,198,307,111,386,98,184,292,127,-88
30750,4,77,-24,197,137,386,-18,427,93,-77,377,-124,233,128,220,208,25,46,196,233,98,269,450,204,321,122,301,144,208,336,157,-52
30751,-28,53,-50,204,105,385,-14,430,56,-82,393,-172,226,118,233,195,41,48,196,234,87,281,436,186,312,122,335,165,207,335,136,-24
30752,-31,61,-15,205,109,387,-7,460,70,-66,385,-185,231,114,282,252,27,97,206,252,85,286,422,179,343,107,351,149,210,346,117,-35
30753,-76,19,-51,163,105,372,-37,398,66,-61,376,-215,202,118,250,222,-13,81,182,232,61,282,381,157,312,114,346,40,130,311,103,-41
30754,-133,-15,-97,151,93,369,-90,331,67,-67,397,-144,208,121,191,205,-24,73,202,257,73,275,379,200,328,139,373,136,199,355,160,1
30755,-162,-60,-109,147,74,372,-90,306,56,-68,395,-179,214,121,210,212,-13,55,209,271,124,260,394,213,341,163,420,200,241,420,218,59
30756,-120,-27,-46,160,78,390,-55,262,65,-49,383,-202,211,115,284,170,30,43,218,255,121,258,407,211,357,149,356,168,248,430,252,112
30757,-116,21,-46,178,85,448,11,404,83,-20,408,-179,240,129,300,186,26,104,218,248,71,315,475,220,348,126,367,194,259,437,270,143
30758,-70,43,-8,171,90,479,33,481,52,-19,440,-150,230,129,311,237,41,119,215,253,58,351,464,221,317,107,368,181,237,380,224,74
30759,-62,58,-9,163,101,480,81,413,57,-30,521,-192,214,99,236,294,-1,80,210,232,95,349,397,187,305,100,364,213,241,366,179,74
30760,-78,78,-59,159,103,477,87,383,58,-8,470,-237,219,101,268,260,-17,80,179,225,81,358,422,205,313,99,366,179,241,357,174,112
30761,-84,94,-71,145,100,483,103,384,49,0,485,-206,225,97,311,279,-27,102,185,244,90,341,453,226,309,135,378,191,274,394,199,100
30762,-107,67,-102,131,100,510,148,351,70,16,560,-201,201,116,319,305,-14,68,185,248,140,339,462,212,314,158,397,257,321,433,240,119
30763,-180,-14,-173,102,81,466,86,305,48,-7,533,-242,184,122,328,230,-52,-4,183,257,129,286,420,184,309,146,409,273,336,465,283,145
30764,-224,-78,-169,90,60,432,20,287,31,-19,503,-274,159,122,290,52,-111,-35,164,245,88,231,386,153,284,127,386,200,280,412,245,108
30765,-164,-40,-110,120,68,441,73,331,55,-20,499,-251,165,112,236,180,-79,-12,166,240,86,240,362,128,262,98,344,150,197,349,179,45
30766,-135,24,-88,121,81,467,104,350,66,1,528,-225,182,117,318,248,-58,5,166,267,117,290,371,135,281,123,367,96,153,317,178,42
30767,-103,46,-103,120,94,486,113,356,47,19,542,-199,193,116,303,267,-2,8,145,255,131,317,371,122,308,115,356,112,146,294,118,10
30768,-94,50,-131,99,71,470,120,324,29,9,517,-228,152,86,282,313,48,-20,138,235,95,269,374,136,294,108,318,181,171,285,70,-51
30769,-90,63,-95,114,89,460,147,349,41,4,522,-206,178,104,298,263,29,44,158,259,75,266,421,169,320,120,328,182,208,312,112,-33
30770,-84,67,-77,126,99,470,163,385,33,-7,533,-173,187,102,292,244,8,60,174,260,114,238,402,158,315,152,346,142,200,342,161,15
30771,-63,81,-50,107,87,471,138,324,13,4,511,-180,152,82,285,238,63,0,130,259,125,278,385,143,290,151,366,132,139,299,138,7
30772,-46,64,-97,107,76,465,122,319,12,-20,516,-152,154,80,300,270,13,38,139,257,105,269,418,151,276,126,354,111,123,300,109,-13
30773,-40,96,-67,131,97,481,160,376,42,-9,512,-112,188,87,276,287,26,94,168,270,128,269,442,187,289,150,394,176,167,329,126,-5
30774,-26,116,-44,136,112,500,195,409,54,-6,526,-104,187,69,290,270,77,87,166,265,128,304,462,180,288,138,362,213,185,329,136,-5
30775,-41,98,-26,102,105,485,191,360,24,-26,548,-131,167,52,286,280,70,95,141,243,99,320,473,175,280,141,349,212,184,323,103,-1
30776,-50,97,-41,135,101,469,129,344,35,-33,524,-138,192,77,269,289,57,108,179,265,93,289,486,208,287,160,379,245,240,349,132,-24
30777,-30,91,-44,164,114,475,138,393,56,-24,537,-126,193,88,293,213,42,91,179,256,113,235,416,167,250,144,338,194,197,310,122,-48
30778,-28,66,-36,154,102,486,147,378,38,-34,525,-143,182,77,267,215,0,55,141,233,116,219,410,117,225,125,317,87,122,275,89,-72
30779,-52,29,-75,131,76,445,57,358,34,-54,486,-214,172,77,243,192,0,0,133,226,97,223,402,109,230,132,337,114,154,311,124,-13
30780,-54,23,-82,141,110,460,20,395,54,-24,488,-230,218,91,251,204,1,49,158,239,127,217,382,139,260,170,381,165,195,353,173,30
30781,-65,31,-75,129,86,433,41,358,41,-31,388,-159,163,78,239,177,32,53,158,246,100,231,417,156,266,182,359,169,179,354,170,1
30782,-39,87,-45,155,105,430,66,331,41,-18,407,-149,132,89,261,156,12,34,163,251,111,236,415,153,276,172,363,174,222,357,161,-33
30783,-14,87,-52,190,123,456,65,371,52,-2,450,-175,203,118,282,213,3,123,173,260,142,219,463,176,299,195,376,195,247,401,192,-66
30784,-26,62,-70,152,106,451,55,376,43,-25,439,-194,178,115,268,274,-35,96,171,256,121,202,410,162,287,194,336,55,153,351,206,63
30785,-44,52,-117,117,86,428,8,335,41,-15,394,-202,158,104,271,217,-56,36,152,251,92,192,354,127,260,167,358,39,68,278,96,-21
30786,-52,39,-114,108,88,420,-20,334,31,1,335,-214,157,96,300,162,-84,59,145,242,39,150,357,113,242,129,312,1,12,187,-28,-239
30787,-81,19,-131,105,107,432,-26,308,29,3,370,-235,152,97,334,206,-76,61,166,261,83,179,334,135,257,137,284,29,69,245,23,-176
30788,-100,24,-141,114,116,428,-13,299,30,-27,406,-191,140,100,255,239,-35,46,159,258,88,181,384,161,270,149,265,91,115,264,51,-140
30789,-108,24,-129,125,111,417,-7,305,36,-9,423,-224,135,81,235,217,-83,20,159,263,77,162,340,144,280,146,287,53,121,268,58,-102
30790,-119,7,-142,110,90,400,-10,303,24,-10,389,-244,138,91,251,229,-108,17,155,272,111,177,345,155,290,190,338,95,163,338,108,-66
30791,-89,10,-124,161,101,408,-19,285,46,-32,426,-258,154,112,227,257,-115,32,160,297,143,204,352,164,310,205,383,28,91,277,121,-77
30792,-83,-16,-129,159,103,364,-40,214,42,-41,405,-280,151,90,225,212,-128,-9,128,275,83,208,285,122,291,182,315,-41,44,221,79,-59
30793,-99,-25,-178,149,92,346,-42,284,55,-30,391,-267,153,99,218,194,-132,0,163,262,93,234,297,145,306,189,349,9,61,267,113,-18
30794,-83,-6,-120,137,108,359,-55,408,36,-32,387,-230,178,120,225,172,-98,50,187,274,104,236,349,167,311,189,375,43,106,287,125,-44
30795,-121,-44,-81,119,82,335,-76,378,21,-58,363,-223,159,96,201,131,-87,26,162,254,63,214,341,158,295,181,325,101,166,309,121,-49
30796,-129,-34,-147,97,62,320,-107,300,11,-74,350,-260,129,98,201,128,-70,16,158,240,72,201,330,142,304,175,314,113,166,335,141,-51
30797,-124,-28,-135,89,45,326,-87,298,1,-58,365,-265,131,112,249,139,-98,19,149,253,81,202,330,147,302,196,357,91,162,343,180,28
30798,-145,-58,-110,100,49,327,-109,333,11,-43,391,-275,139,108,254,65,-123,2,143,260,96,189,331,149,292,208,399,37,118,322,182,16
30799,-137,-61,-112,112,61,319,-88,349,22,-62,358,-256,137,111,215,105,-132,26,158,251,74,197,351,144,309,207,396,3,103,324,189,-9
30800,-98,-23,-107,134,79,359,-25,355,13,-35,351,-239,137,140,243,193,-68,25,177,292,111,253,342,150,335,236,396,86,163,377,222,27
30801,-118,-10,-113,127,57,378,1,296,11,-25,405,-241,142,143,275,240,-30,40,197,318,188,301,363,171,380,267,430,119,202,415,275,80
30802,-93,12,-70,139,73,396,43,324,42,-19,442,-160,142,144,292,307,20,35,214,341,197,328,392,200,381,290,470,157,255,458,305,116
30803,-91,15,-73,121,48,383,55,362,24,-25,424,-107,155,141,303,319,-20,53,203,334,182,301,461,224,394,298,455,139,290,480,323,133
30804,-89,-15,-55,114,30,366,22,348,11,-46,426,-188,182,131,284,247,-53,92,219,330,167,288,478,239,405,294,472,182,316,457,289,83
30805,-84,9,-32,113,47,370,2,355,9,-37,403,-252,159,113,288,175,-22,32,199,309,184,248,387,200,374,276,453,211,285,437,252,27
30806,-83,39,-78,101,61,422,44,345,17,-15,463,-241,153,139,334,244,30,61,213,353,236,261,407,221,397,314,478,216,301,453,277,94
30807,-38,55,-37,114,64,422,74,369,22,-15,500,-218,174,138,310,316,62,68,222,351,229,252,438,235,412,317,496,256,318,485,293,110
30808,-37,46,-5,114,66,397,46,362,28,-44,440,-195,183,101,270,361,26,58,207,299,113,247,457,222,383,262,408,222,302,478,280,126
30809,-23,55,-8,135,83,436,45,405,37,-29,461,-170,209,122,276,292,0,78,226,288,113,274,480,231,382,240,379,206,311,447,233,115
30810,-2,60,-24,165,95,450,67,446,33,-20,469,-199,218,121,288,196,8,77,217,289,118,308,409,201,357,211,377,191,291,391,165,71
30811,-15,60,-20,136,77,428,29,340,31,-9,457,-192,148,132,322,165,37,53,211,268,109,288,402,181,324,190,345,227,291,403,153,16
30812,-29,44,-30,131,67,443,55,334,22,3,437,-218,136,119,372,179,5,20,193,281,122,234,381,181,323,193,310,244,305,417,162,-17
30813,-33,35,-19,144,72,412,71,353,36,-19,358,-212,165,110,304,221,-15,17,193,275,118,214,398,190,329,193,335,222,312,392,143,-11
30814,-36,23,-33,119,47,397,73,343,28,-13,406,-236,140,82,258,192,-44,-1,173,254,110,165,405,173,305,165,338,200,305,370,121,-15
30815,0,10,17,133,61,378,9,385,48,-45,454,-215,156,84,242,210,-33,6,190,242,113,164,390,144,296,146,320,184,265,349,121,11
30816,-52,-27,-6,134,47,357,-40,375,46,-53,370,-224,144,78,231,174,-51,-2,158,214,58,156,363,118,255,105,236,48,139,256,58,-30
30817,-91,-15,-70,130,50,380,-23,383,39,-39,346,-231,136,84,259,119,-33,-8,143,197,30,149,267,92,240,86,255,25,74,220,44,-57
30818,-82,-34,-74,137,49,394,-59,364,25,-30,396,-228,152,86,271,116,-39,-8,150,224,53,187,299,107,253,119,283,64,91,261,91,-1
30819,-47,-19,-45,170,80,419,-8,388,45,-31,490,-231,173,75,223,158,-46,30,162,231,76,211,338,143,277,158,296,98,144,319,135,77
30820,-56,-4,-63,150,69,424,22,407,33,-32,477,-199,192,62,228,204,-53,65,182,235,74,241,383,144,284,142,319,78,137,308,147,70
30821,-49,11,-8,132,68,450,64,367,27,-16,487,-188,169,77,269,227,-44,20,176,251,95,244,381,156,305,149,342,71,165,292,126,9
30822,-46,21,4,157,72,453,66,377,40,-10,502,-197,175,85,284,248,-48,-4,168,263,126,205,318,133,302,164,340,132,189,324,139,-24
30823,-39,33,32,173,102,454,47,408,46,1,507,-178,184,92,293,246,-52,39,183,266,148,197,355,163,328,183,344,130,196,367,170,22
30824,-50,26,18,200,103,451,51,410,49,-18,472,-205,179,88,266,265,-92,57,178,263,139,223,349,155,324,191,349,158,205,361,139,5
30825,-9,20,-3,216,103,447,60,395,66,-23,464,-204,186,92,274,227,-64,42,185,268,120,260,372,154,318,172,326,142,175,297,82,-51
30826,-38,-2,-17,199,99,409,20,391,45,-30,456,-256,171,81,308,205,-69,-14,162,268,94,203,322,111,295,156,261,74,127,267,68,-22
30827,-20,40,0,180,89,407,34,310,55,-45,450,-287,150,85,296,247,-49,-67,157,261,107,219,240,100,275,140,280,137,157,301,84,-45
30828,-20,36,-25,194,107,406,48,249,59,-39,441,-265,144,90,234,240,-112,-20,174,240,82,226,302,122,265,137,254,188,184,332,86,-42
30829,-44,22,-98,201,106,406,37,371,69,-32,449,-241,159,98,217,245,-85,-1,191,267,98,234,347,153,290,145,272,298,262,392,108,-48
30830,-12,46,-16,153,86,399,15,448,45,-34,441,-264,144,110,245,200,-55,-9,167,248,98,210,297,139,277,133,265,244,248,366,91,-73
30831,-22,25,-7,167,95,426,54,356,33,-28,446,-253,127,96,260,30,-91,-35,148,236,109,231,292,126,232,114,282,57,175,328,79,-50
30832,-32,17,10,190,99,415,33,394,46,-42,409,-248,146,88,248,134,-57,-10,166,246,111,283,311,140,258,121,290,43,154,334,99,-24
30833,-17,9,-2,193,97,439,14,409,51,-23,440,-257,157,110,298,224,-31,4,176,286,156,319,271,127,275,172,371,94,119,337,133,45
30834,-10,26,16,197,93,420,59,427,42,-23,481,-196,177,121,245,302,-17,14,172,280,164,346,333,123,280,188,455,88,88,343,141,70
30835,-13,49,13,193,79,424,105,449,35,-39,472,-170,190,115,217,312,15,56,188,274,159,344,380,137,309,195,410,112,102,328,167,73
30836,20,74,26,209,87,433,62,428,57,-43,453,-156,193,102,268,320,37,84,214,291,178,361,395,174,335,221,359,181,148,330,172,123
30837,75,103,73,230,113,445,94,453,64,-18,482,-113,205,102,280,367,64,120,232,310,224,389,454,209,349,257,432,251,237,403,202,144
30838,102,133,115,253,133,474,145,473,75,-7,534,-72,236,112,302,401,124,147,255,342,245,431,506,249,396,294,490,352,332,489,298,170
30839,108,140,116,257,131,485,144,474,91,-11,529,-89,238,110,323,403,166,179,267,352,255,441,556,292,421,329,495,386,407,551,361,206
30840,63,116,71,262,115,482,106,495,93,-11,548,-94,258,128,365,386,150,223,283,396,278,434,614,349,425,374,548,409,456,618,411,301
30841,26,79,33,210,94,460,53,471,55,-23,583,-88,248,121,377,367,117,205,282,400,306,434,598,322,445,396,585,399,454,635,446,320
30842,23,67,65,235,84,453,91,469,61,-7,496,-19,247,147,356,342,149,179,282,418,315,468,629,308,432,400,603,250,350,556,439,324
30843,28,54,62,231,76,437,94,480,56,-7,467,-32,276,157,357,314,165,233,289,408,279,445,643,326,430,368,568,277,324,526,382,237
30844,47,51,51,197,66,420,60,467,45,2,424,-88,257,141,349,368,164,195,274,391,246,441,516,312,427,341,513,314,320,491,323,190
30845,38,40,80,196,71,424,50,482,46,16,451,-50,264,174,382,352,165,178,288,421,247,431,473,307,439,349,533,387,378,521,323,183
30846,40,21,60,196,82,436,80,448,37,-5,479,-98,232,157,343,319,91,156,266,399,279,401,488,285,417,371,529,281,354,505,340,176
30847,42,10,86,201,95,440,58,456,45,4,485,-88,226,143,326,357,55,146,261,405,270,373,459,281,412,359,511,246,311,486,326,178
30848,0,-44,20,160,61,406,-9,417,25,-13,436,-126,177,129,323,291,61,107,227,362,189,317,459,250,401,313,473,223,294,443,293,145
30849,-39,-59,-14,172,46,400,-24,393,19,-9,445,-141,162,147,299,284,28,86,210,336,192,260,437,212,364,305,471,122,221,374,251,118
30850,-38,-55,-15,166,56,390,-33,392,17,-11,430,-142,139,116,306,206,41,51,185,339,173,246,371,176,342,293,447,108,206,379,244,106
30851,-53,-55,-21,147,69,399,-28,369,12,-15,444,-187,137,116,324,246,-31,-5,178,326,187,297,316,151,325,278,470,130,187,396,231,90
30852,-25,-49,-17,159,72,378,-33,379,42,-20,408,-164,161,119,245,227,-16,41,184,300,158,280,348,166,322,254,436,145,187,375,245,114
30853,-33,-66,-51,136,69,378,-22,344,34,-32,410,-200,126,110,265,200,-40,11,178,303,175,245,305,140,309,267,435,116,188,367,243,113
30854,-63,-74,-45,120,43,379,-35,346,21,-33,425,-187,137,95,282,225,-62,-2,189,314,189,240,351,132,320,248,443,101,176,384,239,118
30855,-84,-65,-34,133,24,362,-72,374,37,-40,413,-186,155,122,259,217,-10,6,205,325,140,247,372,136,338,247,413,127,217,406,265,98
30856,-93,-67,-29,147,40,386,-65,368,36,-25,410,-196,159,129,292,239,-33,37,214,313,109,256,379,172,338,253,410,155,241,403,280,108
30857,-77,-56,-13,136,43,390,-17,378,30,-12,415,-176,169,130,336,216,0,74,228,345,140,255,418,187,360,254,426,173,243,404,262,104
30858,-71,-39,-7,125,28,387,-32,377,42,-6,447,-192,181,146,364,228,-27,81,258,360,158,238,400,197,374,257,429,190,244,391,241,94
30859,-55,-29,-1,116,35,388,-4,382,23,-18,423,-148,185,157,288,225,-12,72,253,338,173,261,466,234,356,264,454,172,218,369,235,55
30860,-62,-54,14,139,31,371,-42,377,12,-18,418,-191,159,146,308,195,-29,37,235,336,175,286,383,206,364,256,421,163,215,357,253,68
30861,-63,-53,3,141,30,376,-49,391,35,-21,502,-188,154,162,271,238,8,22,232,317,191,294,351,190,356,247,407,169,204,350,265,95
30862,-97,-89,-76,107,10,348,-55,366,30,-38,480,-163,182,131,269,248,39,47,228,305,145,306,390,189,346,235,357,197,207,356,243,111
30863,-108,-103,-69,140,10,331,-48,297,50,-34,459,-153,200,125,296,160,13,78,227,308,137,283,399,183,331,207,386,153,179,305,198,49
30864,-109,-91,-37,172,32,334,-17,332,82,-40,440,-179,211,131,275,119,41,89,232,311,135,273,394,189,325,209,395,152,154,313,185,56
30865,-116,-94,-5,145,24,326,-60,450,63,-28,439,-184,203,136,260,232,22,64,232,298,126,289,382,190,313,207,387,171,174,322,215,69
30866,-87,-94,25,109,19,337,-58,404,33,-35,429,-149,164,129,282,256,39,92,232,297,170,273,442,199,337,225,403,175,198,327,202,35
30867,-82,-86,-21,145,32,365,-63,389,65,-58,396,-151,197,151,298,250,14,110,234,317,182,249,441,224,338,258,435,197,214,345,234,82
30868,-66,-52,-27,162,45,358,-63,430,81,-45,394,-133,222,145,294,202,5,113,226,310,173,293,401,226,347,279,468,222,244,382,282,131
30869,-27,-46,23,186,46,355,-59,459,68,-58,415,-89,263,144,245,171,74,181,255,307,141,306,454,257,360,280,430,209,268,415,322,137
30870,-28,-52,21,170,42,360,-26,447,66,-64,421,-94,238,135,228,238,96,178,238,305,154,322,457,255,339,277,400,219,268,433,321,134
30871,-8,-51,24,154,53,364,-4,452,44,-74,416,-63,220,104,234,250,35,157,212,295,169,316,424,218,308,255,436,213,267,432,314,122
30872,-8,-17,7,186,50,370,19,452,68,-77,383,-61,230,101,248,226,70,174,226,293,152,322,473,231,320,232,429,218,266,401,256,108
30873,-1,9,11,193,80,431,36,439,85,-40,425,-55,250,143,309,237,150,184,256,304,180,360,521,272,355,267,465,254,283,416,270,171
