,Fp1,Fp2,F7,F3,Fz,F4,F8,FC5,FC1,FC2,FC6,T7,C3,Cz,C4,T8,TP9,CP5,CP1,CP2,CP6,TP10,P7,P3,Pz,P4,P8,PO9,O1,Oz,O2,PO10
81311,-168,-14,396,147,-78,317,142,523,164,-4,157,190,401,65,241,201,76,19,70,155,-22,141,322,221,152,175,266,55,211,16,-74,186
81312,-239,-19,369,185,-80,324,113,549,169,-12,150,169,374,46,236,158,99,-9,67,143,-37,152,329,214,137,162,278,56,157,-9,-79,234
81313,-204,37,390,245,-79,345,110,503,174,4,145,186,378,54,239,88,209,8,69,148,-58,119,314,213,152,181,310,31,155,31,-21,399
81314,-152,43,384,198,-89,392,109,401,136,14,189,332,358,49,257,168,199,-9,55,162,-6,109,345,210,131,204,330,86,223,63,4,410
81315,-104,20,295,230,-77,402,56,535,132,0,284,348,366,31,242,152,158,11,38,118,-121,57,342,198,114,147,220,149,190,-24,-118,314
81316,-71,31,299,299,-67,373,23,560,172,8,280,180,389,57,284,191,239,56,67,162,-46,138,401,221,152,194,256,132,199,7,-72,264
81317,-17,63,384,293,-83,270,270,422,164,-6,32,254,408,52,262,239,270,112,81,172,-9,169,431,258,165,211,288,214,259,86,-32,361
81318,8,143,363,255,-77,233,204,414,144,29,152,388,379,68,291,221,298,57,72,199,23,154,406,254,162,213,315,141,249,58,-36,332
81319,-40,179,393,239,-60,252,91,452,135,41,227,255,354,78,342,231,277,34,69,205,29,61,364,217,159,217,293,-32,193,10,-72,198
81320,-120,172,419,259,-66,357,168,494,144,33,176,164,368,74,302,156,199,57,92,196,23,33,390,243,173,225,331,67,235,83,2,348
81321,-119,173,377,263,-79,324,187,436,119,30,188,222,365,73,339,191,197,61,78,204,121,105,386,244,176,249,399,104,229,77,25,408
81322,-56,140,404,240,-60,331,243,353,133,36,223,261,360,85,307,273,266,56,69,192,-44,113,382,220,139,190,295,100,168,-41,-120,237
81323,-26,16,411,214,-62,372,172,377,132,52,181,273,366,106,327,162,271,81,92,229,84,147,430,245,166,255,366,182,229,51,-50,234
81324,-25,59,492,186,-87,400,115,457,130,49,173,325,377,93,292,358,251,84,122,192,-48,244,420,276,182,247,324,237,279,106,9,285
81325,-27,133,354,190,-72,429,210,468,135,54,220,331,369,87,270,334,228,102,121,181,-99,193,399,283,194,237,325,210,292,116,37,321
81326,-25,150,319,193,-77,416,174,464,149,44,217,238,393,82,276,224,287,99,110,192,27,98,420,272,214,270,397,181,279,97,23,307
81327,-41,172,363,200,-76,409,152,437,155,30,235,204,378,72,238,221,250,40,80,156,-64,155,379,225,165,183,236,45,161,-41,-163,127
81328,-28,141,358,198,-74,349,127,405,160,27,282,176,377,45,255,209,208,38,80,140,-62,192,397,243,150,171,228,164,225,-7,-141,78
81329,-37,125,368,186,-68,280,169,425,151,16,204,114,361,22,239,171,203,8,64,131,-53,125,332,211,142,175,233,59,195,-20,-111,96
81330,-125,129,377,173,-60,359,243,438,147,9,184,167,358,29,240,68,255,-4,50,135,-43,150,327,198,145,201,281,61,173,0,-86,203
81331,-129,136,410,123,-46,380,241,405,149,14,219,240,343,24,243,122,196,11,62,131,-49,192,347,220,152,204,335,96,198,28,-40,270
81332,-127,179,425,202,-32,348,222,471,162,21,199,302,365,46,235,296,318,34,77,175,-19,174,415,277,177,248,388,224,326,134,100,417
81333,-146,164,364,265,-65,397,230,509,137,13,208,245,362,42,249,312,264,37,102,180,-1,86,417,299,211,293,390,329,401,216,135,480
81334,-116,162,457,289,-63,433,292,535,144,23,227,255,363,57,284,337,149,29,87,165,0,84,330,261,201,238,345,75,293,105,-8,289
81335,-130,130,412,269,-54,396,263,439,135,42,160,325,369,51,274,315,178,12,67,180,-4,270,338,224,205,248,341,11,218,43,-42,319
81336,-122,132,298,253,-82,330,197,414,151,50,108,317,356,64,270,236,141,-14,67,185,8,237,327,220,195,230,353,-18,137,-44,-115,270
81337,-158,141,220,214,-81,297,200,409,134,32,161,121,329,57,293,301,186,-20,70,211,47,139,325,227,206,257,376,14,175,19,-42,289
81338,-97,118,341,175,-105,317,222,331,117,23,187,131,325,76,315,222,203,8,84,226,38,176,362,252,231,281,395,107,251,97,34,376
81339,-13,35,477,221,-97,299,201,319,134,27,135,214,338,92,323,129,208,34,84,241,114,132,367,269,253,320,455,95,260,125,87,463
81340,-36,61,317,194,-70,315,245,352,130,50,193,252,354,103,338,274,238,81,111,258,85,73,399,293,272,344,406,158,313,146,66,359
81341,-135,26,312,176,-102,323,225,337,121,33,197,249,374,98,323,303,239,90,113,262,16,210,428,335,291,340,406,243,386,230,143,412
81342,-102,-51,361,195,-116,324,160,331,132,31,185,234,346,75,328,240,205,82,95,251,92,155,390,309,294,349,445,214,356,206,164,450
81343,-48,19,339,188,-93,340,126,329,151,43,237,218,350,82,326,249,210,28,93,241,50,174,348,278,257,334,439,99,264,99,67,383
81344,-65,49,308,168,-93,455,48,322,136,53,372,223,339,66,322,223,202,-15,77,221,5,116,315,254,222,292,389,-2,247,45,-42,314
81345,-71,149,261,159,-100,458,105,336,100,47,394,260,302,47,306,155,182,-34,54,185,-28,157,349,227,192,221,223,181,291,28,-138,-89
81346,-48,181,295,145,-92,295,255,473,123,21,99,248,344,48,260,99,169,3,62,201,-15,249,411,264,200,264,304,326,393,137,3,80
81347,-107,118,297,178,-89,299,183,577,151,17,73,121,390,45,286,156,165,54,85,199,45,144,444,286,213,310,442,294,408,214,106,392
81348,-123,168,258,243,-63,369,274,538,149,25,174,70,376,34,266,289,162,19,54,165,-28,70,301,217,180,243,321,-58,193,47,11,319
81349,-89,188,357,234,-76,378,313,464,164,17,208,93,366,33,286,177,27,-28,53,179,29,220,217,201,171,252,365,-141,124,12,7,419
81350,-52,108,419,178,-77,370,253,467,135,48,212,171,364,38,322,16,132,7,72,219,241,138,335,265,216,318,427,28,204,34,-34,316
81351,-46,135,351,153,-81,368,184,436,124,58,189,209,338,64,299,177,248,15,75,224,151,127,364,259,201,292,361,84,217,16,-76,211
81352,-88,119,252,144,-107,328,189,396,124,23,214,246,350,57,242,464,279,68,85,191,-165,185,411,288,205,252,285,124,264,65,14,383
81353,-129,124,298,175,-105,307,226,332,150,25,180,265,389,77,272,281,293,89,121,212,-66,137,449,330,235,284,313,206,328,104,28,370
81354,-136,54,371,186,-102,289,184,334,130,20,163,256,405,87,282,183,287,102,127,219,10,113,489,333,250,280,274,331,402,124,-29,162
81355,-149,29,402,218,-115,291,175,357,137,24,137,225,412,90,273,127,195,129,143,231,-2,123,448,334,261,299,270,383,482,202,61,161
81356,-107,82,384,205,-110,314,145,364,144,38,158,208,377,81,274,3,224,74,130,243,35,110,355,305,254,331,360,150,327,183,99,423
81357,-48,69,402,197,-131,296,109,373,127,14,162,145,329,66,290,-24,128,0,75,225,123,55,293,231,195,315,354,-86,167,35,-33,289
81358,-99,54,437,206,-118,299,160,431,136,12,153,191,368,61,275,179,202,40,95,202,5,86,371,242,183,259,249,72,207,-23,-172,-2
81359,-145,55,406,156,-103,426,186,398,151,35,211,266,376,70,244,304,296,36,100,179,-196,200,419,250,198,244,238,222,264,41,-92,203
81360,-179,49,396,171,-128,408,66,376,132,19,155,271,359,55,272,173,268,38,95,214,-31,138,437,280,214,280,279,342,377,131,-2,169
81361,-122,71,414,250,-103,186,106,416,126,17,166,252,366,58,299,180,271,42,102,214,0,128,397,250,199,286,320,154,326,105,0,248
81362,-81,79,327,215,-107,163,93,388,123,27,191,205,369,78,317,208,247,44,91,234,35,140,372,249,207,281,316,92,250,38,-55,154
81363,-112,10,331,174,-128,288,81,397,122,17,144,268,358,90,323,106,179,38,103,246,35,143,390,283,222,309,329,131,287,60,-22,188
81364,-201,-112,277,191,-149,259,50,425,137,26,134,316,397,101,318,134,199,75,149,273,43,134,406,305,252,334,363,180,295,100,35,302
81365,-284,-56,185,179,-149,274,116,442,126,26,182,187,404,102,356,310,248,84,167,310,88,157,410,317,294,360,429,165,301,151,93,425
81366,-193,148,312,201,-119,339,289,441,156,66,252,159,390,87,390,395,271,84,134,290,127,93,403,288,279,355,416,58,251,87,30,323
81367,-69,230,383,223,-107,318,347,465,150,68,272,254,375,96,373,338,240,57,111,257,99,128,324,252,234,321,378,-128,165,-8,-35,265
81368,-90,207,302,193,-131,324,307,424,121,43,270,202,360,86,366,312,151,10,105,236,57,321,302,233,195,282,328,-62,165,-22,-98,177
81369,-53,187,285,192,-127,348,226,361,114,53,259,148,354,76,344,268,155,15,108,235,69,230,311,234,190,269,325,37,206,30,-69,194
81370,-30,182,292,182,-113,357,275,276,103,58,213,125,330,91,334,244,147,-1,112,256,71,205,307,233,190,274,341,24,211,41,-39,283
81371,-84,116,301,134,-129,267,226,252,114,37,231,67,326,88,318,345,80,-39,91,242,55,260,293,231,190,289,409,33,226,63,18,391
81372,-71,123,217,169,-126,303,172,293,114,35,331,88,338,91,311,238,46,0,88,218,35,143,292,239,173,255,366,13,207,54,-12,329
81373,-76,169,115,136,-95,354,203,285,140,64,362,177,374,93,365,217,150,83,106,258,132,198,347,280,207,296,424,51,238,68,12,358
81374,-37,179,272,150,-88,343,393,332,135,46,134,210,400,77,307,220,266,86,120,236,39,148,383,275,209,264,363,125,263,61,-12,350
81375,-6,126,284,163,-80,403,353,348,140,45,234,215,396,67,306,212,222,63,123,211,6,157,386,254,193,265,333,128,259,54,-50,227
81376,-3,165,296,180,-88,387,301,343,144,38,243,208,379,72,302,287,55,61,121,230,17,225,350,258,193,281,371,130,264,66,-49,251
81377,52,278,355,180,-85,384,378,363,144,53,261,283,400,80,302,315,70,67,137,243,39,133,396,293,214,301,424,145,305,120,18,435
81378,116,383,371,196,-91,378,403,391,153,47,303,229,413,89,336,277,69,62,140,244,137,280,391,298,233,349,470,106,312,158,81,505
81379,167,395,409,214,-104,378,367,432,159,56,282,181,415,93,355,277,224,72,160,261,199,365,377,326,265,377,491,122,298,151,79,431
81380,219,397,458,206,-87,390,417,473,149,44,291,233,419,98,316,361,296,75,140,250,-14,335,424,314,247,320,396,170,298,137,48,369
81381,211,363,384,243,-66,392,440,550,158,66,332,286,443,110,335,296,300,115,135,251,12,289,436,316,250,292,354,176,295,94,-29,187
81382,160,319,349,250,-81,399,362,556,144,48,318,284,434,72,333,215,309,130,134,258,82,261,461,329,270,328,383,230,340,153,62,250
81383,173,329,294,270,-76,458,412,483,150,70,330,256,415,69,356,263,273,85,133,272,102,243,448,324,265,343,403,202,335,183,118,340
81384,165,337,283,299,-67,442,396,529,151,62,280,297,396,90,372,242,184,70,127,270,109,261,408,310,254,375,463,147,333,217,172,492
81385,164,276,292,324,-64,419,350,547,150,48,318,229,392,90,356,224,199,34,103,242,106,229,410,276,227,316,418,194,286,119,33,332
81386,70,244,191,352,-71,425,378,537,153,59,302,221,373,70,352,123,212,-13,92,232,93,140,370,231,220,293,356,103,239,83,2,279
81387,38,290,197,306,-67,397,341,488,146,66,280,154,347,57,398,-153,176,-15,99,248,247,165,313,217,206,333,428,-16,179,46,11,403
81388,60,341,266,280,-52,392,299,312,124,66,290,34,335,64,418,91,158,-25,84,261,343,160,363,195,196,355,435,29,162,-10,-86,215
81389,124,372,335,213,-36,430,346,311,122,51,319,211,350,62,345,396,185,68,92,223,-74,155,709,259,199,261,265,19,206,-7,-111,9
81390,32,314,302,99,-47,415,314,308,117,78,348,260,320,68,406,318,158,34,90,269,157,182,418,245,211,304,357,-4,181,-10,-71,185
81391,21,366,328,90,-36,441,404,307,112,67,417,244,317,57,378,249,130,22,67,235,-6,132,192,228,190,267,285,77,190,-9,-96,201
81392,15,332,315,116,-42,463,340,293,76,83,505,222,319,38,393,78,107,27,73,256,10,103,202,243,202,284,307,122,221,30,-43,255
81393,96,321,338,169,-11,472,238,401,94,108,483,216,338,66,441,98,192,46,99,285,126,197,295,278,220,336,397,194,290,103,45,309
81394,135,304,297,166,-63,388,355,416,96,73,253,242,360,61,400,265,173,48,94,273,130,368,333,283,232,352,439,120,307,133,114,485
81395,151,287,288,197,-41,461,309,406,106,87,385,192,365,77,426,345,145,94,135,293,189,361,322,303,267,434,552,45,328,230,260,838
81396,170,244,315,186,-54,487,243,368,111,74,350,161,361,86,439,272,217,77,146,302,194,264,373,321,280,434,599,133,373,250,303,911
81397,194,318,332,163,-45,425,322,344,108,49,300,193,359,76,396,221,236,54,118,275,135,280,369,287,236,334,438,104,277,71,4,395
81398,190,298,350,170,-40,392,355,346,106,74,291,201,383,75,378,107,222,83,138,255,100,356,385,320,229,295,314,216,329,80,-50,-26
81399,163,291,336,218,-58,363,346,384,113,66,259,255,376,78,358,64,226,127,131,247,117,291,418,340,243,311,339,341,420,190,32,50
81400,154,291,338,183,-40,374,347,398,123,62,299,250,406,83,351,175,206,106,121,238,91,191,421,314,233,291,317,334,420,148,-33,89
81401,128,289,347,176,-47,354,394,395,124,54,256,231,376,60,307,188,198,24,87,198,36,160,340,255,185,254,303,72,280,32,-101,79
81402,97,337,466,262,-49,374,371,430,134,18,253,231,350,36,303,155,255,1,59,187,84,229,302,203,162,251,359,-53,131,-24,-92,197
81403,78,350,364,344,-49,367,332,457,129,27,292,179,350,36,302,248,219,2,65,195,38,194,347,212,167,262,333,86,242,62,-6,294
81404,24,250,147,266,-43,401,380,430,114,24,299,227,368,34,288,197,161,44,55,185,-6,170,362,230,150,212,275,138,246,51,-82,184
81405,46,258,312,263,-36,428,371,439,124,41,304,294,373,39,298,169,158,61,70,210,37,194,402,245,155,220,303,215,264,54,-85,117
81406,114,367,335,308,1,466,421,492,141,63,369,367,371,37,337,101,183,44,77,218,129,190,399,244,154,268,345,167,255,65,-32,209
81407,170,453,338,310,-30,474,421,598,124,60,363,357,352,36,357,173,188,0,72,210,149,146,349,230,161,297,390,-54,170,20,-40,275
81408,207,508,268,303,-33,478,420,642,133,55,362,303,366,32,325,178,176,20,59,186,-66,221,380,237,155,231,301,59,217,38,-37,197
81409,209,464,254,251,-55,457,333,657,127,42,337,269,365,10,315,68,142,47,64,191,40,275,354,247,151,246,326,119,242,62,-20,261
81410,212,456,294,243,-47,450,356,529,133,21,313,162,364,25,287,147,178,55,59,181,-8,211,332,246,172,270,317,77,245,96,38,343
81411,112,416,156,272,-48,429,398,367,137,44,338,56,334,24,331,212,130,-18,40,197,40,61,311,218,164,250,293,-31,179,41,-18,263
81412,87,394,181,240,-47,438,366,385,132,54,325,199,358,39,337,187,213,46,55,201,32,162,320,221,158,251,278,8,191,1,-96,231
81413,40,399,242,116,-43,410,350,354,120,68,335,179,334,52,334,91,99,43,69,224,14,161,303,228,166,249,274,48,208,17,-88,128
81414,46,277,266,90,-62,395,285,308,95,71,320,176,318,40,354,103,109,8,59,217,47,146,310,241,197,278,292,70,231,75,-34,192
81415,118,268,279,163,-65,422,299,359,77,68,329,152,307,41,338,163,74,4,56,209,61,185,301,216,195,301,335,88,253,90,22,293
81416,173,336,268,189,-58,434,291,412,93,61,292,97,314,48,342,213,136,-15,51,202,68,240,282,207,178,301,361,42,230,72,25,319
81417,125,287,222,174,-78,390,241,380,88,34,242,63,306,19,318,137,50,-34,29,169,57,172,239,190,155,262,350,-1,199,74,15,368
81418,104,288,262,156,-71,413,310,301,91,53,260,104,304,28,323,109,98,-11,40,171,56,173,298,194,149,245,338,68,202,38,0,263
81419,124,306,300,136,-52,444,319,246,70,67,353,127,285,20,334,126,87,-25,23,179,32,113,279,187,149,268,342,32,195,50,-9,275
81420,117,330,337,112,-49,439,278,236,78,80,451,105,280,25,357,145,63,-46,35,197,57,127,277,199,170,308,423,17,226,99,61,443
81421,109,345,349,122,-40,328,390,202,91,51,232,111,284,37,339,191,111,-29,48,210,75,193,338,223,188,307,416,104,246,96,79,350
81422,63,342,333,124,-31,363,368,200,89,46,199,94,309,57,344,40,142,12,61,206,159,121,332,239,188,288,334,107,226,79,1,106
81423,49,345,311,90,-54,421,291,220,86,46,260,137,296,47,356,-103,88,-26,39,210,178,131,280,202,163,276,308,-38,175,28,-35,80
81424,53,293,211,97,-58,430,328,201,71,31,245,165,249,36,294,6,41,-98,36,176,-119,159,233,172,152,219,220,-2,177,36,-42,176
81425,45,198,199,114,-80,403,261,203,44,35,230,80,243,42,307,46,64,-108,22,191,-34,73,215,165,173,241,276,37,183,55,-5,246
81426,59,190,163,86,-91,380,228,278,64,53,208,54,247,46,306,96,62,-80,20,203,-10,83,228,166,156,262,306,-45,160,67,27,262
81427,121,122,206,96,-75,424,240,283,77,43,212,151,278,31,298,92,64,-68,34,189,-25,0,235,187,151,254,276,-50,173,61,15,272
81428,94,114,213,145,-93,445,192,315,67,32,205,143,284,28,288,59,132,-65,33,172,-29,177,232,184,143,253,234,-2,212,74,8,149
81429,83,209,178,221,-97,391,242,336,69,41,229,117,281,38,291,127,99,-60,31,198,2,182,256,183,151,273,258,46,262,121,42,172
81430,104,250,173,223,-94,350,240,276,73,40,224,153,284,49,297,103,133,-69,53,206,-9,122,317,197,166,273,282,147,267,123,59,258
81431,30,293,163,244,-82,324,258,333,74,50,274,39,271,59,349,140,126,-33,59,206,6,34,302,223,181,290,291,172,273,159,121,291
81432,-24,285,196,176,-85,311,272,281,69,65,274,-5,292,62,334,137,114,-1,73,225,23,20,282,246,211,322,323,126,318,216,177,378
81433,-65,247,172,151,-71,386,308,303,82,55,280,141,281,66,316,123,135,-52,52,209,9,105,237,192,188,270,275,-171,141,28,-29,207
81434,-88,236,78,188,-82,356,361,400,103,48,267,262,305,58,302,87,126,-49,65,182,-38,130,279,198,160,226,212,-43,173,-7,-122,70
81435,-2,280,52,228,-74,312,325,485,126,29,248,244,338,42,271,57,174,-19,77,154,-54,147,308,238,165,239,241,47,264,88,9,219
81436,57,367,142,235,-34,429,281,498,104,46,303,133,340,38,289,64,142,37,76,176,-29,141,333,246,170,233,237,23,252,95,-17,201
81437,108,342,211,271,-46,441,319,557,103,56,286,130,337,42,320,-12,124,41,75,202,46,160,341,254,158,240,295,-2,235,60,1,237
81438,99,331,330,274,-57,409,323,631,108,74,262,159,356,47,352,-11,101,55,78,192,158,118,351,262,157,289,376,-4,232,62,23,289
81439,70,393,419,195,-51,400,295,548,115,59,237,237,369,58,341,214,209,114,97,201,19,221,443,296,191,286,370,146,307,146,63,377
81440,177,426,578,160,-42,405,340,376,98,61,294,340,374,71,335,69,328,118,102,220,-16,61,475,311,193,275,323,176,322,145,53,301
81441,236,376,709,200,-33,388,365,347,97,76,302,354,357,90,406,17,275,114,113,270,279,89,441,297,204,351,462,136,299,138,70,333
81442,196,392,391,146,-60,390,410,333,79,78,304,313,354,54,364,302,254,108,102,229,65,309,449,280,175,320,443,147,301,141,71,400
81443,192,312,421,134,-75,407,336,374,91,58,312,337,366,51,335,305,289,117,97,202,-93,278,454,293,141,261,371,162,305,130,46,387
81444,205,328,424,140,-69,434,387,284,81,75,345,282,348,57,386,227,234,88,96,214,113,244,439,269,143,282,419,149,283,119,80,404
81445,156,368,349,99,-76,439,435,244,56,72,370,293,319,46,392,300,241,80,80,213,109,266,457,247,126,285,439,185,277,103,50,433
81446,109,365,436,112,-65,457,425,274,55,89,405,296,315,28,402,279,201,79,57,207,100,271,448,250,115,275,445,178,291,123,77,497
81447,161,378,391,130,-47,452,419,286,74,95,402,267,322,36,395,108,199,87,53,201,82,267,422,248,110,258,445,154,284,133,75,549
81448,181,374,410,163,-60,443,420,338,74,72,343,212,329,23,347,-29,254,65,52,161,20,194,400,221,72,211,371,114,239,51,-25,327
81449,137,430,360,175,-45,471,429,334,91,78,364,115,316,30,349,152,130,10,43,164,19,233,401,194,80,194,332,102,214,9,-61,187
81450,153,417,360,154,-53,484,362,330,63,47,419,112,292,1,325,128,128,3,26,147,-7,250,335,171,46,182,336,60,170,4,-51,237
81451,233,440,336,167,-32,492,347,294,65,50,433,110,264,-6,331,81,148,4,37,145,27,190,336,192,56,200,373,69,215,43,31,343
81452,287,472,396,210,-36,429,471,347,75,43,187,170,297,-2,304,80,150,1,25,148,23,212,325,200,74,220,393,73,230,52,23,407
81453,228,406,340,206,-38,467,466,359,75,47,293,167,290,1,315,103,105,-14,11,136,4,144,297,173,54,198,347,32,169,-11,-65,281
81454,278,418,304,205,-37,498,532,351,61,48,353,127,262,-30,310,121,20,-57,-17,120,19,71,261,147,17,164,329,-73,127,-62,-104,239
81455,377,463,308,213,-41,484,485,354,72,49,353,126,278,-12,340,115,18,-35,2,124,44,208,282,153,50,190,376,0,193,-2,-22,384
81456,434,564,358,240,-24,510,512,371,78,65,369,137,295,5,336,113,51,-4,16,133,60,155,303,171,61,189,402,8,186,12,3,420
81457,535,714,402,260,-5,544,554,366,96,73,412,113,282,0,337,156,21,-34,11,147,51,154,284,177,44,165,417,-14,162,-25,-41,319
81458,630,780,402,286,-6,510,457,367,110,71,354,148,306,6,346,177,32,-10,7,144,110,228,308,160,36,164,392,32,164,-31,-102,238
81459,655,746,454,298,-8,496,433,397,85,47,315,169,303,-4,342,90,-14,-19,-2,132,154,127,284,144,17,163,390,18,154,-20,-82,311
81460,795,838,546,345,30,526,510,445,118,49,314,168,307,1,296,229,73,-6,15,130,-28,157,303,166,32,119,294,15,134,-67,-120,302
