,Fp1,Fp2,F7,F3,Fz,F4,F8,FC5,FC1,FC2,FC6,T7,C3,Cz,C4,T8,TP9,CP5,CP1,CP2,CP6,TP10,P7,P3,Pz,P4,P8,PO9,O1,Oz,O2,PO10
107165,-728,-340,-357,-425,-252,-161,-233,-230,-113,-379,-389,-574,-68,65,-341,-533,-755,-549,-42,-110,-567,-295,-378,33,108,111,-294,-385,-272,-518,-526,-705
107166,-750,-329,-362,-429,-248,-140,-216,-222,-122,-379,-388,-594,-60,72,-354,-672,-731,-542,-17,-117,-625,-277,-321,76,129,118,-290,-20,-82,-402,-446,-643
107167,-740,-325,-358,-414,-236,-140,-233,-216,-128,-362,-328,-605,-47,67,-326,-842,-712,-520,-10,-87,-636,-286,-251,117,145,126,-261,218,54,-305,-397,-686
107168,-730,-320,-357,-425,-242,-136,-236,-220,-125,-354,-333,-633,-47,60,-316,-703,-774,-536,-44,-92,-592,-302,-311,98,138,136,-264,-35,-47,-358,-428,-730
107169,-762,-307,-315,-413,-218,-131,-186,-207,-131,-355,-389,-666,-87,51,-362,-598,-819,-577,-73,-136,-571,-201,-476,0,77,126,-278,-675,-412,-566,-549,-658
107170,-787,-313,-317,-425,-239,-132,-171,-257,-139,-364,-398,-648,-105,23,-394,-486,-819,-598,-109,-159,-584,-205,-487,-52,40,74,-280,-725,-509,-655,-598,-655
107171,-744,-318,-377,-408,-241,-133,-225,-269,-116,-362,-420,-643,-111,49,-374,-505,-752,-624,-91,-122,-580,-240,-459,-24,57,109,-268,-515,-373,-581,-549,-634
107172,-753,-333,-377,-436,-251,-165,-268,-252,-140,-372,-427,-656,-114,35,-398,-565,-735,-639,-95,-138,-594,-270,-474,-56,36,98,-298,-490,-367,-559,-537,-670
107173,-756,-349,-327,-382,-239,-200,-296,-247,-121,-373,-424,-662,-99,43,-402,-498,-733,-638,-109,-154,-619,-324,-455,-62,23,74,-307,-469,-345,-545,-550,-679
107174,-691,-340,-298,-346,-204,-195,-340,-216,-124,-378,-426,-656,-87,35,-391,-570,-782,-639,-105,-150,-619,-292,-485,-65,12,71,-285,-507,-379,-576,-565,-660
107175,-652,-334,-351,-367,-199,-167,-326,-206,-115,-363,-312,-701,-91,31,-362,-525,-785,-653,-106,-137,-621,-267,-484,-75,-6,67,-291,-509,-380,-578,-552,-664
107176,-648,-361,-380,-385,-221,-149,-324,-172,-111,-376,-327,-787,-78,26,-362,-501,-767,-645,-121,-166,-644,-318,-468,-81,-19,46,-312,-425,-347,-583,-579,-700
107177,-665,-359,-380,-378,-207,-215,-252,-143,-97,-415,-603,-732,-43,3,-437,-466,-722,-583,-102,-175,-655,-295,-421,-36,6,63,-274,-389,-298,-531,-531,-671
107178,-629,-311,-323,-390,-201,-206,-256,-201,-103,-401,-520,-611,-80,3,-414,-464,-729,-590,-78,-155,-615,-209,-380,-20,32,88,-232,-370,-283,-497,-496,-649
107179,-633,-302,-281,-391,-207,-182,-260,-263,-114,-379,-436,-614,-113,24,-408,-448,-755,-602,-75,-159,-629,-206,-405,-17,48,103,-234,-407,-317,-515,-498,-653
107180,-697,-341,-351,-372,-221,-240,-243,-205,-99,-425,-469,-630,-76,35,-442,-467,-735,-548,-57,-156,-669,-260,-371,25,71,96,-251,-352,-261,-473,-463,-652
107181,-712,-351,-338,-374,-236,-253,-203,-177,-79,-408,-421,-602,-27,61,-399,-468,-653,-507,-4,-116,-634,-298,-283,75,112,124,-205,-117,-122,-388,-404,-631
107182,-701,-359,-314,-388,-238,-222,-280,-178,-81,-395,-446,-617,-14,62,-372,-467,-694,-505,3,-103,-579,-352,-312,69,134,168,-146,-196,-139,-395,-409,-603
107183,-737,-396,-429,-378,-251,-224,-283,-107,-99,-406,-438,-683,-17,57,-356,-674,-739,-526,-22,-89,-525,-350,-353,59,122,186,-107,-244,-156,-394,-378,-623
107184,-784,-418,-548,-340,-266,-215,-287,14,-82,-421,-457,-720,-11,50,-369,-1196,-762,-554,-39,-100,-532,-174,-387,31,124,171,-109,-366,-245,-440,-418,-677
107185,-775,-387,-449,-295,-245,-199,-243,171,-56,-400,-387,-682,28,52,-342,-1024,-776,-531,-31,-97,-505,-114,-421,34,114,175,-139,-570,-331,-491,-466,-677
107186,-707,-322,-257,-412,-227,-163,-190,-194,-81,-367,-337,-796,-18,77,-311,-433,-665,-501,-15,-38,-434,-116,-332,73,155,217,-136,-410,-180,-395,-356,-542
107187,-729,-326,-227,-433,-233,-165,-208,-232,-113,-377,-345,-816,-45,40,-311,-244,-635,-492,-18,-54,-440,-126,-297,76,163,214,-121,-199,-87,-343,-328,-527
107188,-703,-308,-237,-436,-217,-156,-196,-396,-115,-369,-324,-632,-99,44,-305,-244,-621,-541,-32,-56,-440,-141,-304,69,169,222,-104,-238,-136,-349,-338,-538
107189,-661,-320,-278,-456,-243,-192,-200,-364,-126,-370,-385,-511,-106,37,-359,-316,-617,-579,-51,-93,-501,-126,-343,36,133,219,-60,-479,-249,-407,-361,-544
107190,-710,-351,-330,-396,-244,-192,-212,-253,-109,-384,-388,-500,-71,31,-347,-503,-625,-531,-34,-95,-500,-129,-299,69,141,232,-5,-391,-162,-338,-356,-585
107191,-732,-326,-296,-385,-246,-171,-201,-245,-122,-385,-362,-535,-75,27,-346,-645,-601,-522,-39,-82,-484,-105,-270,83,140,222,16,-241,-121,-318,-347,-512
107192,-676,-301,-266,-376,-240,-159,-158,-181,-99,-371,-357,-539,-50,47,-338,-530,-580,-490,-6,-59,-481,-127,-238,111,158,255,0,-191,-130,-336,-302,-465
107193,-687,-337,-235,-378,-238,-172,-227,-198,-93,-378,-402,-525,-40,62,-339,-361,-505,-462,8,-46,-484,-144,-183,158,196,260,-75,-104,-51,-279,-236,-457
107194,-707,-338,-245,-392,-245,-179,-269,-213,-95,-403,-413,-534,-58,49,-387,-270,-583,-488,8,-71,-542,-140,-226,157,211,257,-113,-61,-24,-251,-232,-468
107195,-703,-326,-283,-391,-243,-160,-274,-177,-102,-388,-430,-520,-47,39,-407,-308,-676,-492,5,-91,-581,-175,-238,153,192,234,-127,-70,-25,-251,-254,-474
107196,-717,-359,-317,-372,-227,-191,-281,-181,-112,-403,-451,-591,-64,36,-424,-455,-657,-503,-23,-114,-598,-200,-268,121,167,211,-149,-210,-107,-304,-302,-468
107197,-733,-353,-321,-383,-224,-183,-290,-204,-114,-407,-474,-612,-82,42,-426,-555,-646,-540,-30,-110,-605,-174,-337,85,149,182,-152,-310,-140,-329,-308,-491
107198,-727,-372,-338,-395,-240,-206,-286,-230,-124,-394,-486,-608,-73,58,-429,-640,-618,-534,-25,-106,-613,-234,-302,130,161,194,-155,-148,-62,-286,-296,-501
107199,-727,-398,-382,-383,-256,-231,-307,-244,-133,-396,-486,-631,-74,52,-432,-648,-623,-541,-23,-114,-591,-286,-226,152,172,214,-147,77,47,-227,-279,-531
107200,-699,-373,-353,-386,-252,-200,-278,-233,-115,-393,-442,-635,-45,56,-387,-500,-649,-506,-11,-82,-562,-241,-207,170,188,234,-126,113,53,-231,-267,-501
107201,-688,-351,-347,-369,-254,-173,-217,-192,-106,-381,-412,-628,-49,50,-370,-410,-650,-521,-11,-84,-547,-176,-241,138,181,231,-100,-242,-80,-304,-294,-489
107202,-700,-327,-344,-373,-254,-150,-201,-134,-107,-367,-389,-621,-47,39,-375,-379,-700,-516,-18,-87,-526,-209,-325,118,166,212,-89,-527,-152,-336,-328,-514
107203,-705,-332,-322,-373,-240,-159,-221,-162,-93,-366,-400,-623,-29,48,-358,-373,-695,-494,-5,-78,-529,-299,-289,135,173,224,-111,-303,-90,-326,-349,-577
107204,-723,-340,-380,-403,-250,-169,-243,-232,-106,-373,-385,-627,-54,35,-372,-411,-679,-516,-8,-67,-512,-193,-274,135,161,208,-109,-144,-106,-351,-355,-597
107205,-735,-331,-453,-399,-251,-143,-198,-140,-105,-385,-367,-631,-48,29,-384,-421,-724,-518,-27,-79,-509,-85,-282,117,168,195,-116,-160,-145,-370,-370,-602
107206,-733,-308,-366,-353,-239,-110,-140,-37,-91,-363,-315,-592,-31,54,-334,-487,-689,-492,0,-60,-481,-83,-316,102,174,211,-91,-368,-208,-392,-381,-576
107207,-707,-315,-313,-395,-251,-120,-88,-174,-109,-346,-281,-580,-50,62,-290,-671,-683,-503,5,-46,-469,-122,-360,106,192,225,-111,-508,-209,-366,-354,-581
107208,-683,-325,-276,-406,-253,-136,-139,-367,-113,-353,-325,-577,-68,80,-319,-589,-648,-509,24,-44,-463,-97,-312,143,219,243,-133,-446,-155,-341,-325,-557
107209,-723,-345,-371,-465,-252,-190,-216,-283,-121,-348,-405,-617,-62,75,-349,-424,-676,-467,28,-59,-481,-178,-319,123,209,208,-198,-428,-165,-365,-345,-578
107210,-750,-349,-369,-455,-259,-182,-191,-256,-121,-367,-401,-604,-56,66,-371,-374,-665,-471,11,-55,-524,-314,-278,130,208,188,-236,-294,-102,-316,-351,-588
107211,-752,-330,-327,-390,-268,-160,-170,-219,-104,-374,-401,-562,-47,69,-395,-350,-660,-500,-16,-85,-572,-349,-270,111,181,156,-256,-247,-73,-329,-372,-648
107212,-747,-313,-328,-387,-245,-160,-178,-170,-94,-362,-378,-553,-40,83,-367,-471,-670,-470,-2,-79,-563,-286,-260,141,185,164,-182,-203,-41,-328,-356,-640
107213,-726,-322,-305,-382,-246,-159,-213,-184,-99,-349,-291,-562,-20,88,-341,-898,-636,-458,6,-70,-558,-79,-228,156,196,188,-160,-131,-42,-325,-352,-634
107214,-723,-342,-285,-372,-253,-133,-267,-203,-94,-350,-215,-535,-7,79,-304,-1086,-696,-473,11,-73,-583,-87,-220,160,180,173,-217,-147,-75,-347,-362,-605
107215,-693,-325,-234,-329,-239,-163,-252,-148,-78,-369,-456,-499,20,82,-323,-710,-658,-436,34,-57,-584,-148,-169,178,217,178,-225,-23,1,-287,-319,-563
107216,-642,-267,-194,-300,-221,-173,-142,-85,-58,-388,-592,-504,33,79,-345,-372,-611,-412,40,-69,-562,-180,-200,195,213,187,-191,-80,-2,-282,-330,-576
107217,-684,-300,-334,-361,-236,-144,-237,-62,-85,-381,-451,-578,8,75,-232,-311,-643,-463,12,-54,-511,-288,-237,163,197,169,-205,-220,-50,-325,-405,-626
107218,-693,-285,-355,-350,-221,-169,-229,-47,-91,-371,-439,-580,-4,77,-301,-392,-605,-479,10,-78,-520,-229,-275,132,161,151,-208,-359,-180,-421,-441,-619
107219,-679,-250,-244,-339,-198,-128,-132,-244,-86,-387,-323,-644,-21,80,-462,-518,-567,-457,9,-106,-566,-137,-259,135,160,157,-168,-336,-175,-408,-411,-584
107220,-679,-264,-263,-356,-211,-124,-134,-296,-76,-378,-339,-755,-32,85,-367,-397,-609,-458,-9,-86,-525,-168,-293,103,139,182,-132,-407,-182,-415,-409,-626
107221,-694,-300,-244,-341,-195,-127,-109,-177,-55,-371,-314,-642,-33,76,-345,-275,-624,-468,-21,-91,-520,-201,-288,89,117,168,-162,-418,-195,-426,-434,-660
107222,-701,-307,-233,-321,-221,-130,-59,-192,-73,-379,-297,-529,-43,40,-388,-322,-688,-498,-33,-126,-541,-220,-271,94,109,126,-214,-283,-138,-420,-462,-650
107223,-702,-282,-292,-352,-209,-118,-41,-190,-79,-387,-321,-508,-41,44,-392,-393,-657,-500,-49,-134,-536,-205,-258,79,97,110,-170,-245,-128,-405,-447,-617
107224,-691,-242,-293,-363,-200,-117,-98,-199,-80,-387,-347,-512,-54,30,-383,-625,-694,-501,-69,-125,-572,-172,-258,71,89,103,-94,-236,-137,-400,-459,-626
107225,-667,-244,-253,-338,-192,-117,-128,-190,-90,-397,-356,-565,-61,30,-378,-905,-729,-543,-93,-154,-590,-233,-287,44,67,85,-128,-299,-192,-452,-488,-707
107226,-602,-242,-270,-324,-185,-127,-155,-206,-79,-410,-335,-573,-53,32,-367,-774,-697,-520,-76,-139,-563,-388,-243,69,73,76,-270,-143,-118,-411,-456,-694
107227,-571,-178,-336,-341,-180,-99,-152,-230,-66,-390,-326,-606,-38,39,-335,-407,-674,-510,-70,-136,-517,-393,-261,71,74,78,-321,-126,-165,-394,-440,-650
107228,-575,-157,-329,-334,-157,-73,-94,-212,-53,-374,-337,-594,-53,36,-354,-363,-683,-516,-63,-138,-551,-229,-276,74,91,79,-335,-146,-139,-383,-448,-685
107229,-585,-122,-322,-352,-180,-73,-43,-216,-77,-396,-338,-609,-61,27,-398,-481,-697,-534,-77,-171,-604,-222,-307,53,69,49,-390,-178,-150,-436,-485,-726
107230,-586,-138,-313,-362,-194,-90,-47,-178,-89,-400,-349,-620,-52,17,-411,-452,-719,-573,-78,-171,-604,-224,-370,10,58,47,-333,-333,-248,-494,-502,-702
107231,-574,-154,-274,-324,-194,-98,-97,-46,-73,-398,-353,-616,-5,30,-365,-445,-721,-541,-39,-147,-609,-233,-360,51,103,90,-263,-374,-197,-424,-468,-663
107232,-636,-191,-300,-333,-227,-86,-6,13,-65,-392,-311,-628,7,30,-341,-398,-722,-535,-52,-141,-607,-218,-324,64,86,86,-230,-356,-148,-394,-442,-649
107233,-570,-162,-217,-351,-209,-85,-9,-224,-86,-382,-318,-547,-51,37,-345,-397,-739,-535,-45,-120,-556,-190,-277,73,101,85,-205,-307,-141,-392,-468,-668
107234,-511,-105,-175,-353,-177,-78,-38,-364,-109,-385,-317,-562,-82,31,-367,-452,-754,-539,-55,-111,-580,-169,-273,70,114,84,-231,-160,-137,-415,-484,-681
107235,-508,-51,-293,-337,-167,-63,-1,-130,-89,-373,-297,-626,-28,21,-355,-595,-751,-539,-69,-141,-616,-205,-330,32,73,49,-256,-99,-202,-455,-523,-667
107236,-513,-91,-424,-291,-180,-73,0,2,-70,-353,-298,-682,9,19,-367,-658,-722,-541,-76,-160,-607,-256,-364,29,44,51,-265,-347,-274,-508,-554,-715
107237,-488,-174,-287,-249,-182,-89,-5,168,-60,-383,-341,-623,44,17,-386,-670,-706,-496,-67,-151,-613,-260,-365,29,54,49,-260,-474,-270,-535,-572,-745
107238,-419,-26,-115,-300,-182,-64,-20,-180,-104,-396,-323,-516,-60,16,-372,-750,-677,-521,-71,-138,-613,-273,-316,55,77,72,-251,-309,-161,-468,-524,-756
107239,-370,63,-35,-372,-174,-22,4,-520,-127,-363,-316,-502,-87,35,-339,-610,-607,-501,-47,-111,-570,-252,-228,106,120,119,-172,-105,-60,-385,-470,-704
107240,-354,111,-169,-311,-154,-15,21,-221,-90,-373,-354,-545,-29,39,-366,-449,-653,-528,-45,-144,-587,-267,-321,71,75,76,-183,-396,-209,-468,-528,-666
107241,-360,118,-166,-305,-147,-29,38,-218,-86,-365,-311,-572,-33,46,-372,-416,-666,-544,-58,-165,-604,-312,-362,63,66,68,-215,-545,-296,-504,-559,-695
107242,-354,133,-172,-309,-135,-25,84,-195,-89,-380,-281,-631,-34,35,-391,-451,-703,-572,-85,-164,-616,-301,-394,43,46,43,-283,-611,-357,-577,-591,-739
107243,-333,214,-188,-303,-139,4,130,-186,-92,-395,-313,-648,-44,-13,-421,-403,-713,-578,-99,-181,-644,-326,-420,5,32,29,-351,-679,-377,-574,-612,-724
107244,-256,290,-186,-271,-121,9,115,-139,-73,-378,-371,-599,0,3,-428,-409,-686,-501,-72,-167,-632,-346,-326,92,89,64,-305,-472,-246,-462,-517,-678
107245,-169,242,-57,-248,-99,13,162,-135,-67,-377,-314,-562,-3,7,-395,-427,-676,-478,-65,-160,-600,-390,-257,118,110,91,-278,-332,-156,-417,-468,-669
107246,-135,333,-71,-231,-92,19,209,-114,-77,-383,-292,-546,-6,1,-402,-450,-684,-497,-46,-145,-607,-349,-252,109,88,94,-255,-289,-125,-389,-449,-671
107247,-148,454,-195,-252,-92,55,278,-164,-75,-378,-253,-576,-8,15,-401,-403,-679,-494,-51,-140,-592,-340,-221,124,120,110,-270,-163,-62,-339,-429,-717
107248,-68,482,-131,-238,-98,76,277,-223,-81,-381,-244,-720,-32,3,-407,-627,-743,-509,-69,-149,-606,-391,-257,100,88,98,-266,-265,-123,-388,-474,-730
107249,-10,510,-52,-217,-83,77,231,-159,-67,-358,-263,-712,-4,-5,-373,-947,-707,-497,-51,-139,-583,-183,-259,117,120,124,-184,-201,-79,-367,-423,-681
107250,-37,503,-111,-274,-103,74,193,-188,-100,-350,-216,-575,-23,0,-335,-873,-669,-490,-51,-125,-538,-82,-226,114,122,160,-166,-117,-60,-333,-400,-678
107251,-40,557,-212,-369,-128,125,220,-250,-128,-351,-100,-520,-67,-5,-333,-566,-691,-548,-78,-122,-513,-161,-288,84,95,164,-191,-292,-146,-388,-415,-676
107252,37,593,-156,-366,-115,148,223,-128,-109,-340,-117,-542,-48,0,-322,-387,-774,-541,-90,-114,-481,-210,-310,74,73,140,-183,-322,-134,-420,-417,-666
107253,73,624,-102,-347,-105,103,379,-46,-82,-368,-352,-557,-11,-7,-408,-286,-739,-489,-76,-138,-504,-231,-252,105,78,134,-179,-183,-83,-379,-411,-646
107254,185,687,-89,-338,-83,104,337,-69,-93,-362,-332,-610,-27,0,-438,-326,-722,-484,-71,-155,-527,-238,-239,82,89,129,-134,-189,-114,-369,-399,-619
107255,220,786,-50,-365,-76,144,339,-282,-124,-330,-274,-609,-67,0,-414,-381,-691,-490,-88,-148,-533,-239,-224,81,94,109,-116,-151,-94,-392,-439,-662
107256,271,856,-12,-369,-48,163,334,-309,-128,-335,-257,-570,-79,-15,-398,-559,-625,-523,-82,-167,-565,-216,-254,58,77,97,-158,-261,-129,-412,-470,-712
107257,311,944,-1,-312,-11,196,372,-190,-115,-316,-246,-549,-51,-27,-364,-677,-672,-537,-93,-178,-613,-202,-308,54,55,96,-194,-328,-148,-413,-474,-714
107258,343,975,9,-295,0,200,400,-177,-97,-320,-283,-512,-59,-36,-320,-526,-673,-543,-112,-156,-596,-192,-342,22,38,93,-206,-522,-254,-464,-504,-675
107259,395,1013,1,-300,3,226,380,-97,-97,-323,-242,-550,-74,-42,-281,-470,-714,-574,-123,-165,-558,-213,-370,-24,35,86,-258,-566,-316,-501,-533,-664
107260,461,1034,-13,-290,-1,225,401,-25,-105,-349,-247,-574,-42,-43,-341,-502,-754,-546,-108,-197,-589,-256,-336,0,51,90,-268,-431,-240,-477,-512,-719
107261,512,1085,25,-268,4,218,436,-29,-94,-381,-245,-524,-30,-61,-571,-427,-720,-511,-106,-233,-669,-264,-266,51,54,72,-223,-293,-180,-438,-483,-692
107262,527,1123,89,-295,19,211,448,-271,-99,-373,-217,-545,-76,-37,-471,-419,-673,-528,-96,-192,-630,-278,-276,54,63,85,-219,-188,-135,-396,-469,-673
107263,594,1162,123,-273,10,216,468,-159,-79,-366,-204,-558,-36,-34,-451,-565,-707,-527,-76,-179,-635,-189,-306,82,76,96,-189,-139,-110,-398,-451,-657
107264,638,1193,112,-277,25,206,475,-125,-76,-340,-219,-563,-25,-25,-450,-572,-664,-523,-68,-200,-615,-168,-267,89,84,118,-146,-121,-102,-407,-452,-660
107265,640,1249,128,-241,50,221,539,-150,-86,-328,-189,-538,-26,-25,-425,-312,-661,-552,-81,-213,-572,-190,-368,24,45,105,-129,-468,-249,-484,-486,-662
107266,674,1262,166,-212,67,233,506,-109,-87,-344,-201,-545,-32,-54,-449,-277,-665,-539,-106,-213,-597,-231,-374,7,25,64,-162,-555,-266,-503,-495,-654
107267,770,1327,187,-176,87,262,533,6,-47,-328,-203,-541,12,-67,-447,-395,-638,-504,-96,-224,-619,-321,-313,31,31,61,-179,-364,-209,-471,-493,-624
107268,727,1292,62,-157,73,257,500,276,-32,-352,-218,-605,61,-58,-452,-727,-677,-460,-80,-238,-637,-281,-281,52,29,53,-161,-221,-134,-421,-464,-638
107269,746,1328,0,-101,76,279,532,464,-21,-366,-199,-570,113,-58,-452,-655,-672,-442,-90,-239,-625,-194,-274,33,9,34,-127,-252,-144,-432,-485,-713
107270,769,1365,172,-129,99,324,575,42,-69,-342,-115,-412,-49,-64,-395,-360,-632,-539,-144,-248,-596,-225,-312,-6,-30,22,-134,-398,-242,-508,-547,-750
107271,802,1417,344,-292,90,368,633,-651,-138,-303,-85,-442,-184,-62,-383,-299,-611,-595,-160,-223,-584,-341,-281,-28,-16,-2,-208,-299,-205,-494,-529,-679
107272,798,1414,221,-238,73,331,588,-236,-95,-326,-177,-542,-67,-74,-432,-415,-658,-564,-158,-261,-619,-420,-307,-47,-66,-41,-311,-314,-263,-581,-595,-747
107273,771,1382,148,-201,76,337,599,-143,-96,-323,-129,-586,-74,-70,-417,-401,-694,-597,-174,-254,-574,-291,-387,-79,-83,-19,-260,-495,-355,-611,-627,-748
107274,777,1374,157,-207,61,328,542,-134,-82,-327,-149,-538,-87,-65,-396,-403,-728,-586,-146,-229,-562,-112,-350,-63,-67,-19,-247,-304,-267,-543,-592,-748
107275,809,1394,210,-199,73,320,546,-130,-71,-340,-186,-498,-107,-50,-392,-366,-724,-578,-160,-228,-567,-186,-311,-28,-53,-16,-270,-148,-188,-507,-558,-728
107276,794,1340,199,-216,64,287,523,-179,-80,-350,-175,-549,-96,-61,-396,-377,-734,-584,-155,-231,-553,-251,-315,-42,-48,-4,-247,-161,-201,-499,-552,-713
107277,782,1345,224,-204,69,320,513,-211,-80,-328,-96,-609,-112,-52,-375,-493,-711,-614,-151,-221,-603,-212,-365,-69,-48,-10,-233,-321,-260,-552,-583,-737
107278,792,1333,149,-223,54,349,493,-206,-93,-318,10,-758,-121,-57,-349,-645,-751,-627,-171,-218,-625,-249,-430,-88,-64,9,-220,-513,-300,-549,-559,-750
107279,778,1332,129,-252,57,346,599,-198,-83,-317,-111,-828,-88,-30,-334,-604,-791,-602,-158,-180,-589,-293,-396,-46,-16,51,-170,-414,-223,-484,-525,-730
107280,783,1317,186,-227,67,291,559,-160,-66,-327,-318,-667,-91,-17,-392,-409,-763,-597,-124,-151,-543,-240,-410,-43,28,100,-124,-552,-304,-522,-525,-721
107281,718,1240,128,-285,29,267,403,-218,-114,-351,-204,-602,-149,-38,-368,-376,-793,-656,-168,-172,-542,-289,-473,-101,-15,59,-139,-672,-377,-568,-552,-754
107282,709,1266,110,-315,14,288,498,-209,-107,-330,-164,-586,-133,-28,-339,-317,-774,-614,-160,-167,-515,-299,-407,-86,5,72,-180,-553,-313,-527,-510,-698
107283,728,1253,110,-278,20,310,512,-168,-88,-319,-180,-585,-111,-15,-337,-248,-788,-596,-150,-157,-496,-309,-372,-73,19,98,-179,-460,-271,-501,-502,-697
107284,689,1231,113,-257,9,291,503,-182,-103,-307,-189,-624,-130,-17,-350,-350,-826,-605,-155,-147,-515,-317,-393,-62,-12,73,-205,-477,-281,-540,-537,-756
107285,691,1231,60,-246,13,317,555,-84,-100,-302,-108,-624,-99,-34,-311,-394,-807,-586,-134,-146,-508,-304,-361,-45,-1,88,-176,-385,-248,-518,-526,-781
107286,658,1173,63,-232,18,302,499,-4,-105,-306,-125,-633,-61,-22,-298,-430,-798,-562,-114,-128,-528,-331,-359,-43,8,111,-142,-400,-283,-519,-523,-780
107287,582,1145,72,-235,7,269,408,-35,-92,-324,-175,-696,-62,-16,-328,-570,-838,-546,-125,-140,-568,-454,-363,-41,0,81,-176,-385,-289,-547,-564,-880
107288,536,1151,67,-308,9,259,410,-297,-116,-312,-194,-722,-138,-23,-356,-633,-867,-587,-155,-175,-578,-448,-369,-48,-17,62,-277,-338,-280,-558,-584,-874
107289,507,1136,54,-306,8,268,438,-295,-130,-319,-179,-685,-149,-27,-356,-589,-874,-647,-173,-180,-577,-275,-380,-60,-11,42,-371,-383,-320,-557,-558,-753
107290,532,1133,44,-297,4,271,479,-228,-131,-339,-185,-654,-172,-54,-356,-691,-932,-671,-180,-211,-633,-372,-458,-92,-66,16,-386,-525,-383,-614,-615,-847
107291,500,1072,50,-302,5,243,410,-235,-125,-347,-200,-663,-140,-65,-379,-1107,-884,-647,-172,-233,-661,-481,-442,-75,-64,15,-402,-399,-298,-554,-567,-851
107292,450,1025,6,-303,7,212,299,-218,-116,-339,-221,-670,-134,-50,-369,-997,-811,-627,-167,-235,-659,-453,-405,-69,-46,0,-350,-406,-303,-570,-599,-796
107293,422,994,-59,-332,2,233,341,-236,-126,-326,-238,-668,-143,-55,-371,-484,-801,-643,-186,-252,-648,-256,-465,-111,-86,-9,-324,-505,-407,-639,-647,-773
107294,402,907,-54,-348,-11,208,286,-253,-123,-337,-320,-685,-139,-50,-373,-563,-820,-643,-204,-256,-683,-281,-465,-110,-78,-25,-342,-322,-312,-597,-618,-813
107295,396,913,-67,-342,-4,199,255,-249,-114,-342,-312,-716,-158,-74,-335,-803,-850,-674,-215,-251,-723,-377,-500,-143,-83,-34,-359,-350,-359,-626,-660,-829
107296,361,921,-66,-357,6,195,277,-269,-128,-347,-248,-736,-181,-72,-364,-530,-908,-719,-238,-260,-720,-358,-582,-179,-108,-39,-349,-680,-506,-705,-711,-859
107297,323,868,-64,-344,3,161,321,-246,-117,-383,-182,-713,-176,-77,-563,-248,-921,-730,-248,-312,-748,-340,-610,-205,-116,-68,-326,-808,-560,-729,-716,-844
107298,276,803,-95,-339,-20,168,245,-243,-131,-385,-225,-690,-193,-62,-477,-367,-918,-715,-248,-294,-698,-331,-559,-206,-116,-54,-337,-770,-540,-732,-708,-841
107299,250,776,-102,-336,-13,178,222,-225,-123,-353,-224,-704,-173,-45,-435,-442,-867,-708,-235,-249,-664,-349,-545,-172,-109,-31,-349,-689,-475,-697,-694,-837
107300,220,748,-63,-358,-39,180,248,-217,-122,-349,-190,-698,-152,-36,-418,-494,-802,-671,-207,-242,-627,-358,-528,-149,-95,-22,-345,-572,-423,-646,-668,-848
107301,207,735,-34,-304,-35,165,240,-176,-90,-346,-232,-655,-138,-39,-389,-634,-793,-634,-190,-238,-596,-321,-459,-136,-81,-16,-324,-476,-378,-610,-659,-814
107302,178,699,-97,-310,-32,153,246,-67,-69,-352,-227,-632,-97,-37,-373,-721,-773,-605,-173,-225,-564,-286,-413,-96,-64,-9,-278,-395,-307,-584,-612,-763
107303,130,650,-161,-340,-44,126,239,-25,-77,-350,-222,-665,-97,-42,-396,-673,-757,-608,-184,-248,-621,-392,-440,-115,-96,-50,-303,-387,-308,-595,-614,-778
107304,97,594,-144,-341,-59,84,119,-100,-101,-371,-285,-691,-96,-51,-429,-505,-737,-593,-192,-260,-668,-502,-463,-122,-111,-81,-298,-368,-319,-582,-616,-777
107305,47,535,-240,-365,-54,94,135,-225,-99,-367,-259,-704,-112,-35,-421,-338,-710,-579,-178,-242,-641,-433,-456,-114,-77,-50,-279,-410,-332,-602,-601,-778
107306,-13,458,-324,-308,-40,95,100,128,-59,-345,-184,-650,-19,4,-382,-424,-727,-546,-146,-215,-644,-282,-446,-84,-49,-22,-281,-498,-327,-592,-613,-822
107307,-38,427,-167,-303,-71,119,68,232,-83,-344,-83,-645,-62,6,-342,-559,-759,-581,-152,-212,-628,-274,-439,-63,-33,-13,-277,-389,-290,-546,-581,-809
107308,-24,417,-105,-408,-87,70,73,-184,-91,-348,-246,-609,-61,17,-343,-503,-683,-527,-119,-182,-580,-228,-360,-6,20,47,-169,-230,-171,-447,-493,-721
107309,-21,442,-51,-460,-89,26,201,-575,-115,-381,-394,-485,-106,17,-398,-513,-600,-544,-107,-175,-548,-159,-327,17,26,55,-116,-256,-184,-426,-477,-688
107310,-47,422,-117,-416,-95,67,186,-296,-103,-374,-238,-480,-104,18,-360,-436,-610,-536,-117,-173,-525,-158,-350,12,23,55,-166,-308,-232,-452,-485,-679
107311,-46,415,-125,-417,-105,50,172,-191,-95,-371,-237,-476,-80,1,-365,-310,-599,-488,-123,-173,-549,-199,-308,6,11,48,-207,-253,-191,-456,-492,-650
107312,-50,416,-130,-427,-103,56,158,-230,-92,-383,-258,-529,-66,-10,-366,-293,-599,-509,-101,-184,-541,-161,-328,15,17,61,-88,-335,-194,-478,-496,-599
107313,-74,412,-146,-440,-107,63,165,-275,-114,-386,-251,-691,-86,-3,-357,-294,-642,-510,-99,-182,-508,-143,-330,31,20,75,-1,-340,-183,-452,-493,-687
107314,-93,377,-148,-445,-92,69,142,-224,-108,-382,-241,-658,-81,-2,-358,-301,-601,-490,-88,-161,-513,-116,-284,41,47,61,-104,-287,-143,-415,-465,-659
