,Fp1,Fp2,F7,F3,Fz,F4,F8,FC5,FC1,FC2,FC6,T7,C3,Cz,C4,T8,TP9,CP5,CP1,CP2,CP6,TP10,P7,P3,Pz,P4,P8,PO9,O1,Oz,O2,PO10
100585,-218,-10,241,-119,-12,223,-115,169,79,-192,101,-403,-30,-178,-115,-97,-409,-158,-83,-156,-233,-83,-1,-164,-75,-139,-73,-255,-289,-461,-268,-363
100586,-209,4,293,-135,-4,249,-74,185,64,-183,242,-411,-36,-188,-78,-81,-410,-163,-109,-160,-223,-74,9,-176,-83,-147,-66,-258,-292,-451,-259,-365
100587,-186,18,296,-122,-1,199,-102,139,70,-227,125,-424,-25,-191,-151,-62,-351,-157,-107,-179,-255,52,75,-146,-91,-154,-33,-233,-280,-444,-249,-302
100588,-184,11,280,-126,-16,177,-93,113,67,-227,76,-429,-44,-201,-160,-42,-341,-211,-99,-176,-250,7,59,-174,-105,-154,-13,-220,-262,-439,-271,-362
100589,-207,-23,250,-117,-27,183,-138,51,64,-235,114,-479,-65,-212,-169,-88,-380,-234,-125,-188,-296,-104,-36,-192,-117,-204,-138,-201,-260,-424,-304,-399
100590,-212,-98,255,-111,-23,161,-190,21,92,-260,118,-492,-34,-197,-188,-15,-384,-212,-134,-199,-281,-126,-7,-166,-108,-206,-145,-208,-240,-406,-287,-398
100591,-207,-86,225,-100,3,199,-130,137,124,-233,122,-437,20,-172,-159,-2,-400,-176,-104,-180,-268,-72,-29,-130,-113,-179,-83,-183,-237,-414,-257,-369
100592,-193,-32,281,-117,-2,201,-131,261,104,-226,73,-475,0,-171,-164,-25,-371,-177,-73,-173,-279,-19,-8,-104,-87,-183,-43,-147,-241,-394,-234,-304
100593,-216,-59,281,-131,-30,189,-136,286,90,-238,50,-528,11,-165,-157,-64,-405,-160,-77,-187,-318,-82,10,-114,-111,-198,-56,-248,-264,-426,-267,-355
100594,-217,-66,293,-105,-32,180,-144,293,91,-221,38,-369,-39,-166,-143,-127,-401,-172,-88,-196,-328,-90,2,-136,-131,-209,-90,-302,-304,-467,-290,-375
100595,-240,-67,270,-144,-22,190,-144,119,43,-230,88,-408,-90,-168,-153,-158,-383,-217,-111,-203,-317,-52,-2,-139,-129,-214,-137,-268,-306,-485,-280,-329
100596,-224,-29,270,-133,-14,196,-102,140,72,-254,103,-391,-47,-156,-211,-95,-363,-165,-80,-195,-278,-45,68,-102,-94,-183,-89,-183,-201,-405,-248,-332
100597,-205,-57,255,-131,-27,180,-134,140,66,-256,36,-399,-32,-173,-193,-95,-401,-138,-97,-203,-308,-92,55,-109,-106,-172,-69,-226,-207,-404,-263,-318
100598,-206,-56,285,-120,-11,184,-149,171,86,-257,57,-375,-26,-165,-195,-49,-381,-128,-94,-194,-327,-107,80,-94,-102,-176,-55,-269,-228,-412,-263,-333
100599,-168,-14,348,-90,-15,188,-122,128,93,-240,113,-403,-22,-160,-167,-24,-337,-209,-81,-159,-282,-65,87,-123,-91,-170,-48,-280,-251,-379,-231,-288
100600,-181,-28,347,-74,-14,166,-156,134,108,-265,52,-416,43,-153,-173,-53,-322,-175,-89,-166,-272,-124,55,-133,-110,-183,-48,-247,-284,-438,-263,-329
100601,-219,-44,326,-94,-18,154,-190,190,79,-277,54,-392,-16,-158,-153,-83,-350,-146,-108,-167,-281,-129,50,-125,-116,-185,-70,-233,-277,-452,-290,-402
100602,-173,-12,310,-119,-23,160,-157,229,55,-236,78,-287,-116,-153,-114,-73,-308,-118,-106,-157,-315,-76,109,-107,-81,-161,-83,-164,-209,-397,-254,-324
100603,-168,-62,319,-105,-42,151,-149,215,66,-250,17,-323,-51,-163,-162,-76,-252,-130,-79,-184,-330,-51,138,-76,-66,-184,-66,-134,-150,-341,-223,-294
100604,-179,-53,337,-94,-20,164,-114,213,60,-248,102,-368,-60,-157,-202,-72,-256,-146,-77,-163,-285,-66,99,-84,-63,-187,-60,-92,-122,-307,-196,-300
100605,-204,-58,341,-158,-32,154,-119,151,54,-251,74,-365,-67,-152,-165,-72,-239,-145,-71,-155,-288,-89,137,-61,-40,-169,-57,-43,-74,-250,-129,-228
100606,-176,-32,361,-112,-21,187,-131,214,82,-240,53,-364,-1,-125,-145,-92,-249,-105,-39,-143,-259,-99,162,-59,-18,-131,-2,-109,-93,-264,-131,-256
100607,-191,-40,328,-134,-25,175,-131,163,81,-249,45,-342,3,-130,-168,-122,-198,-96,-36,-116,-256,-84,121,-73,-24,-128,-38,-110,-122,-298,-153,-268
100608,-247,-80,277,-160,-50,160,-172,147,78,-255,98,-324,-19,-127,-195,-109,-210,-59,-25,-128,-282,-88,179,-28,-25,-133,-82,-12,-72,-277,-156,-276
100609,-223,-57,294,-150,-33,150,-186,167,94,-266,98,-284,-33,-116,-196,-110,-240,-65,-15,-127,-291,-70,209,-2,2,-110,-56,-134,-101,-277,-129,-260
100610,-256,-89,221,-157,-50,118,-198,156,89,-273,37,-313,6,-115,-200,-131,-221,-68,-5,-117,-303,-129,166,-11,-9,-117,-67,-107,-87,-250,-129,-288
100611,-187,-83,348,-108,-35,137,-197,187,114,-270,-35,-341,27,-123,-189,-175,-202,-72,15,-108,-320,-135,226,6,11,-108,-58,-88,-122,-282,-136,-301
100612,-175,-51,348,-85,-28,146,-132,208,122,-262,-56,-345,55,-82,-168,-258,-222,-67,29,-89,-316,-39,171,25,42,-56,-6,-71,-109,-260,-92,-209
100613,-237,-89,293,-112,-58,105,-162,273,136,-257,30,-334,89,-96,-146,-159,-230,-35,24,-67,-243,0,131,11,60,-30,68,-48,-71,-243,-58,-183
100614,-231,-59,321,-132,-44,141,-143,185,106,-254,22,-303,11,-93,-149,49,-174,-74,16,-62,-210,67,166,23,73,9,99,-19,-34,-190,-7,-105
100615,-217,-54,302,-138,-33,165,-115,167,109,-248,14,-300,-8,-92,-124,-71,-220,-67,25,-69,-255,24,154,27,60,-8,55,-42,-39,-183,-19,-167
100616,-237,-66,302,-168,-55,160,-110,163,62,-259,96,-333,-7,-120,-127,-87,-236,-90,1,-85,-228,9,145,8,49,-23,44,-93,-50,-225,-58,-229
100617,-244,-62,278,-122,-55,181,-81,282,103,-268,90,-317,43,-113,-160,-54,-175,-43,11,-83,-245,-15,205,18,32,-26,41,-48,-43,-191,-36,-199
100618,-211,-56,280,-109,-39,194,-89,300,112,-240,55,-269,34,-111,-99,-58,-187,-11,8,-73,-218,0,219,20,30,-2,79,-34,-24,-150,-12,-184
100619,-188,-70,320,-139,-44,190,-97,211,78,-238,60,-288,-4,-142,-73,-53,-185,-31,-5,-58,-202,13,228,21,26,5,106,-12,-15,-144,-11,-178
100620,-205,-28,335,-126,-45,203,-43,214,103,-252,155,-265,14,-125,-134,6,-206,-27,12,-41,-162,0,192,19,45,8,123,-6,2,-154,4,-173
100621,-185,15,379,-110,-29,203,-67,205,103,-233,130,-251,30,-107,-101,-52,-145,-37,7,-62,-169,75,175,-16,13,-4,84,-61,-75,-251,-78,-175
100622,-187,0,348,-97,-32,205,-94,186,112,-195,158,-287,29,-108,-69,-55,-125,-43,-3,-59,-160,80,169,-31,8,-16,91,-113,-176,-323,-124,-183
100623,-231,-13,364,-83,-28,193,-91,222,127,-214,148,-244,65,-107,-79,-33,-106,-16,24,-43,-157,18,178,5,15,-22,85,-70,-92,-245,-87,-243
100624,-241,-9,382,-76,-28,188,-45,127,139,-216,79,-281,59,-91,-72,11,-104,-36,37,-43,-193,10,204,20,35,-9,13,-59,-45,-217,-85,-252
100625,-276,-42,266,-138,-61,175,-72,113,121,-227,59,-303,49,-80,-60,-37,-161,-26,37,-51,-240,-26,205,18,43,-36,-16,-81,-38,-239,-104,-246
100626,-291,-73,234,-175,-90,151,-113,217,77,-243,51,-284,43,-84,-62,-155,-257,-9,29,-53,-261,-68,168,29,43,-65,-51,-76,-55,-289,-134,-294
100627,-250,-35,285,-157,-69,190,-64,178,100,-215,114,-303,16,-87,-75,-59,-317,-70,21,-55,-226,-39,107,2,36,-52,-42,-128,-93,-297,-158,-309
100628,-272,-70,255,-146,-56,189,-94,177,104,-209,157,-316,20,-97,-98,-76,-273,-87,19,-68,-239,-93,97,-28,0,-87,-64,-194,-163,-350,-206,-376
100629,-302,-96,279,-145,-61,189,-128,192,108,-221,81,-342,35,-102,-144,-163,-308,-55,11,-96,-277,-152,77,-34,-30,-116,-60,-243,-230,-376,-230,-410
100630,-317,-91,303,-138,-68,193,-78,186,111,-218,92,-403,43,-112,-146,-145,-367,-54,8,-114,-262,-153,33,-44,-32,-120,-77,-191,-199,-361,-201,-352
100631,-328,-90,295,-144,-62,199,-76,166,99,-210,123,-410,62,-119,-100,-130,-380,-47,6,-103,-274,-161,35,-36,-30,-144,-94,-220,-207,-364,-217,-377
100632,-300,-64,275,-148,-47,175,-107,156,130,-223,102,-343,108,-124,-133,-124,-350,-41,0,-115,-268,-152,66,-52,-29,-137,-95,-227,-214,-379,-207,-348
100633,-281,-66,223,-161,-47,181,-121,186,143,-221,111,-286,122,-113,-117,-51,-283,-67,12,-104,-249,-153,62,-49,-24,-122,-97,-201,-203,-357,-200,-360
100634,-305,-90,223,-146,-67,180,-115,309,125,-212,139,-271,-1,-132,-119,-47,-274,-25,0,-76,-239,-173,111,-38,-7,-109,-69,-167,-152,-323,-205,-357
100635,-341,-133,220,-197,-95,181,-188,169,75,-229,114,-333,-77,-135,-96,-62,-298,-60,-31,-90,-237,-184,108,-37,-1,-101,-50,-161,-137,-311,-170,-323
100636,-342,-144,235,-196,-98,168,-177,97,69,-235,-4,-354,-29,-128,-99,-118,-315,-91,-41,-97,-251,-111,109,-55,-23,-105,-56,-152,-140,-326,-150,-315
100637,-314,-146,248,-184,-94,118,-207,197,81,-247,36,-365,-9,-105,-112,-129,-292,-77,-16,-76,-222,-126,141,-52,-12,-90,-33,-158,-177,-350,-163,-342
100638,-347,-139,271,-235,-119,116,-212,173,62,-255,53,-380,15,-140,-152,-149,-280,-117,-24,-106,-256,-158,72,-56,-12,-130,-77,-193,-205,-383,-198,-409
100639,-353,-108,213,-209,-93,125,-213,183,78,-255,62,-360,24,-133,-164,-156,-281,-105,-19,-130,-341,-184,73,-57,-18,-165,-161,-143,-184,-400,-237,-364
100640,-264,-65,326,-160,-48,120,-165,203,97,-257,3,-306,-28,-137,-174,-137,-282,-125,-27,-136,-370,-185,93,-57,-42,-177,-114,-150,-195,-433,-267,-373
100641,-276,-89,284,-179,-65,131,-152,170,105,-248,11,-357,-1,-124,-147,-173,-253,-127,-32,-123,-314,-156,110,-48,-31,-157,-108,-127,-170,-416,-238,-354
100642,-276,-86,270,-142,-71,116,-161,159,124,-246,106,-411,102,-116,-157,-136,-286,-82,8,-111,-308,-150,102,-27,-19,-162,-99,-102,-153,-389,-232,-323
100643,-317,-103,226,-130,-67,92,-140,126,134,-260,43,-451,182,-107,-170,-147,-299,-93,44,-128,-329,-150,66,-22,-1,-172,-93,-140,-192,-409,-260,-312
100644,-314,-105,205,-128,-71,118,-184,210,115,-241,44,-316,28,-88,-149,-112,-258,-88,44,-120,-308,-108,146,-23,-2,-156,-69,-222,-241,-433,-264,-321
100645,-313,-108,225,-136,-76,122,-189,236,91,-225,22,-303,-59,-98,-116,-117,-274,-73,34,-130,-318,-107,103,-21,8,-152,-64,-216,-235,-433,-262,-360
100646,-326,-111,286,-150,-76,123,-168,205,111,-218,54,-353,50,-93,-94,-106,-336,-70,61,-106,-307,-120,47,-2,14,-147,-118,-161,-198,-398,-237,-361
100647,-286,-74,344,-183,-63,129,-161,177,98,-229,89,-302,54,-72,-149,-162,-246,-31,67,-70,-285,-81,156,36,62,-114,-86,-119,-109,-335,-203,-297
100648,-270,-62,298,-152,-77,117,-170,194,86,-253,116,-326,59,-96,-161,-81,-239,-13,80,-93,-236,-94,172,63,69,-95,-53,-85,-79,-295,-202,-321
100649,-290,-59,247,-152,-69,140,-136,289,111,-237,34,-299,104,-83,-165,28,-221,13,121,-86,-284,-79,224,108,93,-94,-49,14,-10,-242,-175,-314
100650,-290,-72,240,-181,-57,150,-131,223,95,-235,70,-314,61,-91,-161,-7,-226,-43,80,-79,-277,-78,187,73,90,-76,-13,-122,-62,-278,-167,-292
100651,-291,-36,261,-152,-41,163,-100,219,90,-207,101,-339,36,-74,-82,-79,-257,-85,60,-62,-217,-67,55,23,66,-58,7,-202,-141,-328,-172,-262
100652,-268,-39,279,-112,-42,158,-85,207,118,-229,42,-309,72,-71,-95,-68,-281,-54,88,-45,-216,-5,100,29,68,-62,21,-155,-142,-335,-181,-276
100653,-273,-58,235,-133,-36,170,-115,167,105,-222,64,-320,49,-56,-37,-157,-329,-29,82,-21,-195,-25,120,42,76,-69,24,-165,-156,-336,-197,-277
100654,-264,-28,283,-143,-31,163,-106,223,93,-232,98,-343,34,-63,-94,-158,-326,-58,70,-64,-228,-88,95,22,68,-93,-40,-145,-146,-339,-233,-345
100655,-295,-47,289,-151,-56,158,-90,259,86,-244,33,-425,60,-93,-129,-155,-304,-91,45,-95,-253,-130,87,-2,32,-98,-64,-125,-128,-336,-234,-349
100656,-306,-48,249,-149,-54,165,-88,198,101,-228,83,-386,81,-88,-113,-101,-303,-49,68,-84,-223,-109,109,12,54,-64,-4,-113,-100,-311,-185,-321
100657,-283,-50,244,-146,-65,144,-112,183,97,-258,147,-297,53,-119,-207,-2,-307,-53,54,-97,-208,-115,132,27,53,-53,26,-60,-58,-271,-166,-311
100658,-255,-44,299,-155,-59,143,-130,81,84,-247,94,-316,2,-113,-180,-43,-257,-87,34,-84,-223,-125,139,25,52,-69,32,-53,-52,-277,-156,-252
100659,-235,-30,354,-125,-68,127,-131,60,115,-228,75,-314,29,-104,-163,-65,-263,-54,44,-104,-256,-100,143,21,36,-91,2,-73,-50,-284,-167,-280
100660,-197,-13,341,-116,-48,142,-78,213,126,-241,82,-321,46,-110,-175,-66,-265,-56,39,-129,-268,-49,158,9,17,-85,-24,-91,-65,-270,-132,-221
100661,-186,9,302,-158,-55,150,-26,284,74,-237,125,-343,0,-106,-160,-46,-209,-80,17,-120,-229,26,149,-12,9,-84,24,-130,-132,-298,-124,-157
100662,-216,-17,322,-141,-64,141,-93,330,92,-240,137,-331,20,-109,-179,-44,-238,-65,26,-127,-209,9,137,-28,5,-70,77,-112,-141,-285,-120,-191
100663,-234,-22,276,-142,-77,136,-56,277,85,-257,127,-290,13,-112,-163,-12,-224,-67,21,-125,-211,2,120,-29,8,-69,39,-38,-132,-299,-152,-182
100664,-210,13,293,-124,-46,152,-31,179,106,-232,106,-303,56,-93,-136,-29,-173,-38,40,-106,-190,44,170,3,38,-45,87,-20,-91,-261,-88,-134
100665,-137,13,391,-84,-54,174,-26,153,140,-224,142,-344,134,-72,-104,14,-224,4,63,-83,-176,72,178,19,61,-37,96,-29,-83,-237,-64,-149
100666,-169,20,373,-91,-70,203,-23,275,132,-210,71,-335,133,-98,-113,14,-187,6,60,-92,-162,86,195,13,48,-43,114,25,-78,-229,-70,-139
100667,-165,48,402,-95,-44,223,-19,348,107,-205,161,-217,14,-100,-85,17,-124,3,47,-83,-129,123,232,20,42,-32,137,10,-76,-228,-65,-134
100668,-178,47,374,-121,-33,205,2,305,108,-213,264,-211,70,-90,-69,78,-95,-1,39,-49,-123,149,227,31,53,-27,141,31,-44,-214,-80,-147
100669,-166,38,408,-109,-40,242,-5,254,101,-205,303,-221,38,-93,-42,84,-56,-44,33,-61,-132,109,247,36,66,-20,129,32,-29,-218,-79,-140
100670,-177,45,422,-77,-55,208,14,287,101,-212,182,-220,55,-98,-75,51,-52,18,54,-64,-154,77,258,35,86,-21,130,54,2,-191,-61,-136
100671,-164,42,428,-85,-67,167,57,327,132,-221,107,-175,126,-93,-103,13,-40,60,91,-44,-136,153,300,68,106,1,175,64,41,-135,-14,-76
100672,-163,27,408,-103,-44,193,48,324,139,-224,154,-160,122,-87,-45,-59,-50,61,103,-8,-129,150,320,77,104,-16,142,60,56,-129,-9,-78
100673,-178,32,435,-100,-54,208,-3,288,125,-203,151,-150,105,-72,0,-25,-54,54,123,-6,-102,141,316,76,116,3,143,85,89,-90,15,-96
100674,-168,14,455,-108,-55,215,0,277,134,-195,148,-148,106,-69,-7,36,-23,78,98,-28,-110,112,329,76,107,6,176,91,30,-135,3,-75
100675,-170,14,418,-116,-42,259,65,320,139,-182,209,-158,112,-64,-20,73,-54,54,95,-3,-96,108,303,66,116,15,210,62,9,-183,-2,-125
100676,-201,-16,356,-104,-71,217,-53,348,111,-214,197,-172,107,-61,-69,105,-103,39,112,-1,-152,141,347,73,137,5,170,101,50,-135,23,-51
100677,-221,-31,366,-115,-65,180,-111,312,111,-227,157,-167,120,-41,-89,96,-45,81,112,-1,-122,140,357,96,126,31,173,110,67,-115,39,-42
100678,-149,42,430,-107,-31,240,37,327,137,-191,224,-129,129,-62,-77,113,-16,101,101,-10,-119,152,337,121,117,16,190,169,127,-73,44,-32
100679,-40,162,521,-71,-8,293,170,311,138,-178,291,-176,91,-102,-87,116,-52,54,84,-57,-139,138,315,77,86,-29,158,155,99,-131,-15,-51
100680,-32,183,508,-57,-15,276,191,339,110,-194,249,-202,64,-142,-69,126,-41,15,29,-81,-150,99,334,31,62,-43,173,86,25,-205,-61,-109
100681,-94,101,473,-93,-36,238,83,297,103,-215,195,-233,70,-121,-84,92,-28,-4,48,-60,-149,109,323,47,80,-31,210,124,59,-177,-34,-98
100682,-190,59,392,-125,-60,241,94,211,78,-205,247,-249,46,-102,-57,106,-50,-6,56,-36,-123,80,250,49,101,-24,164,111,36,-173,-30,-83
100683,-231,69,329,-128,-71,258,130,220,78,-194,271,-291,43,-98,-36,101,-89,-24,51,-32,-136,119,272,59,110,-12,133,28,27,-172,-30,-126
100684,-202,57,349,-145,-52,246,84,272,100,-188,229,-263,71,-104,-36,86,-133,-7,50,-43,-161,100,261,57,93,-33,124,27,34,-168,-43,-105
100685,-156,77,406,-127,-42,244,102,262,98,-168,209,-239,38,-114,-35,41,-160,-28,39,-50,-167,72,223,51,89,-50,118,68,59,-169,-34,-123
100686,-181,40,394,-129,-55,234,58,244,99,-178,201,-264,28,-113,-43,23,-170,-23,28,-61,-181,66,199,42,86,-68,72,81,75,-160,-66,-162
100687,-260,13,279,-165,-70,185,18,221,93,-213,154,-303,58,-109,-73,-17,-256,-43,31,-93,-220,26,184,27,87,-99,42,55,26,-209,-102,-202
100688,-266,17,258,-152,-58,196,-1,245,110,-225,182,-350,83,-115,-138,13,-302,-49,32,-111,-238,28,161,28,66,-110,37,-19,-66,-274,-128,-185
100689,-264,2,279,-117,-67,199,-8,287,115,-230,205,-379,94,-127,-144,-82,-250,-58,20,-136,-270,-52,102,-6,21,-155,24,-90,-108,-300,-165,-203
100690,-234,0,313,-139,-80,203,-12,190,97,-232,178,-295,-3,-123,-126,-102,-206,-98,17,-114,-242,-68,129,-5,28,-128,-5,-30,-28,-269,-150,-234
100691,-226,-14,344,-172,-78,185,11,140,83,-241,157,-335,-4,-118,-136,-72,-271,-95,-4,-111,-260,-83,146,0,19,-110,-17,0,7,-230,-156,-285
100692,-229,12,263,-126,-48,193,37,221,101,-225,164,-373,7,-116,-130,-87,-320,-114,-11,-122,-287,-97,109,-37,3,-135,-20,-70,-73,-293,-196,-297
100693,-219,27,281,-109,-38,186,45,178,114,-230,98,-384,15,-135,-145,-71,-294,-124,-29,-103,-268,-73,78,-33,14,-111,-18,-104,-116,-300,-172,-270
100694,-256,0,261,-112,-60,175,38,141,114,-259,40,-373,19,-134,-129,-249,-309,-103,-29,-110,-268,-79,83,-20,-2,-97,-27,-71,-95,-287,-177,-286
100695,-227,0,244,-134,-69,214,14,194,122,-212,201,-345,23,-104,-60,-153,-295,-87,-1,-74,-164,-69,101,-17,24,-76,36,-68,-99,-303,-168,-264
100696,-136,34,335,-133,-44,206,86,215,84,-208,192,-322,0,-94,-122,-13,-197,-78,10,-64,-193,-66,126,-1,34,-49,57,-133,-111,-302,-126,-219
100697,-186,32,311,-183,-42,233,82,191,117,-207,198,-339,20,-61,-80,34,-151,-48,44,-55,-148,8,140,7,59,-4,88,-53,-74,-246,-83,-153
100698,-165,23,351,-140,-42,217,46,260,132,-213,109,-343,48,-79,-78,-30,-186,-73,51,-46,-171,-65,120,-2,64,-24,108,-13,-62,-241,-89,-168
100699,-196,-19,321,-123,-58,228,30,182,90,-178,2,-424,27,-89,4,-59,-227,-142,39,-44,-195,-83,77,-26,51,-32,125,-77,-71,-277,-123,-198
100700,-255,-67,240,-173,-86,199,-44,103,70,-191,55,-448,54,-96,55,-68,-269,-150,30,-59,-200,-63,45,-59,30,-31,121,-120,-109,-316,-140,-277
100701,-221,5,245,-121,-61,206,37,198,108,-216,268,-378,95,-93,-76,53,-282,-113,34,-49,-142,-48,98,-42,47,-23,110,-113,-127,-305,-105,-190
100702,-183,13,327,-149,-69,244,103,194,73,-221,350,-260,-76,-93,-159,191,-244,-119,21,-45,-114,39,109,-38,59,14,162,-105,-122,-261,-67,-130
100703,-180,-20,338,-177,-84,255,90,208,64,-194,320,-288,-102,-82,-79,117,-257,-138,18,-30,-115,63,90,-34,73,27,152,-121,-107,-238,-54,-122
100704,-200,-3,311,-136,-88,227,59,206,87,-199,226,-356,4,-82,-75,79,-244,-53,45,-7,-107,94,194,30,95,50,166,-47,-18,-187,-13,-93
100705,-238,8,253,-166,-107,214,53,157,57,-218,220,-346,-16,-86,-51,77,-272,-84,58,0,-75,108,172,31,107,71,194,-21,25,-141,42,-85
100706,-200,16,280,-162,-94,204,38,200,54,-225,227,-381,-14,-79,-52,80,-314,-140,48,-17,-52,91,83,-12,84,67,192,-77,-42,-175,23,-66
100707,-209,18,260,-142,-110,193,52,247,78,-223,182,-393,-6,-66,-80,89,-290,-165,39,-29,-143,66,98,-11,83,38,197,-41,-24,-183,-15,-131
100708,-236,-18,229,-158,-109,182,-6,247,95,-218,165,-407,15,-59,-77,104,-245,-165,38,-19,-138,67,128,-5,94,44,186,0,-6,-180,-51,-211
100709,-191,3,300,-196,-84,218,-3,80,66,-227,214,-395,-12,-55,-78,30,-264,-137,47,2,-114,18,144,11,105,65,167,-38,-17,-173,-33,-117
100710,-194,-5,313,-217,-86,196,13,118,59,-221,230,-379,-41,-68,-64,-32,-291,-130,32,11,-115,16,122,14,99,68,192,-60,-21,-183,-17,-107
100711,-197,-10,324,-183,-90,200,68,190,61,-215,204,-370,-11,-53,-58,52,-265,-145,38,7,-98,68,128,2,91,60,191,-144,-107,-258,-56,-123
100712,-168,0,293,-185,-86,189,92,175,67,-234,196,-384,6,-30,-37,91,-266,-121,58,29,-72,23,107,-16,99,72,171,-167,-137,-255,-51,-149
100713,-192,1,195,-225,-101,184,55,49,31,-229,235,-428,-30,-42,-32,103,-298,-141,52,31,-54,49,101,-26,90,81,203,-155,-134,-253,-39,-108
100714,-224,9,169,-210,-100,184,69,47,63,-217,236,-435,-23,-33,-14,78,-316,-158,43,43,-54,85,119,-28,87,92,233,-135,-104,-253,-42,-128
100715,-234,22,177,-183,-90,209,55,123,85,-218,231,-456,-13,-36,-24,38,-342,-195,27,36,-63,63,25,-60,77,62,194,-120,-120,-258,-72,-173
100716,-228,21,212,-199,-105,227,27,135,64,-209,288,-453,-1,-44,-5,56,-313,-157,28,20,-78,40,53,-61,77,48,154,-124,-127,-274,-74,-166
100717,-215,18,294,-196,-109,228,72,147,54,-219,274,-422,-6,-45,-5,109,-280,-134,37,32,-77,66,104,-27,96,62,197,-78,-96,-257,-42,-132
100718,-228,13,276,-187,-101,210,111,140,71,-214,199,-409,6,-41,-13,111,-224,-121,52,45,-62,124,146,-5,130,96,254,-21,-74,-215,-20,-84
100719,-211,30,248,-184,-75,241,185,82,64,-187,224,-419,5,-32,12,150,-230,-103,60,59,-44,145,171,12,125,98,246,-4,-34,-183,27,-84
100720,-236,18,226,-171,-85,248,167,160,80,-189,192,-413,34,-42,17,86,-249,-85,62,35,-45,102,166,8,113,104,222,-32,-30,-174,31,-109
100721,-219,15,228,-177,-91,235,60,158,74,-186,261,-395,19,-36,26,27,-241,-98,65,46,-17,93,145,25,137,126,262,-6,12,-143,55,-45
100722,-223,31,259,-181,-87,227,98,126,61,-207,276,-335,-9,-37,-19,11,-295,-91,63,48,-43,113,135,29,123,105,240,-2,21,-125,65,-59
100723,-244,29,233,-176,-88,240,120,120,57,-191,242,-413,-13,-42,-24,122,-250,-108,48,31,-67,102,146,11,104,94,266,4,8,-117,74,-70
100724,-250,13,208,-201,-108,229,119,42,38,-177,270,-407,-19,-39,4,179,-201,-98,69,45,-75,121,174,44,121,121,264,6,13,-104,81,-40
100725,-202,4,289,-180,-102,221,103,92,58,-194,204,-446,-1,-65,20,60,-262,-118,54,14,-74,62,134,13,89,85,256,-12,-18,-147,49,-77
100726,-202,36,308,-173,-97,236,123,137,58,-187,227,-413,-17,-84,44,96,-216,-105,31,28,-37,100,159,32,112,105,275,7,12,-106,75,-71
100727,-204,67,287,-164,-91,255,142,165,55,-187,235,-339,3,-77,45,97,-175,-59,72,39,-34,204,190,73,148,143,268,67,77,-66,122,19
100728,-179,91,306,-155,-80,293,171,172,65,-178,316,-339,17,-72,39,120,-234,-50,77,29,0,202,191,65,153,138,336,61,83,-71,124,30
100729,-142,123,326,-132,-62,301,186,95,70,-162,367,-334,54,-77,35,238,-193,-36,91,63,47,223,233,91,175,167,388,52,117,-20,145,97
100730,-128,135,324,-136,-56,281,204,-61,105,-188,342,-383,148,-73,-5,243,-120,-32,125,81,65,219,274,128,210,222,424,127,176,32,199,97
100731,-137,126,301,-142,-43,327,207,133,98,-175,379,-333,155,-59,60,162,-122,6,133,82,71,242,278,137,223,218,394,159,195,71,209,103
100732,-97,150,331,-152,-51,346,210,335,9,-169,396,-269,-55,-94,75,233,-97,30,86,100,98,285,308,140,221,231,451,113,211,104,274,160
100733,-88,146,389,-134,-34,323,213,280,41,-162,384,-281,16,-107,85,218,-169,32,79,89,92,219,300,123,218,210,431,90,202,82,267,138
100734,-118,127,353,-110,-19,319,214,243,67,-167,348,-286,73,-93,59,208,-166,26,99,89,75,252,254,133,223,209,407,158,185,75,241,111
