,Fp1,Fp2,F7,F3,Fz,F4,F8,FC5,FC1,FC2,FC6,T7,C3,Cz,C4,T8,TP9,CP5,CP1,CP2,CP6,TP10,P7,P3,Pz,P4,P8,PO9,O1,Oz,O2,PO10
13843,-516,75,102,-69,126,121,-367,448,-235,-258,-69,296,321,-63,126,220,342,-36,-69,376,-103,-120,304,133,204,106,183,28,176,202,0,163
13844,-343,96,120,-106,78,-6,-365,409,-249,-292,-58,282,300,-78,110,247,312,-47,-83,360,-109,-132,301,108,190,84,155,-35,129,173,-27,80
13845,-239,144,138,-109,72,-190,-376,439,-250,-306,-18,267,325,-42,116,282,336,-9,-88,383,-107,-56,392,128,203,99,155,-81,192,222,37,106
13846,-281,194,129,-112,69,49,-389,439,-270,-319,-58,236,312,-52,117,344,325,-17,-82,394,-110,-64,339,126,225,128,185,-55,224,291,97,203
13847,-401,229,107,-97,81,168,-305,452,-256,-273,-78,214,303,-59,131,345,290,-30,-92,394,-95,-91,227,91,220,119,229,-71,164,244,55,146
13848,-452,258,100,-106,83,58,-292,439,-252,-286,-62,233,286,-59,130,276,268,-7,-106,379,-106,-120,210,66,176,67,167,-198,92,94,-67,32
13849,-446,253,104,-66,67,84,-294,524,-258,-270,-89,174,284,-61,123,155,219,-69,-128,380,-124,-151,266,-2,140,42,74,31,52,106,-70,85
13850,-414,174,98,-63,66,132,-325,581,-226,-260,-138,257,307,-32,95,56,294,5,-123,371,-157,-96,695,44,144,35,36,-222,39,132,-27,157
13851,-424,78,-138,-193,50,173,-350,460,-260,-277,-138,149,225,-41,76,98,170,-118,-149,360,-184,-109,308,-3,148,24,38,-374,52,180,19,253
13852,-434,46,-250,-246,59,221,-365,210,-300,-275,-113,25,141,-58,79,211,29,-327,-200,351,-148,-142,-227,-101,124,26,93,-218,17,128,-33,299
13853,-445,9,-152,-206,100,214,-339,191,-300,-240,-65,37,141,-50,106,242,94,-336,-220,359,-129,-133,-105,-107,116,7,65,-224,-49,3,-149,229
13854,-512,39,-36,-195,78,141,-346,220,-318,-247,-76,57,126,-55,93,192,135,-338,-237,342,-194,-135,-22,-150,91,-34,27,-173,-97,-4,-159,138
13855,-567,58,-12,-184,70,227,-384,293,-309,-259,-63,53,135,-63,90,141,139,-287,-204,347,-186,-133,33,-112,97,-20,45,-249,-49,29,-166,10
13856,-477,161,51,-266,63,194,-345,283,-312,-260,-42,52,128,-77,87,-2,127,-305,-213,344,-155,-145,41,-131,111,-8,58,-311,-78,38,-133,96
13857,-340,264,84,-332,79,168,-313,239,-315,-241,-16,85,116,-69,106,-103,141,-305,-197,371,-129,-81,-18,-133,138,39,142,-200,-33,133,69,448
13858,-376,188,35,-307,65,291,-336,231,-290,-236,24,182,121,-35,126,-36,171,-291,-174,407,-116,-36,11,-108,179,126,239,-226,37,273,249,743
13859,-432,74,2,-259,54,319,-319,291,-304,-257,9,154,139,-72,66,9,126,-284,-199,327,-235,-173,14,-147,103,-35,6,-300,-91,21,-183,-27
13860,-564,98,-29,-199,88,243,-277,326,-273,-232,-1,36,165,-65,60,103,126,-251,-180,285,-295,-275,-7,-139,62,-173,-223,-208,-113,-146,-484,-723
13861,-589,44,-93,-162,72,241,-288,269,-288,-249,-22,68,159,-69,61,71,32,-262,-180,305,-232,-336,-98,-109,79,-94,-114,-300,-80,-25,-260,-357
13862,-656,-125,-169,-106,79,332,-386,394,-272,-248,-98,47,205,-83,63,124,-17,-215,-169,325,-206,-352,-59,-67,98,-71,-45,-465,-110,-16,-248,-277
13863,-638,52,-236,-96,87,232,-452,360,-254,-256,-71,20,210,-60,75,276,93,-221,-153,337,-175,-234,-32,-93,114,-36,16,-226,-65,-13,-221,-413
13864,-730,217,-210,-6,80,174,-408,388,-244,-259,-38,122,232,-44,76,311,216,-232,-122,346,-217,-183,-2,-57,151,-44,-25,-119,15,36,-213,-127
13865,-798,223,-65,14,80,189,-351,393,-264,-266,-47,132,239,-61,55,198,224,-228,-136,340,-227,-240,35,-36,153,-71,-65,-179,35,80,-171,30
13866,-631,97,-34,-56,45,194,-457,364,-269,-251,11,90,241,-49,92,119,152,-219,-118,362,-162,-315,37,-7,168,-23,10,-196,42,151,-44,177
13867,-370,155,62,-95,51,-124,-490,347,-259,-265,-20,109,276,-19,84,147,159,-164,-69,377,-195,-289,105,45,206,-11,38,-230,56,154,-34,390
13868,-260,246,133,-171,64,-103,-459,341,-235,-271,-143,151,323,-9,91,197,218,-105,-21,400,-219,-240,179,85,220,-9,11,-113,105,115,-90,313
13869,-333,121,41,-242,43,268,-439,355,-274,-251,-47,138,314,-14,104,200,246,-79,-35,380,-254,-281,203,95,215,-50,-82,-59,138,103,-167,-39
13870,-323,117,-33,-238,25,179,-346,380,-279,-274,-23,195,319,-6,109,183,278,-65,-20,374,-269,-294,206,107,204,-63,-146,123,125,105,-233,-390
13871,-390,79,-106,-223,28,154,-324,414,-267,-270,-64,243,331,-7,100,157,280,-47,-14,400,-224,-258,272,116,222,-28,-86,-5,136,121,-149,-124
13872,-567,30,-75,-229,7,166,-316,415,-295,-274,-38,213,305,-37,100,41,253,-91,-65,369,-222,-246,280,81,194,-55,-114,-263,34,77,-153,-8
13873,-509,65,0,-197,46,95,-290,468,-268,-295,-38,175,355,-31,86,-59,288,-16,-37,350,-265,-207,329,111,189,-56,-167,-249,81,74,-202,-234
13874,-320,151,40,-212,39,107,-227,376,-274,-287,-65,114,355,-43,90,-56,281,88,-30,352,-238,-183,419,179,192,-38,-75,-268,112,115,-139,-241
13875,-372,184,75,-220,18,149,-215,357,-271,-298,-106,207,356,-48,66,-22,247,129,-21,351,-240,-249,665,216,215,-9,22,-185,137,195,-54,67
13876,-523,192,108,-224,47,201,-221,379,-252,-261,-58,270,344,-31,100,56,278,-20,-39,369,-213,-138,406,168,242,63,146,28,224,265,50,386
13877,-426,248,149,-142,70,236,-218,380,-244,-232,3,289,316,-27,169,63,305,-113,-47,410,-119,-109,117,141,266,96,207,217,250,260,77,361
13878,-281,279,134,-91,75,266,-209,443,-239,-238,55,341,356,-42,157,53,340,-28,-15,412,-131,-135,353,167,254,67,86,24,206,186,-71,-64
13879,-286,296,103,-185,62,268,-210,441,-235,-239,63,292,364,-50,189,202,346,-15,-48,424,-79,-72,501,177,241,127,229,16,257,299,124,366
13880,-314,230,73,-179,77,261,-208,422,-225,-191,71,296,381,-33,208,337,363,-1,-29,466,-54,-25,442,180,280,163,289,118,321,363,199,435
13881,-334,137,61,-122,88,344,-230,449,-210,-200,87,292,381,-33,189,313,393,4,-46,435,-108,-53,381,180,266,119,74,209,307,258,7,-82
13882,-454,-30,27,-106,64,339,-298,494,-257,-225,71,206,353,-74,171,353,333,-19,-96,396,-105,-44,368,152,196,89,105,56,200,192,-68,-61
13883,-495,61,39,-75,94,267,-288,555,-227,-251,67,254,350,-95,165,328,333,22,-85,405,-110,-40,379,161,222,113,137,-170,212,238,33,92
13884,-428,294,51,-62,99,216,-208,521,-218,-253,40,302,369,-82,163,247,361,-1,-76,401,-82,-10,348,173,230,131,167,-187,217,248,53,115
13885,-405,315,78,-69,96,196,-200,434,-255,-269,23,258,345,-78,147,111,374,-52,-112,377,-89,14,291,106,192,118,218,33,173,195,18,85
13886,-393,273,164,-167,109,208,-198,411,-248,-248,29,266,323,-55,158,163,364,-67,-95,401,-62,56,321,110,238,172,287,67,215,228,93,128
13887,-440,286,173,-147,123,173,-196,447,-223,-230,80,295,310,-51,197,335,323,-58,-78,425,-37,20,407,73,228,171,289,-6,198,263,104,314
13888,-466,272,77,-127,81,214,-280,440,-248,-268,49,270,304,-69,174,369,308,-54,-107,392,-47,-66,480,40,176,137,248,-201,118,229,54,278
13889,-405,255,-69,-196,68,263,-416,396,-273,-240,49,219,273,-69,180,267,278,-109,-124,377,-49,-94,347,44,153,137,227,-77,131,235,103,240
13890,-429,231,-144,-207,82,265,-379,365,-274,-265,32,190,243,-84,144,142,239,-163,-147,342,-101,-129,232,19,127,84,149,-121,100,194,33,194
13891,-440,199,-84,-151,101,319,-320,391,-297,-268,55,178,224,-90,120,202,199,-246,-179,355,-121,-62,98,-60,120,86,166,-26,97,196,12,207
13892,-394,161,56,-189,93,205,-247,357,-290,-257,16,166,193,-103,92,248,171,-266,-198,344,-121,14,43,-98,105,74,227,40,96,209,39,258
13893,-459,117,33,-240,75,142,-211,340,-282,-274,24,149,190,-88,103,244,146,-266,-197,332,-113,5,60,-109,99,64,234,-54,36,171,-8,175
13894,-564,220,-14,-222,77,-45,-284,356,-290,-274,39,147,189,-104,85,250,152,-277,-220,318,-123,-22,31,-125,75,81,264,-134,-45,113,-41,121
13895,-629,180,-25,-212,62,-12,-365,384,-289,-302,-1,52,162,-125,71,210,96,-283,-248,301,-137,-64,26,-170,63,38,220,-347,-101,64,-62,178
13896,-704,-10,-23,-183,87,159,-353,468,-289,-291,17,-65,181,-124,78,175,80,-284,-249,298,-182,-85,59,-159,75,-6,98,-439,-109,66,-56,220
13897,-716,-64,-9,-131,85,275,-331,428,-284,-252,-21,-59,172,-81,82,179,158,-251,-199,318,-163,-25,56,-113,90,18,141,-251,-42,117,-26,317
13898,-549,60,60,-172,80,324,-359,403,-299,-264,-22,-34,183,-84,56,189,157,-219,-193,290,-210,-56,85,-109,65,-20,121,-293,-81,24,-151,201
13899,-370,208,97,-176,94,295,-345,334,-296,-257,-5,77,202,-68,41,164,190,-188,-203,296,-235,-160,159,-106,50,-56,39,-301,-100,11,-172,45
13900,-310,259,73,-82,81,268,-289,322,-277,-244,-32,87,193,-52,72,126,176,-240,-187,308,-190,-99,-19,-142,57,-29,100,-169,-97,13,-179,-146
13901,-342,226,35,-202,85,253,-292,321,-292,-263,-7,141,199,-59,42,-46,153,-196,-180,299,-255,-26,138,-99,73,-35,75,-226,-55,52,-94,47
13902,-307,207,-30,-298,91,261,-308,288,-297,-254,19,78,159,-75,33,-117,107,-260,-197,273,-254,-98,19,-117,72,-53,54,-261,-66,79,-53,444
13903,-322,171,-71,-258,93,338,-306,238,-298,-235,31,-9,151,-61,83,-17,69,-331,-170,314,-160,-55,-167,-145,109,8,215,-203,-30,178,90,926
13904,-373,142,-87,-255,85,254,-331,268,-277,-263,-2,8,156,-49,88,132,92,-297,-172,318,-159,-78,-60,-115,107,-18,180,-268,-37,106,-1,798
13905,-397,250,-132,-217,85,133,-334,308,-268,-266,-38,55,177,-56,56,226,189,-234,-178,271,-225,-251,54,-101,61,-132,-80,-248,-79,-62,-327,-257
13906,-443,287,-214,-235,76,163,-290,324,-252,-249,-48,140,190,-60,58,228,163,-234,-152,288,-243,-199,99,-71,74,-145,-66,-255,-64,-47,-335,-532
13907,-452,263,-211,-208,81,130,-260,313,-248,-215,-32,245,195,-66,66,301,162,-248,-155,321,-200,-64,110,-18,122,-79,121,-133,-9,58,-204,-44
13908,-481,214,-157,-178,61,129,-313,356,-254,-276,-85,91,197,-48,19,260,145,-263,-139,312,-227,-70,80,-52,124,-83,86,-100,3,52,-213,-62
13909,-509,205,-78,-199,62,171,-319,346,-251,-280,-132,166,231,-31,33,247,240,-163,-90,317,-222,-91,261,34,153,-82,5,-173,61,61,-249,-274
13910,-482,189,-27,-212,90,183,-336,342,-274,-277,-73,324,228,-36,31,240,187,-135,-92,338,-247,-90,282,50,188,-69,-15,-202,63,104,-163,-98
13911,-430,197,31,-201,82,94,-340,397,-265,-294,-68,300,262,-36,18,207,142,-94,-89,348,-239,-207,268,53,186,-21,-2,-188,80,155,-60,151
13912,-408,200,19,-209,70,98,-344,343,-304,-301,-71,182,247,-41,22,217,221,-122,-78,335,-212,-250,295,82,204,-23,62,-201,136,172,-39,241
13913,-438,161,18,-160,81,206,-374,402,-294,-279,-33,141,208,-49,34,215,283,-203,-98,324,-235,-239,114,40,190,-35,6,26,141,131,-149,-45
13914,-476,156,14,-122,82,177,-437,410,-271,-275,-39,133,218,-54,57,154,291,-213,-103,332,-212,-222,70,16,203,6,53,14,121,176,-89,-211
13915,-601,133,10,-204,45,132,-450,380,-280,-307,-71,115,224,-57,58,-58,219,-181,-74,354,-191,-202,180,54,197,18,105,-69,147,217,0,85
13916,-660,187,24,-209,64,156,-391,426,-241,-293,-110,206,272,-44,72,-75,263,-124,-65,362,-179,-196,279,73,225,26,99,-10,150,180,-92,217
13917,-552,225,-13,-230,82,41,-373,469,-253,-293,-70,297,284,-15,101,97,295,-117,-54,377,-166,-161,290,96,251,38,42,-99,144,211,-65,164
13918,-462,207,84,-164,104,65,-330,531,-255,-276,-50,281,324,-32,73,168,316,-100,-25,377,-243,-41,308,86,239,-2,-41,-128,125,166,-111,-45
13919,-431,210,51,-119,102,99,-368,541,-247,-300,-62,213,361,-54,70,210,287,-44,-21,391,-224,-90,409,112,245,19,35,-167,119,159,-96,109
13920,-442,102,90,-50,92,143,-363,497,-219,-262,-29,290,393,-34,101,280,262,60,0,427,-149,-125,585,205,277,62,117,-254,235,216,-15,385
13921,-654,34,90,-88,113,115,-399,450,-257,-271,-29,271,353,-31,116,175,253,20,-12,424,-120,-117,476,160,283,98,190,-20,258,345,109,550
13922,-700,84,-94,-154,102,257,-453,529,-271,-267,-12,222,326,-67,118,35,227,-99,-35,358,-178,-184,272,98,218,7,18,-24,168,186,-148,-197
13923,-453,130,-81,-150,100,200,-448,498,-231,-264,-45,224,327,-57,107,29,269,-32,-32,381,-219,-149,379,103,243,6,25,-129,122,167,-118,-217
13924,-237,186,36,-166,70,179,-356,406,-263,-259,-85,206,310,-48,99,79,243,-75,-54,401,-181,-108,231,59,239,48,130,-127,118,183,-6,162
13925,-307,159,9,-150,83,186,-328,346,-282,-256,-44,188,266,-61,129,141,251,-153,-78,385,-149,-97,82,19,208,46,97,136,104,140,-50,98
13926,-418,11,4,-147,71,237,-316,327,-278,-264,-30,207,282,-52,146,181,277,-92,-99,369,-171,-132,216,37,196,11,27,141,103,116,-119,-92
13927,-369,120,14,-180,98,245,-257,362,-283,-234,2,241,327,-43,143,189,306,-72,-45,385,-183,-86,417,65,217,4,45,112,158,190,-68,-44
13928,-367,253,18,-212,88,282,-265,377,-293,-243,0,263,311,-56,153,35,323,-46,-54,383,-181,-72,529,84,211,27,83,56,152,180,-27,97
13929,-443,246,-13,-270,65,358,-304,376,-285,-264,19,126,276,-68,151,-8,242,-147,-96,393,-146,-21,224,5,206,55,168,-80,93,184,29,272
13930,-531,240,-37,-187,98,321,-202,391,-261,-247,17,118,282,-35,160,177,254,-142,-90,405,-134,28,152,26,208,79,232,-167,81,185,16,354
13931,-507,201,-68,-161,101,120,-212,408,-268,-270,-22,142,263,-56,144,281,238,-150,-147,394,-102,-12,190,12,181,64,267,-230,30,63,-99,127
13932,-492,122,-44,-150,110,144,-258,417,-266,-270,16,138,281,-55,144,344,205,-170,-118,382,-83,-27,211,-5,154,65,247,-295,16,46,-107,136
13933,-461,123,66,-97,110,179,-349,446,-254,-256,-1,146,283,-66,134,305,211,-126,-115,347,-157,-7,267,18,135,-6,53,-265,10,22,-193,-27
13934,-450,20,103,-122,113,187,-416,434,-245,-247,37,182,279,-66,145,133,289,-150,-134,339,-132,29,242,-18,143,-7,59,-131,33,66,-111,-14
13935,-555,-39,62,-98,119,108,-400,401,-247,-270,44,205,266,-61,112,-34,281,-140,-115,359,-147,40,290,23,148,17,147,-220,112,142,-27,173
13936,-551,151,17,-61,118,82,-285,396,-240,-292,-12,218,254,-67,97,-47,259,-135,-141,346,-155,-84,281,0,148,12,154,44,118,151,-42,162
13937,-500,323,116,-59,112,192,-268,491,-241,-276,60,288,278,-88,144,145,313,-101,-110,347,-126,-160,468,41,147,40,152,13,145,162,-53,92
13938,-367,403,93,-119,107,268,-321,473,-226,-256,81,279,298,-60,164,350,338,-32,-81,369,-93,-67,554,102,175,74,258,-109,195,247,63,268
13939,-376,313,-41,-102,95,290,-362,440,-249,-259,45,173,264,-69,174,370,248,-123,-136,371,-58,-53,259,38,176,111,369,-18,143,278,121,403
13940,-291,254,-84,-141,112,183,-358,434,-252,-233,86,222,249,-53,189,312,256,-181,-129,380,-35,20,165,-3,156,113,357,-7,160,278,126,386
13941,-272,284,-12,-169,113,196,-311,392,-257,-224,126,291,210,-65,182,221,329,-179,-131,367,-78,32,222,-7,146,71,233,49,168,226,26,220
13942,-325,293,33,-152,99,257,-259,479,-258,-236,59,197,215,-84,137,220,320,-227,-151,319,-159,18,240,-31,121,17,146,62,156,238,9,124
13943,-337,231,84,-202,93,193,-235,401,-277,-237,47,175,234,-65,145,278,312,-169,-151,316,-127,-76,339,-7,118,29,147,5,189,260,22,108
13944,-379,172,82,-204,80,226,-195,362,-295,-232,85,197,221,-66,143,251,308,-162,-163,304,-107,-76,401,-64,97,9,163,-89,110,186,-50,145
13945,-417,152,22,-178,90,218,-271,339,-282,-228,67,136,200,-82,148,126,242,-239,-183,316,-91,-24,179,-96,95,27,227,-46,83,220,35,150
13946,-457,216,14,-176,78,64,-372,319,-290,-273,-1,115,180,-74,152,50,223,-240,-175,324,-87,4,109,-95,96,28,238,-202,26,176,15,182
13947,-433,339,-12,-276,75,125,-380,366,-291,-262,5,125,199,-72,155,19,225,-227,-194,307,-115,-38,101,-106,71,-1,141,-226,-43,98,-65,303
13948,-407,271,-100,-267,68,188,-449,366,-280,-254,61,72,223,-78,140,1,246,-215,-181,304,-153,-75,179,-66,63,-2,92,-294,-26,103,-84,220
13949,-482,-15,-118,-250,64,229,-463,343,-272,-271,48,123,223,-80,90,16,218,-143,-154,304,-210,-49,458,-20,64,-10,71,-531,-11,46,-130,186
13950,-739,-138,-123,-192,67,454,-392,309,-299,-234,32,123,201,-87,79,123,161,-252,-181,300,-205,-44,237,-114,75,6,174,-196,-45,156,41,576
13951,-758,76,-123,-163,65,324,-348,306,-294,-249,26,68,191,-73,124,157,159,-347,-175,344,-118,-119,91,-116,106,80,287,-131,5,251,169,793
13952,-626,267,-32,-199,84,215,-274,325,-276,-270,-18,88,204,-77,85,173,181,-263,-155,333,-161,-98,183,-81,123,22,121,-222,14,164,-2,95
13953,-518,289,0,-282,70,151,-245,275,-296,-279,-37,136,212,-69,61,249,241,-245,-153,317,-203,-144,150,-58,108,-46,-11,-94,7,55,-208,-476
13954,-594,219,-122,-278,51,69,-303,248,-316,-291,-30,64,182,-85,48,232,199,-277,-171,292,-207,-209,9,-87,88,-54,13,-186,-68,-48,-271,-218
13955,-537,180,-156,-255,35,24,-355,263,-313,-306,-64,61,214,-70,57,277,153,-195,-138,323,-183,-179,80,-20,120,-14,76,-548,-69,-1,-151,-28
13956,-495,153,-124,-273,57,91,-308,335,-291,-318,-54,127,257,-58,74,280,180,-145,-108,340,-146,-140,285,-3,144,23,101,-434,-50,57,-57,117
13957,-400,133,-83,-294,88,193,-282,354,-264,-278,15,75,233,-29,92,237,190,-244,-121,374,-144,-94,37,-31,171,65,137,-51,-16,150,24,278
13958,-390,126,-154,-196,58,175,-298,278,-263,-277,8,81,227,-46,60,200,171,-287,-106,362,-177,-142,-33,-40,169,38,112,-119,59,192,30,232
13959,-461,137,-247,-91,61,81,-346,274,-262,-325,-38,73,253,-55,80,213,140,-228,-93,360,-150,-239,75,-16,181,44,137,-196,41,173,2,129
13960,-501,73,-272,-177,41,59,-393,272,-278,-332,-22,175,243,-37,60,173,181,-211,-108,344,-169,-239,144,5,163,-12,-3,-185,9,13,-237,-407
13961,-504,-70,-277,-252,50,229,-367,275,-290,-290,31,195,243,-35,73,141,196,-180,-105,338,-197,-162,194,33,172,-2,-41,-106,58,50,-203,-204
13962,-472,135,-147,-215,63,213,-251,401,-279,-282,39,19,247,-41,65,99,125,-168,-112,329,-218,-193,87,-4,145,-28,-37,-155,39,68,-172,-107
13963,-514,202,-56,-209,103,169,-208,372,-278,-273,59,71,245,-39,97,38,162,-177,-140,335,-187,-232,63,-22,154,-18,0,-145,37,87,-143,-86
13964,-541,95,-125,-208,87,243,-276,327,-283,-249,0,112,240,-42,80,13,169,-194,-138,332,-190,-279,124,5,156,-16,39,-161,39,118,-100,-36
13965,-443,109,-93,-228,65,247,-360,396,-283,-262,-52,70,231,-73,66,143,161,-175,-149,306,-177,-296,134,-32,115,-45,84,-232,-43,-3,-205,-67
13966,-379,189,-56,-179,89,117,-337,408,-249,-256,-35,54,263,-59,83,164,161,-160,-134,308,-181,-315,170,-35,117,-18,131,-244,-21,16,-192,13
13967,-367,198,-82,-178,105,122,-336,366,-253,-270,-7,136,272,-47,82,153,153,-117,-127,334,-180,-327,273,-5,152,20,111,-264,26,96,-84,150
13968,-373,192,-59,-203,81,121,-393,342,-252,-278,-6,165,270,-41,81,70,133,-148,-121,322,-197,-295,173,3,160,13,57,-189,63,123,-65,176
13969,-381,220,-23,-162,114,112,-423,311,-233,-245,1,186,252,-33,103,-31,164,-198,-129,333,-181,-290,92,15,145,2,-7,-184,44,100,-140,-104
13970,-451,146,-13,-157,106,198,-449,334,-242,-260,-95,168,243,-55,89,22,110,-205,-137,327,-131,-273,152,11,150,7,70,-188,67,120,-85,-63
13971,-536,-1,-16,-152,69,222,-523,319,-251,-267,-90,115,243,-87,71,109,94,-251,-152,308,-189,-223,109,-11,144,-16,69,-237,59,121,-93,29
13972,-508,55,0,-109,71,222,-504,346,-235,-274,-96,86,224,-86,71,14,102,-245,-177,294,-232,-247,87,-17,112,-35,-6,-179,26,92,-110,-161
13973,-623,210,-7,-114,67,50,-455,337,-251,-310,-92,94,231,-100,57,38,80,-205,-174,297,-198,-234,99,-35,115,-23,14,-167,75,131,-60,-206
13974,-618,242,-24,-152,76,46,-406,328,-262,-328,-90,108,242,-84,43,196,102,-204,-143,303,-274,-160,112,-4,162,-22,21,-218,82,178,-35,-7
13975,-595,196,-29,-149,89,144,-487,323,-260,-315,-61,99,240,-91,25,138,113,-181,-149,285,-310,-149,164,-13,155,-37,35,-206,76,208,-37,280
13976,-686,200,-154,-132,110,228,-427,396,-242,-276,-35,127,277,-72,57,40,101,-136,-120,317,-249,-106,218,13,171,-18,62,-212,75,177,-35,390
13977,-606,189,-316,-126,88,298,-356,416,-235,-256,-68,234,273,-69,67,6,121,-165,-112,309,-237,-59,200,38,156,-18,78,-226,79,149,-62,244
13978,-552,83,-152,-22,92,145,-317,420,-230,-269,-90,198,280,-90,47,103,100,-140,-118,289,-237,-56,236,36,137,-58,55,-296,90,147,-112,1
13979,-374,60,28,-62,121,115,-253,429,-206,-282,-28,190,302,-75,48,190,100,-126,-111,303,-249,-18,380,39,150,-4,133,-237,149,250,65,355
13980,-285,15,103,-77,124,233,-271,398,-200,-253,26,168,262,-73,80,209,-53,-192,-121,311,-229,-49,144,-19,155,26,191,-80,137,304,173,698
13981,-316,150,133,-89,128,197,-372,368,-206,-242,6,157,260,-73,96,237,-8,-180,-126,307,-203,-110,197,-25,132,-18,156,-180,92,198,19,362
13982,-316,235,52,-163,90,153,-390,387,-256,-279,-32,99,223,-108,62,208,106,-216,-169,282,-250,-85,180,-40,116,-31,91,-173,92,182,-30,110
13983,-319,109,29,-77,119,100,-372,452,-248,-253,-11,78,221,-116,71,213,145,-240,-172,290,-224,-24,233,-6,115,-23,120,-203,129,175,-81,54
13984,-347,-24,-49,-103,135,240,-328,400,-251,-250,11,153,223,-106,71,237,116,-168,-171,290,-203,-33,398,-18,113,-41,134,-170,112,147,-103,50
13985,-383,84,-66,-168,119,260,-277,382,-277,-265,4,27,180,-97,51,239,-19,-290,-192,286,-225,-34,79,-62,86,-45,142,-208,67,116,-87,2
13986,-361,312,3,-223,116,257,-232,336,-272,-262,41,-65,161,-98,79,252,-36,-386,-193,294,-182,41,-129,-112,74,-24,221,-150,26,101,-103,-46
13987,-432,334,-56,-191,117,262,-265,259,-262,-252,49,7,190,-82,109,242,72,-300,-161,295,-173,28,20,-46,98,11,266,-154,79,181,-22,65
13988,-484,234,-64,-128,92,192,-315,305,-265,-274,-26,-19,209,-82,77,157,66,-279,-184,284,-208,-152,69,-94,94,-23,129,-51,74,192,-20,123
13989,-465,247,-41,-92,96,85,-320,294,-269,-277,-46,-10,197,-100,50,56,60,-279,-190,278,-232,-166,91,-116,81,-53,64,-95,33,138,-52,139
13990,-465,251,-48,-92,108,190,-306,294,-231,-248,16,26,211,-78,77,-127,76,-255,-170,295,-230,-50,157,-92,84,-27,174,-171,28,118,-68,134
13991,-352,87,-28,-196,113,244,-310,307,-258,-239,74,25,189,-82,80,-191,97,-271,-178,304,-250,15,123,-80,84,-13,211,-220,27,154,-39,124
13992,-437,69,-134,-213,110,292,-376,332,-267,-247,89,-38,191,-86,103,76,84,-281,-154,312,-184,-31,47,-68,101,19,257,-218,62,223,35,219
