,Fp1,Fp2,F7,F3,Fz,F4,F8,FC5,FC1,FC2,FC6,T7,C3,Cz,C4,T8,TP9,CP5,CP1,CP2,CP6,TP10,P7,P3,Pz,P4,P8,PO9,O1,Oz,O2,PO10
36230,-337,-151,316,-112,-129,332,276,304,61,-82,141,188,532,112,205,188,28,144,177,-73,-13,370,49,209,315,192,360,-9,300,139,31,256
36231,-330,-141,355,-92,-128,350,278,309,55,-64,155,192,545,133,217,216,-27,198,186,-69,21,338,172,268,325,193,476,116,383,111,12,20
36232,-324,-161,345,-119,-128,376,269,294,47,-70,180,90,533,112,204,226,-28,154,177,-97,24,362,178,259,299,174,549,-71,346,62,-56,-85
36233,-320,-154,332,-115,-136,383,247,287,47,-87,177,55,517,89,170,187,23,142,165,-114,-28,400,158,241,279,142,431,-160,329,75,-47,88
36234,-279,-161,384,-76,-124,381,254,324,64,-81,134,171,556,89,154,121,161,204,180,-116,-69,475,270,267,297,124,356,-184,339,111,-10,277
36235,-263,-123,412,-82,-135,376,228,333,60,-113,122,145,565,94,133,80,137,188,173,-136,-113,369,253,248,273,91,309,-262,292,62,-57,219
36236,-276,-90,390,-98,-113,402,236,316,81,-97,143,139,546,80,138,109,97,154,157,-139,-92,307,98,200,264,80,299,-88,229,-8,-117,136
36237,-273,-66,356,-113,-123,410,253,295,95,-67,186,57,523,106,183,130,28,119,177,-101,1,466,53,199,291,144,405,54,248,37,-64,195
36238,-299,-74,305,-124,-137,359,210,244,79,-85,167,-51,497,95,184,-207,-35,74,162,-83,25,448,-36,190,308,154,453,194,271,87,-21,114
36239,-296,-109,304,-114,-125,385,217,263,77,-80,190,183,522,107,174,-30,-77,89,144,-96,32,349,-107,191,299,137,480,267,270,63,-54,62
36240,-293,-211,312,-123,-117,398,221,263,48,-65,173,139,513,112,146,298,5,72,161,-104,-81,400,-105,197,286,116,429,264,297,86,-26,200
36241,-319,-267,281,-127,-132,406,201,250,47,-94,152,78,489,72,120,385,-25,60,139,-145,-192,437,-118,158,256,70,367,176,262,57,-53,293
36242,-321,-196,250,-108,-113,417,213,292,78,-59,197,36,506,74,162,262,-85,91,149,-108,-61,452,-70,187,278,116,435,109,287,96,-9,339
36243,-296,-71,282,-82,-95,404,263,321,83,-51,190,37,511,81,156,250,-148,109,130,-114,-44,460,-23,189,258,110,428,89,281,67,-47,212
36244,-310,-12,270,-99,-107,357,238,318,53,-74,115,56,507,76,136,78,-12,73,117,-122,-66,489,-29,171,247,117,473,60,250,59,-73,69
36245,-318,-51,270,-83,-111,352,233,312,72,-69,129,104,526,80,153,125,106,99,129,-108,-31,217,-21,161,255,137,537,46,234,24,-119,-299
36246,-332,-35,250,-108,-127,370,248,236,64,-70,80,105,500,70,165,260,120,82,116,-111,-31,241,44,142,246,108,457,27,236,3,-120,-77
36247,-304,-116,233,-112,-125,329,237,255,60,-84,100,111,491,70,159,119,95,85,127,-121,-69,353,69,152,252,76,332,13,252,47,-66,309
36248,-352,-267,176,-113,-135,381,265,284,61,-76,111,104,504,75,176,134,28,100,124,-105,-19,412,60,164,256,107,427,21,259,53,-66,231
36249,-362,-192,191,-93,-117,362,268,359,74,-70,108,123,521,95,184,223,78,124,130,-87,9,392,107,201,278,132,448,52,298,81,-51,178
36250,-308,-119,221,-64,-91,355,294,342,86,-80,127,151,508,89,181,219,55,128,149,-93,14,458,100,195,280,143,440,10,290,59,-31,189
36251,-303,-95,290,-43,-88,362,333,305,89,-70,153,164,527,78,165,218,73,144,141,-92,34,463,116,200,288,152,447,43,326,100,2,215
36252,-248,-23,346,-43,-77,382,307,346,94,-74,184,232,560,93,175,270,128,160,150,-95,44,566,139,207,287,173,534,107,330,139,33,183
36253,-264,-40,373,-51,-82,380,287,336,93,-66,172,225,544,81,149,226,21,139,142,-95,35,526,66,191,288,169,593,72,295,144,46,142
36254,-304,-89,346,-25,-88,340,248,327,96,-101,112,193,544,81,113,81,45,143,145,-113,-14,454,100,202,291,150,508,241,355,170,32,215
36255,-320,-112,278,-59,-102,344,269,305,89,-88,154,189,514,75,133,168,20,100,138,-113,-20,298,53,175,261,129,387,167,334,138,17,232
36256,-294,-142,311,-87,-107,396,219,307,91,-75,182,240,505,82,159,224,2,74,112,-124,-8,247,-51,147,246,122,442,65,262,91,-15,96
36257,-258,-121,336,-77,-89,420,207,292,75,-72,167,257,510,60,157,223,-104,57,99,-130,0,311,-107,122,228,126,477,-20,232,38,-48,-45
36258,-270,-157,367,-69,-96,402,218,304,66,-82,131,266,505,39,138,152,-111,91,102,-153,-56,383,-28,133,204,90,340,-108,211,41,-53,132
36259,-309,-214,323,-77,-86,385,224,307,61,-81,151,245,531,53,136,135,57,150,114,-155,-86,475,102,179,223,90,321,-106,271,75,-44,221
36260,-320,-200,341,-78,-85,365,204,341,69,-74,152,191,544,62,148,156,200,157,132,-136,-67,472,186,190,247,112,381,-144,293,78,-45,203
36261,-295,-104,344,-75,-97,352,158,355,72,-91,115,157,529,66,137,130,252,168,133,-131,-67,437,244,213,246,102,373,10,349,78,-19,150
36262,-315,-46,293,-112,-104,390,166,269,58,-91,115,117,513,56,124,77,136,153,117,-138,-100,395,232,207,224,79,398,-10,334,73,-36,146
36263,-318,-6,278,-111,-125,388,214,242,67,-86,141,85,493,47,146,150,-9,106,107,-124,-46,418,153,169,227,103,473,-165,259,68,-44,89
36264,-348,-10,254,-113,-133,345,247,266,75,-92,139,108,494,60,182,251,51,111,109,-111,47,450,131,173,246,155,580,-120,264,72,-43,-14
36265,-316,-31,304,-83,-107,338,284,319,81,-87,142,172,526,80,174,259,154,154,119,-98,68,458,160,179,275,166,606,-95,314,102,-22,-20
36266,-298,-45,358,-80,-106,334,287,341,89,-68,125,158,532,78,162,220,134,154,125,-107,51,435,167,197,277,166,548,-27,345,139,37,44
36267,-292,-76,409,-75,-113,352,256,341,97,-92,125,166,520,62,147,191,93,147,118,-115,8,398,152,197,273,151,500,18,327,121,4,103
36268,-300,-60,347,-72,-107,344,305,324,68,-86,136,213,516,65,131,192,148,169,127,-112,-24,314,174,201,263,131,422,12,342,140,15,169
36269,-293,-31,356,-68,-97,345,333,340,84,-92,105,181,533,72,123,183,89,175,146,-105,-35,278,177,225,272,145,354,53,362,184,61,322
36270,-272,-85,349,-50,-91,341,263,350,109,-89,53,184,538,59,106,88,0,186,154,-115,-60,275,200,240,289,142,394,184,390,186,71,327
36271,-275,-168,333,-50,-78,358,226,340,89,-84,61,174,513,78,109,85,-44,146,122,-109,-64,249,76,172,268,137,418,-121,289,94,0,180
36272,-289,-185,324,-68,-99,359,191,338,81,-101,78,153,501,61,116,162,25,128,107,-125,-56,411,68,161,259,122,398,-141,262,95,-23,68
36273,-287,-193,293,-58,-114,306,146,359,85,-120,33,139,505,53,96,153,43,117,113,-137,-77,457,51,172,262,115,367,30,277,95,-34,187
36274,-286,-194,268,-66,-91,331,179,365,103,-93,79,24,514,60,116,106,58,93,143,-107,-65,305,30,185,276,127,378,49,303,108,-31,100
36275,-324,-189,257,-58,-108,292,204,392,103,-85,118,114,536,62,157,180,109,102,138,-85,31,482,47,211,317,197,559,79,321,161,23,137
36276,-285,-135,322,-43,-108,326,218,384,101,-77,170,396,563,77,178,228,81,169,156,-73,23,466,91,240,328,185,493,159,362,163,47,200
36277,-284,-109,349,-47,-109,354,190,371,94,-85,131,458,592,72,149,171,77,229,181,-83,-57,257,156,262,317,155,350,216,386,113,1,143
36278,-284,-63,364,-46,-107,335,213,401,97,-92,130,375,578,83,162,238,90,234,183,-75,2,345,165,251,327,176,443,139,388,123,16,166
36279,-304,-105,386,-66,-96,381,240,364,94,-77,170,273,543,74,152,138,104,195,167,-92,-30,343,148,233,310,134,415,15,371,142,1,152
36280,-311,-110,366,-86,-100,356,226,345,75,-90,124,261,552,73,142,139,263,232,165,-102,-27,400,293,269,315,135,423,-122,379,147,24,141
36281,-312,-121,338,-71,-106,309,262,348,90,-105,73,339,579,73,138,192,332,308,186,-108,-21,363,518,319,305,134,445,-363,393,107,8,129
36282,-310,-126,356,-73,-113,337,270,337,88,-98,79,262,539,57,107,178,107,204,146,-143,-62,254,339,266,270,86,353,-191,339,67,-37,174
36283,-305,-79,351,-96,-93,343,286,286,70,-97,64,176,505,47,96,137,-31,117,114,-158,-63,263,80,181,243,76,331,-59,290,79,-33,114
36284,-311,-140,297,-103,-106,362,290,277,49,-91,55,190,498,48,133,177,-70,86,102,-132,-3,437,4,156,250,123,446,137,280,110,-24,172
36285,-327,-209,256,-109,-124,367,281,291,41,-90,104,143,473,28,130,206,-33,69,107,-144,-11,497,-24,161,252,104,426,221,299,86,-39,195
36286,-298,-209,267,-96,-108,376,299,290,51,-82,146,84,461,36,108,165,28,58,98,-143,-54,461,-27,149,239,95,351,232,326,84,-41,197
36287,-338,-274,274,-99,-106,365,289,263,51,-87,101,64,452,26,90,139,-59,38,85,-157,-71,475,-30,133,218,84,350,155,298,73,-42,237
36288,-316,-172,307,-58,-97,361,249,262,74,-94,61,60,482,33,80,60,-86,58,75,-152,-90,550,-30,142,231,76,371,161,297,105,-15,284
36289,-313,-98,319,-59,-99,371,149,262,62,-94,71,72,485,29,87,69,-1,44,88,-149,-65,515,-33,135,237,97,395,276,323,126,5,298
36290,-291,-145,317,-88,-89,380,173,246,52,-93,112,66,479,40,109,141,38,34,89,-143,-54,460,-21,127,224,88,384,231,293,75,-30,182
36291,-328,-175,274,-119,-106,357,158,250,58,-111,124,43,475,17,98,123,31,28,79,-176,-67,455,-56,105,207,97,368,126,252,53,-71,153
36292,-339,-107,267,-112,-133,339,173,263,48,-122,105,30,473,9,86,104,-62,21,68,-180,-61,382,-83,91,210,96,341,109,269,50,-70,164
36293,-337,-69,251,-107,-114,344,244,261,59,-113,100,40,477,37,119,148,-76,25,87,-152,-48,408,-69,88,224,103,361,24,214,14,-114,150
36294,-363,-94,243,-122,-138,334,208,188,64,-124,67,46,470,32,110,74,-92,2,98,-173,-69,396,-77,75,211,93,358,44,182,-9,-141,134
36295,-366,-92,250,-105,-119,330,194,219,91,-115,79,41,476,54,112,116,-47,20,89,-166,-52,406,-51,95,220,84,353,10,206,11,-116,159
36296,-344,-68,203,-84,-108,348,195,271,105,-104,80,75,501,67,123,178,39,46,104,-154,-31,474,-7,115,229,114,390,-47,207,25,-110,174
36297,-358,-119,156,-76,-115,348,184,291,83,-111,64,75,505,53,114,140,-42,22,94,-186,-45,500,-15,99,194,104,402,-46,205,-3,-103,212
36298,-358,-119,127,-88,-119,341,183,335,81,-111,58,119,496,55,113,131,-108,27,96,-187,-51,452,-33,86,181,67,380,0,205,-9,-125,188
36299,-369,-147,22,-108,-139,308,178,389,87,-127,48,180,486,45,88,86,-61,28,101,-176,-86,445,-42,91,189,48,383,-13,196,-27,-139,166
36300,-400,-189,-13,-105,-153,301,180,379,75,-140,45,189,492,59,84,104,-36,36,101,-175,-85,471,-49,101,195,51,377,-16,215,-33,-138,125
36301,-403,-183,45,-123,-156,336,190,353,70,-135,52,107,508,46,104,189,-71,24,106,-170,-59,435,-64,98,198,72,396,-51,208,-29,-154,-20
36302,-358,-156,168,-108,-130,389,226,272,64,-111,111,102,478,54,141,211,24,58,81,-156,-21,398,-10,83,200,92,529,-192,170,-71,-196,-409
36303,-367,-117,212,-125,-129,369,253,181,53,-123,119,57,475,60,149,225,66,69,70,-156,-36,372,62,113,202,86,548,-296,173,-66,-178,-44
36304,-357,-132,315,-99,-138,341,133,263,56,-121,57,41,507,49,92,128,97,116,109,-170,-90,322,222,157,195,42,355,-207,246,-23,-135,143
36305,-308,-81,367,-89,-111,317,187,227,67,-104,80,89,516,69,110,16,78,152,123,-149,-82,318,306,199,221,43,284,-67,297,6,-109,193
36306,-266,-53,354,-98,-126,324,212,250,61,-113,51,140,501,71,122,-280,61,107,108,-131,-36,390,230,187,226,59,340,-61,284,33,-86,252
36307,-252,-103,343,-115,-133,358,159,249,39,-122,22,-26,469,54,118,-141,69,71,90,-155,-14,440,155,158,207,88,367,-32,280,26,-90,229
36308,-274,-156,321,-107,-118,349,140,299,70,-117,48,28,476,56,86,119,49,49,86,-186,-117,370,68,125,194,29,296,-44,251,12,-116,116
36309,-297,-232,309,-86,-109,337,140,349,76,-102,53,66,498,64,88,310,44,28,86,-196,-224,319,11,105,169,4,249,-1,223,-8,-133,97
36310,-325,-249,309,-83,-95,349,212,287,81,-108,101,114,483,69,117,314,-15,28,83,-170,-114,324,-4,92,173,41,303,-1,206,-10,-143,103
36311,-341,-215,306,-100,-110,359,245,267,87,-121,52,150,484,35,94,224,-1,86,87,-201,-99,318,48,114,160,32,330,39,184,-47,-161,-81
36312,-308,-202,279,-95,-92,373,277,252,70,-100,77,58,478,48,108,174,48,72,92,-186,-106,314,66,117,159,35,383,-10,168,-87,-199,-111
36313,-304,-136,280,-91,-107,346,315,227,78,-112,88,31,469,30,109,155,-139,45,82,-176,-100,276,14,84,171,6,356,-177,149,-108,-223,-86
36314,-336,-111,253,-112,-116,320,252,240,92,-130,77,-2,470,37,111,163,-193,14,93,-191,-80,413,-14,96,174,13,337,-146,172,-86,-229,3
36315,-314,-121,271,-118,-102,327,198,209,78,-108,87,60,484,39,115,114,-35,51,90,-185,-108,429,39,140,181,22,322,-55,212,-53,-169,55
36316,-297,-62,284,-118,-111,321,181,192,66,-135,61,53,441,32,99,79,-55,-5,49,-204,-138,382,-57,100,146,-9,293,-51,147,-106,-224,-180
36317,-282,-50,308,-94,-109,273,134,233,78,-136,61,84,445,33,111,103,-42,-3,45,-208,-119,276,-93,61,141,-17,305,-50,126,-125,-254,-147
36318,-258,-60,330,-74,-83,275,140,267,90,-121,71,155,473,44,124,65,-40,31,72,-207,-120,316,-57,86,145,-25,249,-36,155,-99,-234,6
36319,-270,-78,298,-77,-92,316,134,267,77,-101,109,178,483,60,129,82,-14,39,82,-181,-102,370,-31,104,176,16,268,51,199,-28,-173,136
36320,-305,-89,269,-94,-101,348,155,250,68,-107,163,107,469,54,152,77,-14,14,81,-189,-108,368,-73,70,176,18,276,21,204,-18,-144,134
36321,-307,-98,278,-85,-107,378,239,270,85,-94,142,86,466,58,148,90,0,12,72,-168,-76,378,-72,71,178,36,280,-48,197,-35,-128,150
36322,-314,-132,284,-91,-114,404,273,280,75,-110,112,44,475,64,150,116,62,27,73,-141,-55,403,-37,103,191,69,344,-5,239,4,-107,202
36323,-306,-116,299,-59,-91,409,310,297,99,-87,111,29,505,83,188,188,44,61,105,-128,-22,425,42,147,231,81,416,134,299,3,-132,140
36324,-273,-84,295,-51,-101,372,353,346,86,-91,112,38,500,74,199,218,-5,73,128,-116,18,465,79,161,250,129,554,4,310,40,-95,136
36325,-253,-59,343,-52,-102,378,339,327,82,-97,131,62,496,80,200,123,-3,89,124,-97,41,407,47,140,244,137,599,-86,271,63,-47,164
36326,-232,-51,405,-47,-117,339,313,332,103,-118,101,96,511,88,202,148,16,105,119,-85,32,379,51,159,244,152,536,24,319,88,-27,144
36327,-222,-44,347,-64,-100,336,319,352,91,-101,127,144,517,88,206,326,14,109,128,-104,31,390,40,152,237,146,475,48,296,49,-67,-25
36328,-215,-29,322,-37,-92,368,324,365,82,-88,153,186,530,80,187,261,-57,107,121,-115,-7,467,-32,139,225,112,407,-29,254,54,-80,58
36329,-218,-34,295,-44,-95,362,345,323,87,-89,149,178,522,77,175,199,-40,111,115,-125,-26,500,-10,133,230,101,388,76,269,57,-60,203
36330,-215,-72,360,-45,-94,346,300,352,87,-111,111,154,516,58,157,164,34,99,98,-140,-54,410,4,132,238,79,349,147,280,28,-69,264
36331,-272,-105,363,-26,-99,357,263,336,66,-103,106,5,502,64,159,147,86,46,108,-137,-15,481,-2,135,234,108,418,110,283,66,-21,350
36332,-289,-143,332,-46,-107,363,280,273,61,-91,115,-103,490,53,175,230,99,18,103,-136,41,530,-31,123,214,128,510,18,266,84,-15,364
36333,-257,-113,374,-48,-83,407,314,319,80,-83,125,120,508,51,186,254,93,75,103,-151,19,289,-10,141,219,127,420,99,273,67,-43,171
36334,-281,-92,348,-29,-85,461,293,364,92,-91,190,120,501,36,180,239,91,68,86,-176,-20,144,0,121,187,53,273,39,222,-40,-154,-79
36335,-265,-80,336,-14,-88,475,249,353,94,-65,228,177,536,50,239,321,113,108,102,-133,71,342,38,150,215,108,425,10,276,37,-87,197
36336,-226,-121,346,-11,-97,436,225,383,90,-79,180,242,549,34,200,183,105,138,104,-142,44,425,99,156,224,106,461,-79,288,63,-55,293
36337,-219,-132,380,-44,-96,370,219,412,100,-108,84,357,581,48,149,67,206,209,128,-153,-44,199,209,185,209,85,386,-159,259,14,-98,9
36338,-241,-138,387,-52,-97,357,251,360,96,-105,111,386,562,62,182,114,128,233,133,-141,-8,187,235,191,217,111,483,-194,258,-24,-165,-223
36339,-271,-178,419,-67,-101,353,259,313,78,-101,131,329,548,54,176,148,-37,191,127,-129,-19,235,194,172,205,111,459,-272,222,-42,-180,-120
36340,-232,-140,428,-58,-92,371,272,317,70,-90,132,217,546,54,174,154,-4,161,131,-160,-52,255,137,162,200,58,251,-174,218,-38,-172,19
36341,-190,-41,440,-38,-68,394,281,333,63,-76,149,177,514,64,162,-27,-27,122,109,-162,-86,340,32,129,208,42,216,-138,188,-36,-157,94
36342,-170,11,445,-14,-83,383,354,371,78,-59,160,232,528,49,162,-282,21,117,110,-157,-15,409,25,135,197,57,268,-270,171,-32,-162,84
36343,-161,4,439,-5,-88,392,365,371,80,-60,149,235,547,47,172,-81,117,151,138,-152,2,452,168,182,224,79,322,-309,232,6,-130,133
36344,-160,38,419,-27,-82,391,392,350,68,-85,121,187,537,40,156,242,104,131,134,-165,-86,425,140,176,217,66,303,-47,245,-25,-130,104
36345,-159,88,399,-26,-78,397,389,344,58,-78,164,207,527,37,170,374,120,128,117,-173,-148,454,122,170,210,69,322,55,241,-17,-140,136
36346,-182,68,370,-24,-75,403,372,354,62,-73,151,241,529,36,168,217,114,164,112,-158,-56,441,133,173,222,84,351,22,224,-14,-123,143
36347,-192,46,382,-33,-84,394,366,337,50,-66,148,157,501,32,153,177,-39,87,91,-172,-64,327,-11,101,200,57,311,-72,174,-48,-167,30
36348,-214,11,380,-46,-69,399,330,321,79,-68,141,76,502,47,164,183,-47,53,91,-163,-59,340,-28,110,208,54,339,13,201,-29,-160,-49
36349,-238,16,330,-76,-67,388,333,275,55,-93,80,20,488,24,116,50,-5,27,69,-181,-112,319,-47,107,183,20,311,134,216,-39,-163,-70
36350,-225,-28,343,-38,-67,370,339,294,80,-92,113,26,492,41,119,-16,-76,15,70,-186,-122,315,-89,98,166,6,285,58,206,-26,-159,-53
36351,-255,-96,312,-66,-79,403,342,278,73,-87,120,49,494,44,147,171,-95,-5,80,-171,-59,197,-109,94,187,37,293,-82,161,-38,-146,34
36352,-276,-83,315,-70,-78,422,268,292,81,-89,145,113,500,41,147,212,-80,25,83,-163,-43,221,-71,122,201,51,316,-62,192,-2,-116,67
36353,-250,-60,322,-62,-77,465,285,322,85,-59,179,139,531,49,173,207,13,67,108,-156,-49,242,-13,149,204,54,317,33,245,25,-106,20
36354,-263,-86,297,-66,-87,456,271,295,72,-72,138,-28,508,53,154,185,-48,33,96,-145,-30,249,-43,127,212,62,322,38,242,28,-71,48
36355,-273,-56,253,-67,-88,356,219,326,73,-84,119,-54,498,59,162,141,-73,24,117,-131,-2,385,-68,160,234,104,419,-17,270,59,-49,80
36356,-288,-85,136,-88,-127,334,229,334,69,-111,112,-16,504,49,174,105,-63,26,119,-126,-10,394,-61,164,252,123,466,-3,273,79,-25,86
36357,-314,-74,10,-72,-132,322,228,414,65,-107,116,43,520,74,181,166,-32,54,139,-129,25,502,-25,178,266,133,514,110,320,103,19,229
36358,-274,-30,92,-64,-99,344,266,417,87,-103,94,198,565,61,156,188,0,93,138,-145,-17,417,14,177,236,91,408,107,331,86,-24,182
36359,-192,6,413,-26,-70,352,269,324,94,-103,121,300,553,55,168,198,33,120,130,-158,-45,357,47,179,222,89,373,74,320,60,-33,139
36360,-124,34,577,23,-73,368,235,416,89,-104,83,256,529,33,127,100,30,116,110,-175,-90,320,49,160,183,55,352,89,307,60,-61,57
36361,-132,57,576,41,-66,364,252,428,82,-116,64,123,521,1,93,78,17,85,96,-215,-118,186,40,157,175,16,305,135,293,25,-98,-153
36362,-199,14,500,10,-84,332,199,338,85,-123,37,59,524,17,119,148,29,97,106,-185,-56,242,30,177,216,78,446,111,320,67,-66,-113
36363,-197,-24,495,25,-87,339,164,374,96,-115,23,93,520,45,112,118,24,85,120,-163,-70,320,-8,161,218,76,419,36,276,43,-61,57
36364,-168,-10,503,7,-94,351,220,369,82,-113,74,237,510,42,125,73,35,73,100,-181,-84,373,-18,153,186,67,356,-48,240,38,-72,207
36365,-141,73,492,12,-62,386,347,387,91,-112,102,289,536,27,126,86,-4,134,107,-190,-95,382,28,158,195,72,354,-66,240,15,-99,120
36366,-107,97,519,18,-50,396,407,418,110,-84,145,272,569,51,137,104,60,191,134,-168,-65,408,119,206,223,86,402,100,318,27,-99,45
36367,-109,73,522,3,-56,423,379,371,102,-83,169,187,541,53,180,209,86,128,135,-165,-17,423,68,184,218,98,491,-93,283,23,-92,83
36368,-123,20,553,-2,-58,402,340,366,90,-99,139,210,528,35,155,195,63,103,116,-163,-42,390,39,149,204,86,461,-175,233,-7,-130,26
36369,-180,-89,517,-16,-59,396,275,353,77,-110,100,229,514,23,140,177,30,98,94,-176,-64,393,18,144,198,81,401,-89,244,-13,-119,99
36370,-198,-90,456,-19,-63,399,261,332,79,-98,85,174,538,42,140,166,52,109,95,-167,-58,330,95,168,216,91,384,-38,289,41,-71,138
36371,-207,-62,404,-28,-57,423,262,324,81,-90,120,131,533,55,161,182,39,118,124,-163,-56,283,144,191,209,85,343,-59,259,22,-96,38
36372,-201,-29,412,-9,-59,421,252,335,80,-71,129,154,523,43,146,29,-2,130,116,-187,-68,266,115,127,198,59,324,-136,220,-30,-159,9
36373,-177,32,428,10,-60,394,226,370,79,-85,46,241,537,22,120,-287,99,169,100,-196,-44,297,181,150,176,52,341,-298,189,-64,-169,-128
36374,-187,7,423,-16,-79,362,179,393,96,-103,25,270,537,33,127,-47,162,175,114,-188,-1,342,213,173,196,59,485,-358,199,-51,-158,-559
36375,-215,-16,361,-12,-72,385,214,398,116,-101,122,245,540,47,133,347,-78,146,118,-161,-40,382,121,150,221,99,641,-296,228,-15,-137,-411
36376,-203,-37,416,16,-71,409,174,433,120,-87,117,383,565,55,99,358,-115,194,123,-201,-227,228,127,191,206,13,287,-211,258,0,-113,92
36377,-157,-75,529,19,-84,424,175,395,122,-93,67,406,594,42,81,148,48,231,135,-211,-197,238,190,242,223,12,194,-161,314,30,-81,183
36378,-179,-129,500,-23,-93,397,91,374,78,-114,42,221,563,39,72,76,-27,179,130,-189,-179,293,169,207,224,38,247,-15,315,23,-108,88
36379,-185,-76,390,-41,-97,383,160,297,68,-101,77,52,499,34,79,37,29,62,110,-176,-168,347,-37,137,213,52,323,-83,227,53,-59,15
