,Fp1,Fp2,F7,F3,Fz,F4,F8,FC5,FC1,FC2,FC6,T7,C3,Cz,C4,T8,TP9,CP5,CP1,CP2,CP6,TP10,P7,P3,Pz,P4,P8,PO9,O1,Oz,O2,PO10
93892,-429,-187,111,-441,-292,245,-299,342,-71,-221,-53,140,280,-71,-268,-54,232,-141,-388,-372,-374,119,220,165,81,-144,59,155,155,-158,-378,-92
93893,-428,-174,7,-492,-289,244,-289,223,-83,-230,-67,229,259,-96,-281,-46,263,-107,-391,-361,-394,56,239,185,69,-149,60,154,169,-168,-381,-107
93894,-468,-205,-48,-522,-308,229,-285,201,-115,-244,-96,161,220,-99,-320,-170,181,-168,-435,-401,-425,10,204,172,34,-181,16,111,132,-210,-429,-147
93895,-512,-239,40,-512,-317,220,-266,255,-100,-241,-105,4,257,-92,-335,-224,157,-189,-400,-417,-446,37,186,171,42,-186,2,96,112,-242,-460,-193
93896,-577,-258,102,-496,-323,200,-341,286,-98,-273,-190,-144,257,-97,-354,-233,192,-192,-405,-420,-440,88,184,153,25,-193,18,92,99,-264,-471,-183
93897,-505,-238,152,-490,-311,200,-439,283,-92,-250,-223,-137,273,-102,-337,-144,218,-191,-434,-404,-403,58,209,160,22,-179,16,102,99,-246,-458,-164
93898,-432,-269,77,-470,-304,237,-441,347,-89,-233,-28,81,269,-125,-308,-208,214,-191,-451,-414,-398,9,173,124,21,-194,-17,109,86,-257,-491,-204
93899,-501,-317,-208,-445,-320,250,-433,335,-110,-250,7,195,227,-138,-310,-174,180,-183,-459,-427,-427,4,157,116,4,-230,-34,74,81,-278,-507,-234
93900,-530,-242,-278,-405,-322,216,-387,422,-80,-257,-107,220,250,-118,-329,0,191,-140,-442,-430,-436,42,192,173,15,-222,-18,99,107,-250,-461,-202
93901,-392,-192,-81,-390,-299,189,-227,425,-55,-268,-144,249,286,-123,-349,32,225,-128,-428,-414,-391,130,231,175,52,-180,48,142,153,-190,-434,-142
93902,-279,-60,130,-435,-267,231,-105,299,-62,-237,-97,126,295,-117,-297,37,272,-95,-394,-374,-334,194,280,221,90,-141,123,195,216,-146,-390,-77
93903,-259,11,182,-457,-291,219,-106,300,-88,-258,-106,31,265,-131,-316,-20,272,-130,-396,-410,-351,173,270,207,79,-132,133,205,211,-140,-363,-79
93904,-283,-26,185,-456,-281,179,-115,338,-89,-265,-113,32,264,-111,-303,-203,229,-131,-393,-406,-347,154,280,218,90,-140,137,212,239,-123,-352,-70
93905,-318,-100,177,-452,-293,178,-141,292,-98,-278,-102,27,269,-118,-285,-296,188,-141,-414,-405,-342,158,261,205,78,-144,113,185,214,-135,-346,-71
93906,-300,-149,149,-460,-295,195,-195,299,-89,-265,-110,40,259,-126,-299,-177,372,-144,-419,-385,-347,175,285,202,75,-139,142,201,208,-120,-325,-42
93907,-337,-138,97,-362,-270,242,-131,371,-65,-245,-6,95,282,-126,-269,82,337,-158,-395,-379,-324,182,297,207,66,-140,191,208,233,-99,-290,-8
93908,-362,-164,175,-369,-270,268,-161,363,-64,-269,32,89,260,-131,-282,259,275,-150,-429,-391,-316,214,274,166,51,-145,207,188,216,-109,-282,11
93909,-326,-152,220,-419,-268,278,-171,294,-80,-263,-13,76,246,-107,-283,345,235,-158,-437,-390,-307,226,260,160,44,-131,250,157,190,-120,-288,-11
93910,-306,-119,216,-438,-265,263,-163,276,-72,-284,-52,67,253,-141,-318,301,238,-179,-449,-422,-320,195,222,139,20,-171,195,115,146,-176,-350,-102
93911,-302,-56,241,-433,-238,270,-173,311,-66,-268,-46,96,242,-148,-310,148,298,-160,-424,-434,-336,175,230,140,-5,-200,176,106,140,-223,-446,-145
93912,-419,-112,123,-406,-257,252,-151,350,-79,-285,-75,208,229,-156,-323,35,294,-149,-460,-452,-345,129,284,146,4,-204,134,89,161,-222,-434,-180
93913,-494,-139,5,-400,-269,244,-132,336,-74,-284,-137,297,220,-177,-335,33,219,-127,-489,-453,-343,135,327,140,10,-207,96,83,172,-236,-438,-180
93914,-472,-68,-131,-380,-262,244,-155,418,-60,-273,-136,159,244,-166,-323,114,145,-123,-493,-446,-339,142,315,122,-4,-184,127,34,98,-222,-399,-92
93915,-535,-38,-190,-340,-265,267,-183,424,-49,-254,-8,125,247,-140,-311,75,149,-135,-486,-431,-348,142,217,101,2,-175,156,16,51,-173,-309,-34
93916,-500,-144,-162,-405,-307,239,-222,349,-68,-283,-47,109,254,-146,-345,94,209,-126,-470,-442,-382,106,157,105,-1,-194,165,28,96,-171,-322,-88
93917,-365,-173,-95,-431,-309,237,-256,346,-72,-276,-85,214,286,-141,-338,59,254,-109,-433,-417,-375,122,234,141,13,-183,173,80,135,-189,-383,-135
93918,-308,-122,-21,-439,-283,251,-251,442,-75,-257,-81,317,259,-121,-288,-68,246,-151,-443,-413,-356,152,296,133,10,-191,130,84,123,-214,-419,-123
93919,-254,-154,67,-515,-278,266,-378,396,-107,-245,-98,439,198,-129,-294,73,227,-176,-466,-396,-340,136,182,92,7,-195,106,73,100,-261,-518,-147
93920,-272,-152,68,-483,-268,288,-408,257,-85,-232,-32,378,194,-114,-280,178,238,-185,-482,-397,-336,136,79,101,11,-184,111,78,100,-228,-484,-155
93921,-361,-156,58,-413,-275,290,-293,277,-86,-268,11,85,214,-144,-328,113,209,-217,-511,-437,-385,125,33,77,-27,-242,52,19,53,-269,-496,-176
93922,-371,-157,137,-426,-274,281,-194,355,-97,-286,-31,35,222,-170,-348,75,172,-233,-533,-470,-397,134,56,48,-63,-267,-9,0,33,-308,-553,-205
93923,-273,-125,280,-476,-257,271,-91,307,-97,-266,-61,-2,194,-164,-354,42,171,-243,-531,-460,-405,112,66,45,-76,-281,-10,9,73,-300,-521,-182
93924,-258,-90,301,-470,-240,261,-46,296,-89,-271,-123,-27,201,-163,-369,93,164,-222,-518,-479,-417,58,80,63,-50,-265,27,38,85,-292,-508,-184
93925,-247,-15,316,-494,-238,283,-52,248,-88,-258,-90,26,218,-145,-361,126,134,-210,-501,-463,-392,93,101,97,-36,-253,52,43,87,-285,-499,-152
93926,-261,-22,306,-546,-273,240,-111,235,-96,-262,-42,-48,202,-148,-359,110,124,-244,-482,-456,-398,104,74,84,-23,-252,72,5,55,-298,-491,-162
93927,-290,-70,173,-565,-285,198,-135,245,-110,-277,-97,-153,195,-154,-376,104,99,-277,-475,-465,-398,90,23,74,-28,-256,65,-39,12,-334,-520,-186
93928,-260,-88,133,-548,-303,206,-130,277,-111,-280,-77,-229,202,-153,-367,88,50,-307,-477,-469,-388,102,-16,48,-27,-250,66,-62,26,-321,-502,-193
93929,-244,-136,166,-570,-316,230,-164,209,-110,-269,-3,-115,194,-133,-331,77,8,-289,-467,-446,-376,123,-5,65,-11,-225,93,-53,46,-285,-480,-170
93930,-300,-126,128,-535,-290,263,-127,188,-121,-258,-3,-79,201,-124,-308,-193,41,-243,-487,-423,-369,112,39,73,-2,-210,71,-30,55,-283,-489,-208
93931,-330,-113,67,-471,-281,269,-166,302,-71,-264,35,-26,227,-117,-304,-528,114,-225,-480,-420,-370,94,71,94,-8,-222,61,5,76,-267,-481,-210
93932,-308,-72,49,-440,-259,280,-149,350,-63,-260,45,18,223,-122,-282,-617,143,-214,-461,-405,-342,100,113,125,11,-212,53,16,109,-268,-492,-195
93933,-377,-72,50,-435,-270,275,-182,296,-80,-243,44,-35,241,-126,-261,-470,72,-229,-460,-409,-327,98,111,129,27,-204,48,17,98,-276,-486,-181
93934,-427,-79,85,-457,-270,291,-161,276,-70,-238,46,-43,237,-110,-236,-129,57,-235,-452,-382,-300,119,120,147,48,-154,94,23,123,-230,-449,-152
93935,-370,-48,87,-468,-292,250,-148,295,-82,-272,-16,119,217,-129,-290,51,262,-207,-442,-392,-316,132,185,161,60,-162,126,58,151,-211,-444,-137
93936,-295,-26,-86,-460,-323,233,-118,352,-100,-288,-56,350,209,-135,-303,247,315,-177,-443,-383,-322,181,262,202,71,-144,159,103,184,-179,-387,-83
93937,-259,6,-62,-408,-283,221,-42,357,-45,-258,-47,277,260,-96,-284,381,304,-139,-411,-366,-284,267,286,245,123,-100,237,192,239,-118,-321,-4
93938,-234,-7,94,-425,-274,212,-85,351,-41,-273,-38,82,275,-101,-297,376,284,-148,-414,-404,-292,203,220,226,126,-103,216,239,269,-108,-306,-12
93939,-250,-22,164,-443,-301,217,-221,346,-72,-297,-99,55,251,-130,-326,410,282,-161,-428,-396,-290,202,232,224,122,-120,221,230,271,-109,-313,-53
93940,-248,-66,266,-458,-294,258,-340,310,-82,-272,-84,-27,289,-121,-285,381,286,-126,-418,-376,-254,258,237,255,136,-104,252,236,280,-97,-314,-45
93941,-163,-43,314,-503,-267,314,-234,305,-85,-236,65,35,301,-117,-242,275,314,-106,-399,-359,-259,280,272,283,151,-94,243,253,293,-85,-306,-18
93942,-129,-17,372,-499,-254,320,-73,331,-65,-226,95,154,279,-117,-229,180,300,-89,-387,-327,-223,338,316,303,173,-48,245,266,318,-54,-269,3
93943,-137,1,382,-493,-266,309,-71,281,-85,-224,77,220,274,-115,-219,107,305,-53,-373,-344,-219,352,345,296,157,-54,257,303,329,-63,-253,1
93944,-200,45,411,-406,-239,320,-50,307,-67,-227,56,263,293,-104,-257,171,388,-36,-365,-349,-246,301,385,318,154,-55,270,355,355,-29,-237,46
93945,-227,23,447,-399,-241,319,3,375,-44,-228,10,186,330,-84,-270,308,410,-23,-367,-343,-219,352,387,331,164,-54,297,368,370,-1,-220,70
93946,-221,-23,460,-405,-251,314,-24,399,-47,-246,0,193,322,-121,-283,350,362,-61,-398,-363,-258,314,345,274,110,-92,284,300,320,-38,-245,27
93947,-200,3,422,-442,-262,330,-92,394,-71,-233,106,183,301,-129,-278,340,331,-71,-403,-371,-269,241,335,257,91,-122,272,300,300,-59,-249,22
93948,-173,-4,345,-441,-268,352,-77,404,-60,-232,78,162,305,-118,-291,346,370,-73,-421,-382,-260,280,312,232,89,-101,272,276,310,-57,-261,26
93949,-168,37,238,-430,-270,344,-25,402,-80,-244,55,97,303,-119,-289,283,361,-86,-406,-384,-263,273,331,234,76,-92,288,318,302,-57,-257,9
93950,-139,55,298,-388,-256,344,-55,379,-54,-217,85,184,326,-96,-267,215,355,-50,-367,-355,-246,257,410,295,91,-75,297,399,345,-18,-233,69
93951,-115,44,418,-400,-246,298,-80,363,-64,-234,47,246,319,-103,-284,242,462,-43,-378,-361,-235,256,429,287,97,-70,284,410,358,-13,-219,100
93952,-115,15,346,-432,-258,271,-43,347,-60,-242,13,199,317,-109,-268,101,455,-50,-387,-346,-201,305,433,311,102,-51,301,404,364,5,-175,114
93953,-187,6,278,-426,-271,218,-45,324,-75,-257,-28,203,306,-122,-280,11,413,-59,-398,-355,-208,294,397,279,69,-68,279,370,340,2,-154,65
93954,-146,39,348,-409,-250,215,-11,389,-43,-249,-21,234,338,-98,-285,50,441,-28,-387,-348,-228,295,415,289,80,-64,283,381,339,-3,-153,68
93955,-147,67,202,-420,-256,243,-38,437,-59,-226,14,258,334,-105,-266,-143,438,-26,-398,-353,-245,288,434,265,46,-88,259,335,300,-86,-270,2
93956,-177,33,99,-431,-266,248,-131,389,-64,-249,-8,181,323,-127,-279,-387,447,-19,-423,-378,-284,263,445,238,23,-123,233,308,295,-128,-386,18
93957,-194,39,133,-414,-263,252,-154,473,-38,-230,-22,168,344,-114,-302,-126,407,-28,-413,-373,-281,258,456,227,11,-128,243,270,271,-112,-361,50
93958,-157,50,163,-389,-274,262,-111,519,-27,-223,17,314,328,-95,-262,225,367,-47,-395,-355,-242,257,503,232,32,-108,280,244,247,-133,-333,43
93959,-74,57,285,-449,-267,256,-79,393,-52,-229,4,265,321,-89,-243,416,314,4,-386,-353,-204,246,540,227,55,-104,303,249,215,-135,-335,48
93960,-129,66,330,-434,-266,223,-112,350,-46,-260,-112,47,315,-94,-312,510,329,-68,-384,-366,-214,310,321,201,43,-99,251,294,209,-146,-332,19
93961,-205,17,299,-440,-267,243,-142,369,-61,-248,-50,-30,283,-94,-306,312,427,-130,-395,-372,-234,297,194,173,29,-116,127,270,185,-175,-379,-43
93962,-221,-23,169,-501,-272,248,-151,322,-79,-241,36,-11,269,-85,-281,84,306,-130,-417,-382,-247,242,192,151,14,-138,119,196,156,-216,-434,-126
93963,-244,-3,131,-474,-277,225,-91,260,-88,-249,-43,-19,281,-107,-316,-13,244,-147,-450,-385,-331,213,160,121,-31,-192,92,136,104,-244,-478,-137
93964,-206,-12,231,-443,-278,239,-18,285,-80,-262,-39,58,285,-104,-328,0,211,-159,-455,-402,-364,131,123,93,-59,-234,55,85,75,-289,-544,-177
93965,-151,-31,271,-450,-279,249,-115,275,-106,-265,18,30,267,-120,-336,91,180,-174,-478,-435,-394,41,106,58,-86,-247,44,100,63,-296,-522,-159
93966,-153,-27,238,-476,-298,215,-199,236,-119,-268,-73,30,231,-125,-367,157,198,-207,-495,-440,-403,83,125,67,-98,-253,44,89,56,-305,-520,-175
93967,-189,56,173,-479,-288,232,-241,239,-95,-268,-94,44,243,-110,-353,175,152,-192,-474,-445,-392,112,151,84,-59,-226,63,95,95,-287,-512,-203
93968,-194,105,190,-457,-283,234,-201,266,-102,-269,-112,68,238,-119,-346,150,86,-193,-439,-453,-395,76,153,104,-49,-221,61,97,142,-270,-508,-197
93969,-187,73,223,-413,-286,239,-180,341,-85,-272,-120,130,270,-130,-362,81,164,-163,-446,-440,-405,86,206,138,-42,-212,55,117,147,-259,-496,-193
93970,-73,92,306,-357,-255,277,-175,385,-47,-278,-136,229,283,-127,-351,-14,266,-134,-444,-422,-384,98,203,151,-31,-187,35,128,72,-264,-454,-174
93971,-9,60,334,-377,-239,328,-259,330,-67,-274,-116,235,262,-125,-321,-136,231,-142,-447,-428,-406,94,191,132,-40,-190,45,112,48,-272,-465,-160
93972,-81,-60,354,-414,-260,341,-305,295,-98,-248,4,176,226,-114,-306,-230,194,-155,-465,-452,-412,67,236,121,-18,-200,40,100,132,-235,-461,-145
93973,-152,-9,353,-472,-286,329,-212,285,-93,-257,-12,251,213,-105,-301,-260,250,-132,-471,-425,-396,-9,363,178,24,-187,30,154,156,-206,-422,-128
93974,-130,21,210,-494,-272,309,-235,271,-80,-253,-42,147,251,-92,-327,-249,228,-133,-442,-433,-434,6,292,188,33,-191,14,162,146,-200,-433,-86
93975,-81,90,139,-466,-283,239,-220,292,-77,-282,-112,94,281,-123,-365,-45,204,-157,-411,-459,-426,66,178,191,41,-184,91,190,191,-175,-403,-47
93976,-60,167,126,-422,-290,203,-310,293,-53,-290,-117,224,294,-116,-365,43,209,-115,-405,-453,-407,116,232,218,48,-169,104,225,214,-156,-382,-81
93977,-83,132,190,-395,-295,191,-322,369,-60,-313,-154,107,302,-128,-395,-113,222,-140,-404,-453,-446,55,221,211,34,-207,14,166,154,-206,-459,-228
93978,41,175,299,-410,-284,202,-196,371,-71,-300,-138,149,298,-139,-373,-61,224,-137,-395,-445,-445,53,196,207,39,-200,24,109,129,-245,-465,-225
93979,132,198,426,-435,-266,217,-159,338,-44,-272,-112,84,297,-116,-347,78,233,-114,-392,-417,-380,141,181,214,58,-165,60,109,155,-217,-459,-170
93980,157,218,456,-423,-252,215,-106,280,-71,-272,-118,-34,269,-122,-333,46,157,-170,-411,-408,-347,109,152,192,52,-158,76,59,146,-225,-446,-167
93981,164,266,423,-428,-228,274,-68,282,-103,-260,-31,24,256,-123,-337,-70,142,-182,-427,-394,-375,88,147,171,35,-188,32,51,131,-227,-449,-176
93982,163,280,391,-435,-254,283,-59,267,-95,-271,-60,-29,256,-114,-350,6,179,-185,-415,-383,-379,80,162,189,35,-202,17,86,151,-203,-428,-171
93983,138,303,324,-425,-241,279,15,284,-82,-283,-89,-92,266,-101,-318,29,159,-192,-413,-398,-364,65,163,169,29,-177,53,112,156,-205,-420,-179
93984,153,358,319,-413,-214,294,58,306,-67,-244,-68,-45,270,-87,-290,28,130,-198,-402,-385,-365,93,146,163,38,-180,64,111,133,-213,-440,-181
93985,174,379,286,-393,-216,293,8,312,-73,-244,-88,-16,264,-106,-323,61,125,-203,-412,-396,-374,73,113,152,20,-194,48,74,110,-218,-448,-186
93986,97,311,233,-416,-274,251,-66,262,-117,-297,-140,-16,211,-143,-364,16,99,-245,-462,-416,-403,-4,101,110,-3,-213,19,57,103,-235,-451,-219
93987,92,341,271,-420,-258,277,-57,290,-114,-273,-159,19,200,-97,-333,-31,114,-242,-465,-380,-381,39,111,115,11,-182,42,81,123,-210,-395,-154
93988,155,396,253,-427,-239,292,-104,244,-112,-258,-25,35,190,-102,-318,-136,81,-266,-486,-400,-385,-5,72,97,-28,-205,18,30,71,-248,-485,-216
93989,147,383,285,-412,-248,297,-94,245,-112,-240,23,34,180,-125,-309,-72,27,-279,-487,-410,-393,-20,40,66,-34,-237,-21,-9,35,-281,-526,-261
93990,229,434,349,-399,-232,330,-111,268,-98,-231,12,-5,188,-110,-292,79,-85,-273,-476,-390,-354,22,40,64,-25,-207,38,-13,58,-257,-427,-189
93991,273,443,334,-418,-227,317,-71,275,-109,-209,-28,-94,197,-111,-281,194,11,-263,-456,-404,-344,49,61,87,-9,-197,102,31,82,-230,-407,-126
93992,286,467,305,-419,-223,301,-44,282,-123,-205,-49,-180,175,-130,-313,167,74,-253,-490,-415,-369,58,80,70,-43,-240,25,62,41,-306,-554,-217
93993,273,478,339,-418,-198,330,-21,287,-114,-203,-51,-96,208,-106,-322,114,130,-236,-468,-415,-401,40,113,62,-62,-228,-35,86,40,-304,-569,-228
93994,329,473,373,-420,-203,342,10,294,-137,-212,-64,27,190,-129,-320,102,138,-257,-494,-414,-416,9,112,52,-62,-227,-43,100,53,-295,-533,-211
93995,436,459,367,-403,-187,359,11,260,-128,-208,-34,101,178,-135,-313,137,141,-258,-509,-404,-371,46,123,67,-42,-213,7,129,85,-293,-494,-198
93996,482,540,342,-398,-199,347,-39,271,-144,-213,-45,65,152,-150,-322,90,68,-267,-503,-419,-379,66,101,42,-46,-209,24,99,63,-283,-500,-197
93997,447,607,326,-403,-196,395,-20,193,-147,-213,-41,50,159,-131,-308,57,56,-271,-510,-422,-388,37,89,50,-63,-196,24,78,37,-277,-506,-236
93998,418,583,391,-393,-183,386,23,207,-132,-209,-17,3,167,-129,-292,43,78,-287,-498,-409,-358,58,62,58,-41,-178,33,69,43,-277,-484,-205
93999,463,617,427,-392,-181,361,-22,236,-129,-217,-60,-58,151,-149,-304,-87,54,-320,-533,-436,-376,38,37,33,-72,-193,10,32,18,-303,-494,-185
94000,502,639,426,-365,-159,358,-208,243,-141,-256,-125,-78,148,-165,-340,-256,28,-335,-553,-452,-410,17,18,9,-100,-233,-9,-3,10,-301,-510,-175
94001,534,644,476,-349,-133,443,-299,254,-149,-209,71,-88,150,-163,-325,-234,43,-334,-578,-480,-443,-33,-6,-25,-134,-279,-60,-49,-32,-346,-567,-257
94002,570,674,523,-335,-132,475,-147,264,-136,-193,127,-135,129,-175,-321,-92,-11,-376,-602,-509,-468,-123,-13,-49,-175,-297,-89,-63,-76,-408,-644,-341
94003,595,764,549,-316,-122,444,-32,289,-133,-214,66,-200,149,-172,-328,14,-42,-376,-591,-498,-453,-89,-7,-57,-177,-300,-86,-109,-77,-409,-602,-321
94004,614,778,525,-332,-146,404,20,257,-112,-246,-33,-239,132,-176,-366,-85,-75,-361,-581,-503,-468,-87,-70,-82,-183,-304,-106,-141,-111,-412,-602,-338
94005,657,776,486,-308,-150,378,71,271,-131,-273,-101,-238,135,-183,-381,-206,-156,-378,-574,-546,-469,-125,-139,-70,-182,-307,-132,-129,-114,-419,-604,-360
94006,627,731,341,-289,-181,327,30,325,-131,-277,-96,-182,139,-192,-377,-241,-167,-410,-590,-535,-505,-145,-144,-77,-197,-348,-181,-136,-128,-440,-626,-395
94007,531,735,37,-225,-161,324,18,367,-90,-285,-109,-65,158,-168,-382,-164,-103,-421,-584,-541,-532,-150,-85,-62,-196,-364,-190,-151,-170,-479,-689,-413
94008,514,728,121,-215,-150,343,1,359,-111,-310,-157,-24,171,-173,-420,-176,-70,-369,-565,-547,-543,-176,12,-44,-188,-362,-185,-196,-179,-486,-687,-410
94009,590,763,382,-270,-173,359,-6,304,-127,-290,-149,-120,141,-193,-406,-264,-138,-368,-569,-559,-561,-155,44,-47,-174,-359,-168,-167,-150,-466,-660,-385
94010,671,816,459,-282,-155,347,9,259,-122,-278,-184,-284,125,-195,-411,-378,-143,-415,-560,-539,-562,-155,-27,-53,-179,-358,-234,-169,-147,-472,-663,-379
94011,754,843,515,-276,-109,388,22,271,-102,-268,-154,-314,157,-169,-365,-456,-91,-400,-531,-512,-524,-117,-69,-10,-111,-308,-223,-84,-86,-404,-595,-334
94012,816,885,616,-284,-113,433,-22,238,-123,-238,-11,-270,153,-196,-349,-367,-97,-380,-524,-516,-524,-130,-111,20,-87,-305,-172,-52,-42,-366,-570,-304
94013,807,900,674,-283,-108,440,20,249,-109,-229,90,-149,168,-181,-321,-140,-141,-366,-511,-477,-492,-180,-88,39,-57,-272,-153,-17,18,-313,-533,-303
94014,887,1006,712,-268,-85,443,100,258,-120,-206,23,-91,160,-176,-328,42,7,-349,-501,-485,-451,-142,-42,46,-60,-257,-105,-10,30,-298,-514,-300
94015,856,977,669,-291,-109,417,100,237,-138,-228,-61,-119,136,-191,-374,91,-12,-383,-507,-512,-472,-141,-83,12,-85,-276,-115,-49,-27,-345,-560,-348
94016,827,948,608,-296,-131,437,109,231,-118,-226,-68,-155,138,-193,-359,71,-95,-409,-499,-486,-448,-102,-101,6,-74,-277,-113,-68,-24,-374,-599,-409
94017,842,1017,537,-315,-140,439,109,216,-134,-229,-89,-246,119,-195,-384,-3,-154,-422,-535,-524,-509,-146,-131,-15,-91,-313,-192,-104,-61,-404,-668,-475
94018,873,1019,538,-302,-105,432,91,218,-138,-245,-100,-278,117,-190,-394,-86,-189,-430,-519,-523,-541,-202,-135,-37,-114,-302,-206,-110,-55,-403,-665,-461
94019,901,1013,534,-306,-97,437,88,224,-136,-243,-110,-278,111,-178,-389,-90,-180,-447,-538,-530,-557,-230,-147,-43,-109,-341,-205,-120,-76,-412,-667,-443
94020,902,1041,546,-320,-107,417,85,210,-124,-225,-133,-290,107,-184,-401,-96,-182,-446,-564,-546,-592,-285,-138,-43,-121,-372,-208,-122,-86,-441,-671,-473
94021,899,1055,543,-297,-90,456,108,219,-110,-203,-90,-246,129,-176,-409,-209,-184,-445,-533,-536,-586,-267,-133,-33,-111,-348,-186,-122,-61,-415,-667,-462
94022,918,1022,461,-312,-82,470,104,193,-125,-208,-83,-111,107,-183,-391,-433,-174,-431,-540,-513,-567,-218,-97,-9,-97,-348,-182,-125,-50,-393,-626,-425
94023,927,1019,368,-291,-91,488,12,246,-121,-208,-30,-102,116,-171,-375,-332,-129,-423,-516,-490,-563,-200,-78,7,-70,-298,-160,-159,-47,-386,-611,-420
94024,888,1046,347,-286,-105,477,-162,254,-117,-202,-46,-153,116,-149,-357,-81,-80,-387,-520,-466,-500,-138,-50,40,-42,-268,-94,-130,-32,-342,-562,-387
94025,839,1042,399,-329,-119,479,-71,186,-128,-202,12,-198,113,-156,-318,-50,-95,-392,-514,-440,-467,-173,-43,38,-36,-251,-104,-113,-31,-337,-576,-395
94026,936,1138,509,-292,-119,497,37,199,-126,-196,33,-104,127,-170,-325,-65,-91,-393,-517,-436,-507,-214,-42,19,-42,-248,-117,-119,-36,-358,-572,-390
94027,998,1189,574,-254,-98,479,99,278,-125,-209,-62,-112,159,-170,-338,-36,-66,-341,-487,-433,-486,-169,18,55,-21,-228,-90,-104,2,-324,-525,-362
94028,1016,1152,616,-225,-82,482,143,351,-95,-214,-71,-133,182,-175,-354,-56,-59,-305,-488,-433,-464,-171,102,73,-19,-213,-94,-99,9,-306,-493,-369
94029,1050,1125,637,-242,-82,528,194,265,-106,-207,-40,-71,173,-187,-339,-188,-88,-297,-489,-456,-469,-188,102,75,-30,-221,-93,-97,-1,-329,-511,-359
94030,993,1080,644,-237,-57,535,177,264,-101,-198,0,-92,175,-168,-297,-326,-133,-318,-490,-456,-439,-126,-3,62,-16,-203,-80,-75,33,-316,-517,-317
94031,1058,1168,632,-193,-48,539,136,347,-86,-199,17,-136,209,-168,-270,-209,-179,-326,-482,-425,-419,-95,-38,64,-25,-186,-33,-50,27,-308,-531,-311
94032,1110,1249,616,-227,-44,526,85,346,-86,-201,17,-212,208,-179,-290,-157,-26,-323,-479,-432,-393,-90,-8,55,-54,-181,-16,-90,-26,-336,-552,-349
94033,1153,1293,665,-219,-49,515,92,346,-93,-189,56,-240,216,-168,-283,-123,-7,-324,-488,-445,-378,-131,-6,39,-44,-185,-23,-85,-53,-335,-529,-323
94034,1206,1308,718,-219,-38,535,123,413,-70,-196,60,-248,258,-155,-278,-136,-47,-269,-480,-409,-388,-57,0,44,-30,-175,1,-50,10,-287,-475,-237
94035,1166,1265,632,-279,-60,511,123,379,-113,-206,-1,-170,217,-154,-286,-149,-15,-320,-497,-398,-362,-34,-2,41,-24,-173,13,-55,9,-285,-439,-231
94036,1206,1256,692,-261,-60,518,73,331,-119,-186,38,-73,207,-158,-285,-179,0,-303,-474,-400,-369,-109,48,70,-19,-178,24,-31,27,-300,-443,-242
94037,1213,1264,694,-237,-42,532,11,342,-107,-187,123,12,211,-160,-283,-293,-26,-278,-478,-407,-405,-114,94,86,-11,-186,2,4,25,-305,-522,-293
94038,1159,1259,689,-234,-68,534,41,350,-110,-192,101,101,204,-161,-287,-380,-4,-243,-470,-401,-421,-113,112,93,-17,-189,-16,0,26,-302,-499,-325
94039,1148,1243,706,-211,-67,561,167,349,-121,-201,52,74,218,-163,-314,-255,42,-250,-477,-425,-416,-136,95,75,-22,-204,-23,-28,48,-293,-523,-345
94040,1168,1314,663,-212,-52,574,215,362,-124,-203,50,52,199,-165,-300,-21,1,-269,-487,-413,-404,-126,98,57,-48,-191,-50,-46,76,-273,-526,-334
94041,1165,1365,716,-192,-35,593,262,320,-119,-170,62,-83,217,-141,-265,167,-56,-256,-451,-395,-355,-96,103,80,-25,-159,-4,-54,43,-274,-462,-255
