,Fp1,Fp2,F7,F3,Fz,F4,F8,FC5,FC1,FC2,FC6,T7,C3,Cz,C4,T8,TP9,CP5,CP1,CP2,CP6,TP10,P7,P3,Pz,P4,P8,PO9,O1,Oz,O2,PO10
120341,-477,-245,-501,-557,-372,-41,-274,-370,25,-65,-205,-626,-1,50,-112,-222,-441,-345,-47,-50,-357,-227,-219,-83,294,-106,-190,-291,-132,-371,-242,-584
120342,-459,-251,-540,-567,-396,-42,-263,-402,17,-82,-203,-669,-19,34,-106,-229,-443,-357,-65,-58,-348,-274,-254,-120,298,-128,-213,-469,-234,-412,-282,-624
120343,-483,-253,-552,-564,-401,-58,-279,-414,6,-92,-199,-678,-18,36,-90,-213,-452,-382,-51,-52,-302,-470,-240,-105,311,-103,-164,-409,-188,-353,-233,-606
120344,-486,-266,-519,-579,-402,-61,-312,-397,28,-88,-208,-652,-11,27,-90,-248,-443,-364,-29,-39,-286,-473,-202,-65,317,-78,-111,-341,-80,-310,-198,-607
120345,-436,-257,-469,-561,-396,-59,-298,-348,24,-95,-193,-618,33,38,-70,-412,-475,-300,12,-13,-263,-207,-116,-8,333,-73,-113,-319,9,-259,-185,-655
120346,-415,-211,-449,-522,-389,-50,-245,-302,16,-82,-150,-586,50,33,-54,-561,-588,-300,20,-13,-245,-39,-174,0,346,-30,-82,-350,-39,-284,-170,-619
120347,-382,-203,-392,-494,-386,-43,-239,-273,27,-71,-142,-533,50,20,-62,-341,-543,-311,8,-27,-305,-60,-245,-7,347,-23,-105,-401,-103,-301,-178,-594
120348,-342,-189,-347,-484,-385,-28,-209,-244,25,-78,-126,-544,73,36,-46,-60,-324,-305,22,-15,-272,-73,-219,-5,367,-7,-79,-339,-77,-259,-137,-529
120349,-318,-164,-308,-466,-359,-39,-171,-226,16,-59,-124,-536,66,46,-38,-23,-177,-270,17,-16,-240,-2,-216,-23,380,-14,-89,-473,-136,-274,-150,-491
120350,-308,-169,-291,-468,-357,-39,-207,-210,16,-65,-150,-512,75,62,-63,-59,-195,-289,33,0,-274,35,-172,6,379,-6,-123,-360,-31,-216,-128,-479
120351,-299,-162,-268,-448,-345,-46,-224,-200,25,-59,-154,-487,97,57,-56,-72,-178,-270,54,21,-249,2,-143,30,412,36,-71,-230,17,-183,-78,-459
120352,-299,-174,-245,-444,-353,-38,-234,-183,29,-55,-151,-475,118,60,-35,-90,-184,-231,79,57,-235,-18,-109,56,447,56,-12,-162,40,-169,-49,-461
120353,-291,-152,-226,-429,-371,-23,-240,-153,26,-65,-147,-461,120,56,-20,-151,-205,-250,62,45,-230,-15,-122,44,436,60,8,-217,11,-185,-67,-443
120354,-310,-158,-210,-436,-373,-26,-222,-128,19,-69,-127,-430,114,38,-7,-331,-134,-235,62,47,-209,22,-133,52,459,80,74,-273,-14,-205,-86,-431
120355,-276,-156,-190,-427,-379,-31,-201,-119,28,-70,-117,-409,121,46,-3,-278,-191,-179,69,82,-160,6,-81,112,471,103,83,-134,60,-163,-53,-449
120356,-249,-133,-154,-409,-363,-37,-208,-78,32,-55,-96,-370,143,68,25,-105,-319,-164,91,104,-121,-2,-97,112,482,123,72,-211,36,-159,-32,-429
120357,-267,-161,-176,-405,-365,-34,-242,-75,33,-56,-112,-342,158,85,6,-92,-348,-154,100,113,-121,-7,-57,122,489,135,45,-155,68,-141,-11,-410
120358,-292,-191,-205,-407,-371,-52,-263,-86,37,-58,-131,-326,161,92,-1,-251,-399,-113,106,125,-122,-62,-16,155,500,135,64,-155,31,-142,-23,-407
120359,-315,-194,-193,-400,-355,-43,-254,-90,58,-58,-121,-331,166,78,31,-296,-417,-121,114,134,-140,-191,-106,118,520,159,157,-215,-5,-170,-24,-415
120360,-348,-211,-224,-418,-353,-48,-261,-119,43,-65,-126,-393,157,82,23,-135,-296,-162,136,132,-121,-298,-125,101,523,159,203,-129,40,-146,-19,-476
120361,-366,-232,-245,-429,-376,-56,-281,-138,28,-53,-144,-468,155,75,9,-77,-183,-162,115,117,-140,-239,-99,108,520,143,180,-148,57,-133,-7,-564
120362,-333,-198,-224,-420,-360,-49,-266,-143,42,-55,-129,-453,164,81,11,-89,-146,-135,112,116,-156,-128,-94,99,508,134,94,-234,-23,-194,-48,-564
120363,-338,-168,-244,-416,-350,-38,-239,-123,52,-42,-115,-417,160,95,6,-78,-184,-145,106,131,-174,-13,-151,84,504,116,-14,-375,-144,-259,-100,-489
120364,-365,-208,-265,-432,-379,-56,-279,-136,43,-58,-155,-404,155,74,-13,-144,-202,-152,114,116,-215,-65,-156,86,512,63,-109,-338,-66,-218,-87,-439
120365,-394,-252,-271,-453,-379,-61,-318,-146,22,-76,-185,-405,129,74,-54,-290,-241,-175,108,91,-259,-107,-169,65,478,40,-157,-374,-101,-245,-116,-491
120366,-415,-240,-291,-468,-379,-62,-330,-162,22,-53,-198,-431,120,96,-45,-336,-254,-196,97,99,-268,-98,-178,56,451,18,-163,-373,-132,-258,-101,-469
120367,-426,-233,-345,-458,-383,-38,-312,-202,24,-52,-189,-461,130,104,-44,-302,-286,-201,81,87,-304,-142,-182,49,441,-7,-163,-295,-87,-249,-137,-484
120368,-418,-224,-365,-465,-369,-44,-323,-215,42,-46,-185,-514,127,100,-52,-289,-277,-191,84,71,-323,-318,-152,59,429,-17,-182,-163,-50,-254,-176,-561
120369,-436,-242,-377,-479,-371,-50,-358,-203,42,-50,-211,-620,126,81,-65,-271,-236,-157,72,43,-334,-425,-91,67,398,-33,-212,30,1,-258,-166,-585
120370,-439,-256,-390,-475,-375,-47,-359,-203,22,-35,-208,-601,110,68,-65,-300,-270,-143,70,30,-322,-205,-29,65,394,-45,-206,56,60,-208,-119,-567
120371,-432,-264,-400,-492,-361,-58,-378,-237,15,-44,-227,-534,94,62,-85,-395,-398,-211,36,14,-326,-104,-117,40,362,-32,-212,-192,-13,-225,-133,-549
120372,-472,-259,-424,-512,-371,-64,-389,-271,12,-52,-241,-462,54,46,-97,-577,-323,-264,15,-12,-331,-152,-204,-9,344,-45,-210,-491,-92,-258,-153,-573
120373,-498,-281,-437,-524,-389,-77,-384,-278,-4,-74,-256,-466,43,19,-105,-556,-429,-261,6,-21,-338,-251,-230,-11,333,-80,-217,-490,-75,-277,-187,-640
120374,-449,-259,-386,-519,-370,-54,-341,-250,3,-59,-225,-446,67,42,-102,-357,-419,-238,14,-11,-307,-254,-243,-8,343,-63,-192,-535,-150,-331,-221,-634
120375,-417,-228,-368,-489,-367,-50,-345,-250,6,-41,-213,-461,70,41,-121,-282,-382,-247,13,-11,-325,-226,-290,-2,350,-39,-164,-582,-196,-349,-206,-595
120376,-397,-222,-359,-473,-357,-37,-398,-232,21,-48,-253,-435,83,23,-126,-281,-333,-233,18,-11,-378,-227,-265,20,362,-37,-175,-492,-129,-331,-187,-589
120377,-394,-246,-360,-469,-355,-44,-385,-228,13,-61,-247,-472,75,15,-128,-276,-327,-251,12,-31,-404,-286,-277,1,347,-63,-170,-517,-153,-344,-223,-628
120378,-375,-230,-345,-456,-341,-56,-364,-226,31,-57,-230,-463,82,17,-126,-304,-379,-245,21,-40,-385,-357,-248,20,341,-25,-157,-426,-88,-302,-172,-610
120379,-350,-209,-326,-426,-326,-37,-342,-191,56,-48,-221,-434,109,17,-112,-293,-399,-245,53,-29,-354,-331,-276,36,358,-15,-137,-454,-101,-289,-177,-563
120380,-324,-201,-297,-414,-326,-52,-368,-167,48,-64,-233,-427,119,11,-122,-395,-362,-228,36,-32,-360,-232,-287,17,372,-47,-153,-538,-161,-315,-182,-583
120381,-356,-245,-311,-417,-340,-67,-400,-168,40,-78,-264,-442,121,1,-146,-516,-371,-204,28,-29,-382,-228,-232,27,351,-51,-177,-461,-119,-309,-188,-619
120382,-386,-288,-343,-434,-358,-76,-429,-169,52,-79,-258,-515,106,27,-139,-669,-489,-206,46,-38,-389,-316,-217,27,354,-50,-191,-389,-87,-307,-203,-652
120383,-384,-289,-326,-431,-359,-78,-432,-165,58,-70,-254,-479,101,47,-120,-782,-472,-217,43,-26,-404,-386,-239,14,368,-53,-203,-298,-62,-266,-188,-650
120384,-401,-292,-332,-438,-361,-110,-437,-178,42,-89,-278,-465,89,29,-140,-663,-483,-224,18,-42,-439,-327,-266,17,334,-91,-237,-302,-76,-281,-192,-650
120385,-382,-314,-322,-433,-354,-106,-430,-175,57,-87,-265,-468,101,30,-137,-460,-539,-231,36,-29,-424,-300,-266,15,344,-94,-217,-341,-64,-294,-183,-664
120386,-395,-333,-318,-429,-340,-89,-431,-154,56,-57,-249,-474,97,49,-114,-318,-522,-232,53,-3,-378,-382,-246,25,358,-44,-155,-296,-42,-262,-169,-650
120387,-395,-323,-319,-430,-347,-76,-446,-165,56,-46,-255,-495,97,51,-104,-272,-438,-252,43,-3,-344,-325,-278,25,363,-30,-137,-383,-99,-263,-146,-638
120388,-374,-310,-307,-428,-360,-89,-437,-185,44,-55,-231,-533,78,31,-112,-250,-428,-298,24,-13,-332,-244,-334,-10,354,-45,-108,-568,-178,-305,-184,-638
120389,-341,-282,-286,-399,-346,-73,-413,-157,42,-55,-232,-497,93,37,-122,-217,-409,-280,15,-10,-345,-309,-341,-32,322,-56,-152,-644,-222,-351,-214,-604
120390,-357,-284,-282,-398,-350,-79,-419,-152,42,-64,-265,-470,91,27,-127,-267,-341,-293,-8,-23,-368,-328,-318,-10,334,-65,-205,-539,-191,-334,-174,-589
120391,-351,-288,-281,-400,-342,-90,-436,-155,40,-55,-266,-453,97,16,-149,-324,-408,-264,19,-33,-412,-266,-268,18,333,-90,-154,-390,-116,-303,-165,-601
120392,-328,-266,-263,-385,-325,-46,-410,-137,49,-42,-252,-406,134,65,-120,-316,-414,-200,52,-9,-403,-219,-187,80,368,-43,-69,-214,17,-229,-114,-601
120393,-331,-271,-289,-404,-340,-47,-420,-148,66,-53,-269,-424,137,82,-112,-330,-304,-175,64,-1,-369,-232,-95,118,397,3,49,-110,113,-139,-64,-572
120394,-340,-266,-283,-395,-342,-57,-412,-144,51,-61,-269,-444,140,62,-137,-413,-212,-160,79,0,-367,-271,-30,113,388,-23,85,-180,107,-147,-73,-682
120395,-325,-245,-281,-408,-340,-67,-377,-146,37,-65,-240,-432,119,64,-120,-497,-243,-189,62,-2,-363,-227,-77,81,377,-37,-26,-274,35,-205,-87,-564
120396,-336,-252,-327,-447,-365,-51,-343,-149,20,-70,-231,-452,99,43,-122,-480,-265,-229,32,-25,-367,-202,-153,58,352,-60,-93,-325,-23,-238,-113,-511
120397,-329,-214,-338,-432,-347,-24,-322,-121,24,-62,-180,-437,122,39,-104,-364,-195,-217,49,-13,-325,-227,-159,44,340,-24,-10,-274,-28,-236,-125,-522
120398,-316,-155,-309,-442,-344,-16,-276,-160,17,-39,-163,-425,101,45,-73,-274,-241,-209,31,-18,-293,-358,-133,32,348,-34,-38,-407,-112,-275,-167,-477
120399,-333,-186,-311,-438,-358,-22,-300,-201,-5,-63,-179,-418,74,11,-100,-258,-238,-197,6,-44,-306,-369,-78,35,347,-78,-92,-365,-79,-277,-153,-552
120400,-326,-179,-308,-439,-354,-1,-298,-206,-4,-65,-188,-463,88,35,-113,-266,-234,-157,23,-40,-305,-152,-57,60,347,-64,-170,-136,12,-241,-128,-548
120401,-290,-143,-265,-425,-330,17,-242,-193,38,-40,-156,-472,96,45,-97,-257,-245,-171,35,-21,-267,-122,-163,65,355,-55,-153,-160,-15,-250,-168,-568
120402,-284,-157,-258,-426,-320,5,-237,-186,35,-58,-141,-492,77,22,-107,-272,-257,-243,7,-38,-281,-155,-265,27,329,-55,-169,-406,-115,-322,-222,-596
120403,-300,-182,-247,-421,-336,0,-286,-170,33,-61,-148,-579,116,43,-80,-278,-271,-205,37,-18,-273,-158,-243,50,355,-47,-159,-418,-92,-287,-175,-494
120404,-311,-201,-225,-408,-354,-15,-289,-153,42,-67,-148,-562,146,53,-79,-403,-280,-157,63,-7,-289,-215,-164,75,385,-43,-160,-330,-55,-274,-156,-517
120405,-280,-189,-213,-413,-349,-11,-289,-153,45,-66,-147,-464,159,59,-82,-575,-255,-162,61,-7,-328,-146,-193,61,382,-65,-173,-410,-168,-348,-205,-604
120406,-280,-171,-238,-412,-356,7,-262,-171,41,-67,-118,-414,133,55,-58,-779,-261,-229,55,19,-281,-151,-253,46,364,-36,-151,-484,-188,-346,-202,-567
120407,-285,-161,-229,-422,-350,2,-248,-151,60,-79,-115,-373,141,58,-43,-706,-301,-210,59,20,-274,-251,-219,38,357,-28,-142,-403,-151,-336,-215,-572
120408,-256,-156,-187,-371,-338,-7,-249,-112,78,-76,-126,-317,174,69,-48,-386,-361,-164,97,32,-266,-255,-175,85,388,-15,-88,-286,-81,-312,-191,-578
120409,-258,-168,-174,-346,-330,-16,-265,-87,96,-80,-149,-302,209,73,-76,-241,-230,-126,128,47,-260,-233,-152,126,421,5,-75,-284,-52,-248,-134,-503
120410,-227,-160,-142,-331,-319,-15,-251,-62,111,-77,-148,-316,215,87,-68,-298,-172,-121,112,54,-278,-127,-153,105,429,16,-148,-361,-104,-269,-155,-495
120411,-210,-174,-133,-309,-344,-41,-232,-52,111,-86,-154,-338,205,94,-72,-288,-164,-118,117,58,-283,-118,-130,107,421,22,-153,-277,-81,-266,-124,-533
120412,-234,-203,-138,-309,-351,-55,-284,-46,100,-108,-181,-351,218,93,-73,-235,-191,-121,128,46,-279,-202,-62,138,434,29,-121,-58,21,-215,-105,-519
120413,-211,-173,-123,-308,-344,-45,-271,-43,113,-102,-174,-340,211,80,-72,-244,-204,-137,123,62,-245,-199,-99,122,429,27,-103,-150,-28,-235,-130,-502
120414,-182,-135,-102,-285,-334,-65,-262,-19,115,-91,-175,-300,207,73,-53,-109,-212,-163,104,54,-233,-132,-184,70,398,2,-121,-522,-158,-324,-183,-500
120415,-194,-162,-117,-284,-330,-74,-300,-43,113,-102,-205,-290,220,83,-47,-31,-206,-148,103,59,-226,-167,-155,72,399,0,-111,-435,-112,-295,-176,-508
120416,-193,-178,-149,-306,-327,-79,-312,-57,120,-97,-192,-322,211,78,-57,-74,-153,-131,108,54,-241,-172,-108,74,409,22,-144,-221,-30,-254,-155,-537
120417,-197,-193,-142,-300,-330,-76,-299,-68,115,-102,-203,-337,182,57,-68,-126,-88,-149,64,27,-284,-143,-159,49,356,-6,-144,-322,-94,-297,-186,-534
120418,-204,-208,-178,-303,-329,-59,-323,-98,109,-96,-219,-358,168,45,-85,-183,-234,-186,49,5,-322,-142,-210,17,316,-46,-152,-438,-186,-399,-247,-575
120419,-252,-219,-205,-331,-344,-86,-350,-119,99,-76,-231,-392,172,52,-96,-273,-335,-195,44,-2,-377,-191,-196,16,323,-72,-202,-403,-207,-433,-289,-641
120420,-266,-238,-208,-354,-344,-82,-399,-137,108,-75,-239,-397,160,83,-94,-315,-318,-187,68,0,-374,-239,-149,50,332,-83,-195,-281,-106,-366,-250,-646
120421,-289,-279,-268,-386,-358,-103,-445,-175,75,-102,-291,-422,148,63,-119,-347,-329,-213,43,-24,-398,-290,-180,25,295,-121,-215,-295,-137,-386,-253,-674
120422,-294,-276,-276,-392,-364,-110,-420,-186,70,-93,-284,-433,110,48,-129,-360,-353,-219,15,-29,-421,-335,-235,-5,285,-133,-232,-387,-218,-422,-297,-675
120423,-277,-267,-264,-358,-341,-89,-400,-188,68,-79,-244,-403,114,47,-109,-352,-336,-200,31,-30,-397,-351,-215,0,289,-119,-189,-324,-158,-416,-304,-713
120424,-260,-220,-265,-362,-335,-56,-349,-177,51,-83,-198,-416,113,23,-78,-308,-335,-208,14,-14,-344,-338,-185,13,279,-109,-133,-329,-152,-428,-303,-734
120425,-260,-211,-264,-372,-321,-36,-300,-177,66,-67,-160,-439,115,22,-59,-287,-248,-208,5,-20,-316,-294,-178,26,293,-99,-119,-383,-184,-434,-288,-658
120426,-248,-210,-241,-345,-301,-28,-273,-163,88,-33,-143,-423,114,45,-40,-292,-263,-192,10,5,-302,-243,-226,9,316,-93,-113,-513,-226,-413,-261,-666
120427,-251,-200,-246,-347,-309,-22,-287,-147,87,-48,-155,-411,135,45,-31,-290,-297,-167,46,15,-274,-323,-212,50,345,-61,-152,-423,-160,-356,-230,-646
120428,-281,-213,-267,-376,-335,-41,-302,-173,71,-50,-159,-441,123,38,-28,-289,-380,-168,27,16,-271,-364,-205,39,338,-53,-212,-466,-171,-371,-241,-694
120429,-318,-260,-288,-406,-360,-50,-328,-207,46,-57,-175,-477,83,21,-60,-346,-388,-214,0,-7,-282,-428,-258,-5,305,-76,-262,-526,-218,-410,-283,-740
120430,-336,-247,-314,-392,-349,-49,-331,-209,61,-54,-175,-489,99,53,-36,-491,-383,-246,18,15,-290,-566,-292,-10,318,-64,-249,-410,-164,-371,-243,-728
120431,-356,-265,-348,-392,-351,-69,-364,-207,71,-66,-192,-533,71,49,-28,-688,-439,-283,5,4,-308,-457,-348,-42,312,-89,-262,-391,-151,-375,-235,-720
120432,-360,-284,-377,-418,-362,-94,-404,-203,45,-68,-212,-548,69,29,-42,-675,-496,-312,-18,0,-299,-280,-395,-67,291,-88,-252,-567,-252,-437,-295,-764
120433,-386,-289,-363,-392,-344,-93,-403,-179,53,-64,-204,-514,80,54,-38,-723,-502,-301,-26,14,-317,-280,-388,-79,293,-102,-230,-769,-299,-474,-318,-748
120434,-389,-300,-357,-397,-344,-70,-376,-188,70,-57,-185,-513,91,54,-28,-911,-511,-281,-4,15,-365,-260,-373,-70,301,-87,-195,-621,-240,-410,-279,-740
120435,-397,-267,-356,-404,-350,-71,-361,-201,56,-54,-173,-600,90,46,-3,-566,-461,-274,-4,21,-335,-266,-364,-61,301,-56,-179,-458,-209,-395,-262,-721
120436,-383,-298,-346,-413,-346,-61,-351,-171,56,-61,-182,-653,95,51,-39,-89,-450,-283,-12,23,-306,-302,-378,-72,310,-47,-145,-533,-216,-379,-234,-663
120437,-373,-298,-342,-407,-344,-60,-351,-166,62,-33,-213,-585,76,63,-48,-3,-408,-275,4,21,-314,-319,-360,-66,322,-46,-156,-497,-204,-372,-226,-619
120438,-381,-282,-361,-389,-349,-65,-370,-174,58,-40,-208,-462,74,64,-37,-147,-290,-249,9,12,-339,-322,-295,-51,327,-40,-215,-364,-155,-342,-205,-567
120439,-383,-269,-328,-372,-335,-39,-375,-144,64,-42,-197,-422,105,44,-36,-298,-275,-220,5,0,-327,-228,-269,-51,329,-45,-237,-486,-217,-371,-227,-641
120440,-349,-244,-277,-355,-315,-27,-343,-122,53,-42,-183,-414,106,16,-37,-313,-293,-206,-4,2,-315,-197,-264,-74,301,-60,-234,-689,-277,-404,-256,-655
120441,-334,-212,-264,-343,-305,-15,-329,-114,54,-35,-180,-372,110,22,-23,-239,-252,-204,-5,0,-311,-287,-211,-40,312,-50,-233,-541,-177,-341,-206,-575
120442,-313,-221,-272,-340,-315,-27,-331,-132,50,-43,-187,-395,107,2,-56,-220,-352,-220,-4,-7,-339,-315,-270,-50,310,-74,-252,-405,-144,-332,-201,-639
120443,-310,-210,-251,-326,-307,-31,-338,-129,60,-24,-201,-374,114,12,-65,-225,-335,-210,17,-8,-359,-245,-234,-27,319,-76,-238,-299,-125,-354,-228,-658
120444,-329,-214,-272,-332,-318,-36,-345,-111,60,-24,-216,-392,122,18,-73,-257,-307,-219,23,-11,-345,-294,-220,-12,323,-72,-185,-213,-90,-324,-198,-602
120445,-344,-251,-302,-353,-363,-35,-369,-104,49,-71,-219,-430,132,16,-70,-423,-315,-221,4,-15,-349,-298,-215,-17,300,-93,-166,-264,-57,-319,-216,-601
120446,-339,-250,-275,-362,-341,-47,-353,-115,53,-55,-198,-413,146,34,-55,-456,-320,-211,23,-15,-351,-178,-213,-14,324,-55,-95,-372,-97,-309,-205,-592
120447,-335,-251,-249,-374,-341,-55,-331,-131,55,-50,-202,-446,131,58,-79,-397,-301,-247,25,-2,-326,-288,-288,-39,301,-67,-56,-547,-188,-376,-245,-640
120448,-339,-277,-254,-374,-348,-44,-341,-135,60,-52,-211,-494,98,56,-68,-321,-318,-280,-7,-14,-327,-466,-353,-61,286,-112,-134,-552,-218,-425,-301,-612
120449,-338,-287,-252,-366,-332,-50,-361,-143,62,-32,-205,-480,107,81,-58,-276,-328,-267,0,1,-353,-342,-343,-38,299,-120,-216,-477,-185,-383,-272,-595
120450,-330,-288,-279,-382,-344,-65,-345,-162,45,-41,-188,-486,83,68,-64,-314,-294,-270,-1,4,-356,-198,-310,-41,315,-114,-237,-391,-111,-350,-241,-576
120451,-311,-259,-249,-365,-321,-39,-341,-140,55,-23,-194,-448,92,76,-47,-312,-358,-244,14,20,-303,-189,-279,-29,337,-86,-187,-384,-93,-319,-233,-547
120452,-286,-257,-250,-362,-329,-48,-328,-110,45,-31,-211,-402,113,84,-51,-327,-450,-237,7,8,-328,-170,-264,-11,327,-99,-159,-342,-81,-307,-244,-586
120453,-290,-257,-250,-369,-343,-48,-341,-98,23,-48,-214,-406,104,60,-59,-316,-492,-256,-7,-16,-340,-185,-272,-29,312,-112,-175,-421,-151,-367,-279,-601
120454,-304,-245,-223,-390,-356,-44,-341,-139,5,-51,-213,-434,78,37,-76,-276,-419,-287,-24,-28,-330,-184,-308,-40,303,-114,-133,-527,-201,-393,-288,-585
120455,-279,-222,-189,-400,-361,-31,-321,-151,28,-42,-188,-446,89,57,-54,-263,-328,-273,-11,-6,-298,-156,-281,-15,310,-84,-32,-476,-179,-376,-274,-571
120456,-291,-219,-187,-392,-357,-23,-309,-138,35,-43,-170,-451,90,71,-44,-305,-247,-257,8,5,-270,-168,-232,3,339,-72,-35,-361,-138,-336,-273,-594
120457,-308,-242,-186,-390,-362,-42,-296,-139,18,-53,-184,-446,98,69,-68,-485,-214,-256,17,4,-270,-221,-226,2,336,-76,-88,-282,-76,-329,-239,-577
120458,-258,-231,-186,-398,-352,-42,-290,-142,26,-54,-171,-441,86,66,-49,-596,-171,-267,11,3,-244,-185,-265,-6,343,-75,-116,-285,-97,-333,-236,-589
120459,-247,-223,-187,-394,-344,-28,-315,-155,22,-68,-170,-461,71,53,-43,-435,-274,-282,-3,-1,-217,-149,-283,-28,344,-46,-94,-447,-148,-331,-236,-609
120460,-254,-230,-193,-386,-333,-39,-311,-175,36,-57,-185,-459,64,60,-53,-250,-331,-269,10,7,-258,-282,-280,-19,365,-39,-100,-503,-119,-298,-220,-635
120461,-257,-207,-212,-390,-333,-23,-287,-173,41,-53,-180,-437,67,69,-79,-165,-380,-279,19,0,-302,-324,-261,12,386,-44,-99,-447,-90,-288,-215,-617
120462,-269,-224,-232,-410,-334,-30,-292,-197,27,-44,-187,-490,35,55,-93,-155,-328,-313,7,-16,-330,-238,-329,-13,367,-66,-112,-459,-122,-317,-225,-601
120463,-301,-246,-275,-429,-343,-26,-316,-229,33,-74,-210,-529,27,50,-87,-349,-301,-316,0,-15,-341,-187,-300,-14,365,-79,-125,-371,-94,-330,-231,-606
120464,-314,-269,-274,-409,-337,-32,-333,-218,47,-43,-215,-528,56,61,-69,-500,-300,-301,14,-17,-348,-217,-242,2,372,-73,-179,-199,-4,-278,-199,-602
120465,-347,-267,-286,-442,-357,-45,-341,-222,38,-47,-195,-537,48,52,-85,-341,-391,-317,-13,-22,-339,-288,-293,-14,316,-107,-234,-230,-51,-323,-243,-648
120466,-355,-265,-300,-462,-345,-34,-358,-208,36,-56,-211,-532,58,63,-70,-233,-404,-308,-17,-17,-348,-315,-283,-24,306,-107,-190,-310,-81,-339,-249,-641
120467,-381,-301,-320,-439,-359,-24,-372,-189,38,-53,-252,-526,70,62,-95,-294,-318,-288,-16,-32,-357,-307,-294,-27,313,-119,-176,-417,-141,-362,-258,-642
120468,-360,-311,-277,-415,-349,-55,-383,-186,48,-57,-259,-518,79,44,-110,-527,-460,-286,-11,-58,-379,-337,-296,-26,279,-122,-227,-390,-142,-375,-284,-712
120469,-369,-303,-271,-420,-361,-61,-388,-176,49,-46,-255,-503,87,43,-111,-682,-449,-265,-19,-51,-394,-285,-223,1,284,-139,-281,-182,-74,-323,-245,-724
120470,-341,-285,-263,-386,-352,-33,-360,-169,73,-28,-211,-476,94,50,-76,-732,-389,-251,-17,-41,-398,-246,-237,-8,295,-121,-291,-339,-125,-330,-235,-676
120471,-341,-269,-265,-401,-334,-22,-323,-187,59,-30,-181,-519,73,47,-60,-476,-443,-320,-35,-43,-359,-218,-373,-69,278,-129,-294,-640,-232,-396,-276,-700
120472,-355,-256,-251,-403,-312,-46,-305,-185,56,-35,-205,-617,80,50,-85,-152,-397,-326,-44,-62,-379,-233,-393,-81,252,-148,-287,-705,-266,-442,-319,-736
120473,-365,-281,-243,-405,-324,-52,-339,-173,64,-53,-227,-705,93,43,-128,-71,-366,-267,-16,-57,-404,-278,-283,-39,255,-166,-279,-506,-186,-394,-284,-759
120474,-329,-291,-263,-391,-354,-56,-335,-169,64,-56,-215,-649,99,46,-99,-154,-447,-276,-15,-53,-383,-302,-284,-42,279,-120,-272,-452,-156,-386,-256,-688
120475,-314,-282,-257,-384,-345,-34,-317,-161,58,-38,-203,-537,100,58,-73,-211,-482,-311,-9,-15,-341,-266,-355,-44,292,-80,-210,-520,-190,-392,-254,-664
120476,-291,-260,-216,-376,-340,-37,-286,-129,46,-49,-188,-432,101,75,-63,-211,-447,-298,0,-2,-317,-174,-350,-38,312,-37,-158,-586,-199,-353,-217,-647
120477,-290,-238,-196,-356,-326,-15,-251,-99,56,-54,-168,-395,125,62,-44,-185,-394,-246,22,29,-273,-107,-289,-15,337,-15,-114,-489,-144,-317,-162,-591
120478,-268,-219,-194,-342,-319,-10,-246,-73,89,-32,-157,-385,163,83,-18,-187,-323,-224,47,62,-234,-85,-236,38,370,7,-88,-349,-73,-271,-125,-509
120479,-259,-198,-192,-325,-343,-21,-268,-83,86,-44,-170,-410,145,81,-32,-181,-322,-200,30,55,-235,-100,-233,35,358,16,-53,-397,-99,-281,-139,-554
120480,-267,-204,-212,-338,-341,-21,-283,-72,52,-56,-184,-388,146,60,-43,-188,-249,-202,16,17,-250,-101,-208,13,346,10,-25,-463,-134,-325,-171,-636
120481,-267,-205,-211,-351,-330,-56,-297,-83,50,-64,-190,-380,151,53,-38,-217,-278,-173,22,13,-281,-130,-157,31,335,-9,-105,-402,-98,-307,-158,-626
120482,-262,-207,-168,-331,-317,-27,-264,-59,87,-39,-169,-368,176,76,-5,-293,-283,-141,65,56,-242,-166,-134,87,386,41,-85,-267,5,-232,-102,-528
120483,-271,-208,-163,-334,-326,-20,-244,-65,68,-34,-157,-390,157,74,-4,-395,-300,-199,51,48,-252,-204,-221,66,365,40,-110,-334,-66,-256,-134,-564
120484,-291,-216,-190,-374,-358,-26,-227,-109,52,-35,-133,-412,134,70,-7,-380,-326,-231,37,51,-245,-121,-268,43,350,8,-124,-386,-84,-267,-152,-557
120485,-293,-224,-184,-387,-361,-35,-312,-106,45,-41,-155,-416,146,72,-8,-385,-282,-211,50,55,-245,-130,-210,58,380,10,-87,-215,24,-207,-99,-516
120486,-305,-239,-225,-387,-358,-30,-278,-117,39,-41,-132,-417,145,69,-9,-318,-348,-194,40,47,-245,-313,-193,64,367,1,-98,-163,52,-197,-106,-520
120487,-330,-229,-256,-401,-353,-23,-252,-137,46,-36,-139,-434,104,57,-12,-280,-400,-249,24,28,-239,-350,-253,19,342,-23,-110,-412,-66,-285,-152,-561
120488,-305,-222,-258,-398,-340,-23,-269,-135,52,-27,-146,-426,114,56,-12,-270,-348,-262,24,32,-223,-79,-251,32,357,-17,-120,-497,-83,-290,-148,-576
120489,-280,-246,-266,-405,-319,7,-283,-138,61,0,-131,-450,121,86,-4,-208,-362,-221,44,38,-230,-53,-248,42,366,-4,-135,-437,-93,-287,-132,-608
120490,-306,-263,-281,-410,-337,4,-271,-153,37,1,-129,-462,106,88,-10,-187,-411,-219,45,41,-304,-135,-245,22,356,-7,-137,-366,-68,-292,-139,-650
