,Fp1,Fp2,F7,F3,Fz,F4,F8,FC5,FC1,FC2,FC6,T7,C3,Cz,C4,T8,TP9,CP5,CP1,CP2,CP6,TP10,P7,P3,Pz,P4,P8,PO9,O1,Oz,O2,PO10
184012,-140,-131,279,20,7,264,176,205,129,33,111,-445,204,51,146,71,120,-49,244,138,-23,332,292,184,262,240,340,200,290,-119,-3,195
184013,-118,-89,313,54,37,306,227,244,155,66,148,-418,257,67,159,113,161,-42,265,168,2,412,316,202,289,275,354,161,300,-83,55,210
184014,-139,-81,297,47,24,291,227,232,150,59,129,-425,256,52,157,100,168,-27,272,144,-11,346,298,182,288,253,359,64,300,-34,87,246
184015,-161,-81,262,49,21,280,231,216,138,36,130,-433,241,58,149,74,153,-14,262,140,-30,303,309,208,265,223,340,80,301,-69,64,225
184016,-151,-81,270,48,17,281,231,224,159,48,129,-404,255,76,171,74,133,8,279,145,-16,382,318,222,290,248,374,97,336,-32,120,254
184017,-132,-93,295,41,2,298,236,228,176,51,139,-402,272,81,184,119,123,-2,280,146,18,478,265,202,297,267,420,84,330,5,168,370
184018,-146,-119,297,37,-8,272,239,219,147,34,146,-416,251,61,161,102,117,-27,268,127,-23,387,221,181,248,217,344,49,247,-102,41,273
184019,-150,-106,291,20,8,277,242,202,146,43,150,-432,254,57,163,97,105,-22,275,145,-32,331,231,208,269,230,358,120,283,-53,91,279
184020,-126,-104,267,6,-7,289,250,197,137,37,140,-434,258,75,161,105,108,-30,284,122,-15,461,246,213,268,243,399,159,330,-12,123,320
184021,-160,-135,248,4,-1,285,218,181,148,42,118,-429,254,76,164,136,100,-21,281,135,-2,485,253,227,280,244,427,164,348,-1,112,349
184022,-162,-142,266,13,-5,275,184,209,162,45,127,-438,267,75,162,134,60,-5,300,148,29,412,265,233,307,280,449,176,374,40,208,443
184023,-122,-119,276,8,8,271,185,206,127,41,114,-444,270,89,173,158,33,-4,302,154,53,476,280,263,329,305,489,259,443,107,278,526
184024,-131,-120,256,9,0,246,165,180,129,26,107,-464,256,71,157,149,22,-9,309,163,41,364,249,250,322,317,487,272,472,130,300,633
184025,-135,-99,294,20,7,262,188,217,158,27,96,-431,277,87,166,95,89,0,335,191,41,92,300,280,360,343,458,351,548,222,368,605
184026,-103,-74,299,19,-2,255,190,225,147,35,95,-439,262,61,143,78,84,-35,289,155,-7,151,214,219,285,256,338,111,306,-16,104,253
184027,-82,-68,309,47,4,251,202,246,145,26,102,-428,255,57,130,123,70,-38,278,140,0,320,182,164,255,236,327,-60,161,-200,-23,120
184028,-77,-82,311,59,7,241,214,267,162,12,92,-418,258,84,125,117,71,-32,280,137,-19,366,215,182,257,213,314,53,213,-212,-97,-19
184029,-64,-70,292,59,-1,251,221,262,150,2,90,-421,273,77,137,120,51,-54,262,125,-27,375,175,166,252,187,296,5,185,-200,-97,-26
184030,-67,-80,322,78,17,263,207,273,164,17,99,-400,287,85,143,113,47,-24,295,130,-27,245,176,158,258,200,287,-11,186,-186,-56,52
184031,-64,-80,336,86,19,272,208,278,169,34,107,-385,292,84,156,112,33,4,309,149,-23,185,178,168,280,231,297,55,208,-151,-51,63
184032,-50,-88,336,111,18,262,200,292,198,45,112,-403,303,99,165,117,29,16,310,172,-4,185,189,206,319,256,342,110,295,-64,31,222
184033,-81,-114,320,85,8,223,165,277,184,39,96,-426,296,87,157,83,-19,9,315,168,-15,158,196,210,314,276,339,106,331,18,131,294
184034,-97,-132,292,69,-3,216,141,286,172,20,79,-439,292,88,135,48,-24,-12,308,151,-33,146,204,188,285,238,284,104,325,-37,41,146
184035,-107,-138,268,65,1,213,118,289,183,25,63,-432,291,93,131,25,-18,-23,306,147,-71,118,222,203,265,203,243,113,320,-61,-12,44
184036,-93,-106,265,82,16,236,147,286,190,28,80,-418,282,96,127,32,-6,-28,297,154,-61,154,219,180,272,216,223,130,331,-80,-22,-6
184037,-83,-85,263,68,8,255,180,274,153,31,73,-428,251,75,125,24,3,-50,259,118,-70,168,187,156,265,188,204,146,255,-155,-97,-10
184038,-82,-113,248,63,-2,254,180,241,142,14,72,-443,228,52,121,18,-4,-83,248,103,-87,226,136,118,218,151,188,22,191,-212,-149,-40
184039,-103,-93,241,63,8,261,170,231,147,14,90,-475,218,60,128,47,25,-102,254,133,-56,284,115,105,223,165,235,-61,158,-232,-119,51
184040,-125,-89,226,50,-21,238,150,217,141,10,91,-508,212,71,141,49,2,-117,243,120,-64,300,129,122,246,170,249,-44,204,-184,-65,91
184041,-91,-71,265,58,-8,260,164,248,155,32,94,-459,255,82,149,51,-2,-49,282,123,-75,260,202,182,258,201,245,61,278,-105,-6,111
184042,-86,-104,287,56,-2,241,157,258,148,17,65,-430,274,78,117,21,5,-40,284,123,-85,113,230,204,258,192,229,87,279,-108,2,137
184043,-80,-113,283,61,0,241,123,261,174,13,61,-414,278,85,102,-23,-1,-27,294,127,-101,25,252,224,273,178,229,135,349,-61,39,170
184044,-78,-125,273,55,-8,217,89,239,139,2,34,-467,252,43,79,-50,-21,-68,259,96,-135,-28,215,196,244,145,191,84,309,-96,30,204
184045,-72,-103,270,59,22,239,119,219,156,-6,45,-487,225,37,56,-55,-9,-99,227,60,-158,55,146,134,194,114,121,-21,205,-212,-100,-25
184046,-72,-77,297,79,40,246,144,221,163,20,58,-485,233,43,57,-79,12,-114,237,55,-159,95,133,127,179,111,140,-8,201,-209,-92,-62
184047,-83,-80,268,70,31,252,153,210,126,6,66,-515,216,44,57,-85,-11,-130,226,61,-166,61,106,114,183,104,143,-41,194,-200,-80,10
184048,-134,-124,237,53,-1,225,103,207,117,-16,23,-513,202,36,41,-60,-13,-123,220,57,-182,88,139,129,188,110,143,-5,249,-141,-27,117
184049,-126,-142,274,50,2,220,103,232,129,-5,16,-522,207,49,51,-36,-10,-101,245,78,-162,103,163,159,214,138,163,54,309,-84,30,204
184050,-97,-111,291,57,2,226,145,235,124,-2,30,-497,201,41,72,-23,-17,-121,237,76,-133,114,192,161,218,131,163,110,349,-79,13,145
184051,-108,-103,273,43,0,246,171,214,117,-2,56,-515,181,48,65,-2,-4,-129,217,69,-125,151,195,158,212,131,156,131,348,-81,-46,65
184052,-116,-88,265,45,5,267,203,215,125,6,78,-510,184,48,64,-14,-3,-133,211,82,-137,211,172,159,207,136,176,122,320,-72,-19,36
184053,-95,-82,259,45,7,270,191,203,138,11,80,-521,185,55,73,-3,-30,-136,220,82,-143,264,172,160,220,136,197,112,353,-73,7,65
184054,-119,-116,219,21,-9,242,157,171,122,10,67,-556,164,36,74,-25,-73,-141,208,70,-146,198,150,135,202,130,193,138,376,-36,37,131
184055,-167,-149,148,-2,-28,247,141,153,125,9,74,-565,138,32,75,-18,-84,-136,206,67,-129,207,131,145,208,135,228,193,412,47,104,162
184056,-190,-146,157,9,-30,235,165,149,130,7,65,-579,132,21,51,-51,-98,-152,192,59,-146,135,113,123,202,120,183,171,404,32,90,123
184057,-166,-143,188,31,1,243,165,194,130,9,77,-555,158,35,59,-78,-81,-171,185,72,-173,-23,82,97,198,110,156,38,320,-40,24,158
184058,-159,-155,218,37,-32,242,159,186,118,2,76,-566,150,6,39,-82,-78,-196,147,33,-191,-5,30,48,144,71,139,-76,152,-225,-95,83
184059,-139,-137,237,58,-3,254,209,204,125,30,101,-549,169,20,65,-16,-85,-182,158,45,-160,137,65,33,142,84,174,-67,114,-267,-96,72
184060,-156,-161,238,32,0,243,194,178,127,18,106,-551,173,32,56,-14,-115,-163,180,37,-153,201,111,86,169,104,195,94,269,-107,2,108
184061,-159,-153,247,37,-3,263,165,163,135,14,105,-535,166,45,75,-2,-132,-162,185,55,-129,266,138,99,171,127,250,162,336,-72,32,207
184062,-176,-172,217,30,14,253,140,149,124,19,84,-528,171,33,73,-17,-114,-140,205,67,-118,292,176,109,200,131,257,260,383,-11,80,212
184063,-183,-204,231,33,-13,233,122,149,109,6,59,-536,151,25,70,-24,-98,-138,197,56,-121,299,172,100,188,131,249,222,356,-40,46,200
184064,-159,-157,270,64,14,271,143,197,138,11,88,-493,175,46,75,-25,-66,-130,181,76,-123,161,175,111,179,147,212,85,267,-120,-46,89
184065,-134,-163,292,76,-1,254,173,212,125,10,100,-482,176,32,88,0,-42,-112,168,65,-115,107,180,89,184,140,187,171,283,-100,-35,14
184066,-133,-160,305,62,8,274,201,211,126,16,113,-476,182,31,109,52,-32,-111,179,82,-76,253,207,99,198,163,251,241,300,-66,32,109
184067,-90,-108,352,86,33,289,204,238,143,28,119,-441,195,36,102,71,1,-104,185,85,-78,237,174,84,182,158,264,68,206,-148,3,172
184068,-77,-108,352,91,27,283,189,249,144,8,100,-417,180,36,80,46,0,-105,192,75,-100,225,145,64,174,124,234,-142,140,-197,-38,146
184069,-90,-110,348,97,24,274,181,255,145,9,88,-425,178,26,75,25,-11,-92,183,52,-102,227,121,70,172,121,211,-110,142,-217,-66,77
184070,-108,-121,328,88,1,267,166,233,147,-9,90,-445,187,18,72,10,4,-94,199,32,-119,152,113,80,176,97,192,-12,191,-160,-48,51
184071,-135,-132,286,68,-2,251,166,203,141,-3,82,-459,214,14,68,29,29,-99,194,53,-100,174,152,88,186,123,239,1,213,-114,16,157
184072,-114,-125,298,71,19,262,210,225,143,10,77,-447,223,37,81,35,29,-80,205,68,-62,323,180,121,184,137,284,-2,235,-94,53,251
184073,-93,-114,309,76,34,270,198,240,154,-1,93,-421,220,45,85,54,-4,-53,226,53,-55,328,233,135,190,153,340,49,280,-67,81,369
184074,-108,-112,315,87,29,260,182,240,143,3,65,-420,211,30,78,36,31,-52,203,48,-106,153,245,139,195,157,274,64,271,-72,85,275
184075,-80,-91,337,109,27,272,211,238,138,-8,66,-403,217,24,78,37,84,-41,216,57,-106,107,244,147,176,127,243,99,282,-75,29,117
184076,-89,-84,343,104,28,287,206,251,148,-7,101,-376,224,32,85,36,79,-23,217,44,-88,233,248,141,194,125,254,164,322,-68,18,157
184077,-96,-103,336,98,24,281,195,265,153,-1,114,-354,235,19,72,17,49,-25,203,34,-113,260,241,159,185,113,212,188,351,-20,46,89
184078,-93,-112,323,117,17,253,205,267,178,-7,94,-346,253,22,58,-27,60,-13,204,32,-134,126,234,170,188,97,212,192,363,-15,63,72
184079,-96,-111,325,114,0,245,177,305,167,-28,50,-385,257,12,38,-56,50,5,223,26,-162,17,219,182,180,83,204,134,358,-7,80,142
184080,-90,-128,354,135,13,234,171,316,173,-23,35,-390,278,23,31,-49,27,-7,213,21,-158,74,197,151,165,59,162,88,317,-54,15,127
184081,-92,-152,374,136,16,217,135,336,180,-35,25,-382,290,10,12,-38,26,-6,219,-1,-189,164,209,154,153,25,108,135,326,-82,-57,1
184082,-104,-163,353,132,24,224,127,339,186,-33,13,-381,279,1,-8,-55,34,-8,207,-19,-206,83,225,157,144,8,77,155,323,-115,-102,-58
184083,-94,-172,316,138,31,229,115,322,199,-34,3,-417,271,-4,-1,-70,-26,-39,190,-18,-229,38,196,132,119,17,71,131,236,-175,-121,-8
184084,-109,-200,316,123,43,223,96,309,187,-30,9,-434,242,-5,8,-71,-63,-74,168,-23,-217,82,162,93,108,14,76,120,210,-204,-118,64
184085,-111,-211,310,117,41,228,104,302,197,-20,34,-438,242,4,8,-65,-60,-75,172,-16,-213,80,200,94,114,15,68,179,301,-124,-92,56
184086,-88,-188,323,125,38,253,119,297,191,4,58,-409,222,-9,19,-27,-54,-86,150,-16,-202,72,157,63,103,25,83,-21,206,-185,-103,61
184087,-105,-169,316,110,27,251,132,302,173,-2,64,-432,190,-20,34,5,-105,-127,125,-22,-178,89,58,-1,61,28,107,-238,74,-254,-102,163
184088,-120,-154,324,108,29,250,157,289,163,-2,37,-443,192,-19,37,18,-111,-135,130,-5,-160,80,57,16,72,47,140,-152,138,-214,-57,241
184089,-120,-178,300,103,18,255,133,281,148,-6,37,-429,191,-5,30,6,-63,-115,140,1,-164,105,87,50,106,69,173,-41,225,-124,5,289
184090,-103,-156,301,111,27,250,138,286,155,-8,39,-450,192,-26,24,5,-79,-132,128,-21,-187,111,46,21,60,6,101,-123,106,-236,-167,103
184091,-85,-152,329,117,46,261,133,283,156,3,31,-489,178,-40,1,-5,-99,-154,95,-36,-218,68,0,-8,20,-49,-3,-158,31,-391,-330,-204
184092,-88,-146,322,122,44,280,128,273,152,13,38,-495,167,-31,-8,-26,-119,-174,86,-49,-233,71,-55,-43,8,-51,-6,-265,-66,-474,-369,-220
184093,-107,-144,278,96,36,269,125,236,130,-22,46,-505,151,-43,-5,-53,-179,-204,62,-79,-267,39,-114,-118,-42,-88,-59,-373,-235,-634,-499,-272
184094,-106,-158,272,90,40,279,127,245,157,-5,67,-486,169,-31,19,-52,-162,-193,95,-43,-234,29,-64,-79,-1,-48,-26,-315,-154,-540,-387,-169
184095,-124,-164,226,84,43,277,120,233,158,13,72,-501,183,-17,52,-37,-161,-166,134,0,-213,47,-36,-23,54,18,55,-212,-27,-359,-219,-8
184096,-138,-187,228,56,39,264,120,227,139,9,57,-518,194,-9,48,-51,-175,-159,136,-3,-237,-48,-21,-2,55,4,-21,-57,64,-327,-277,-160
184097,-156,-209,248,71,30,265,111,211,137,-5,60,-523,225,-4,34,-58,-143,-143,149,-30,-247,0,-1,19,51,-41,-71,45,73,-387,-404,-421
184098,-163,-214,238,58,27,275,90,185,135,-1,51,-554,215,-5,36,-40,-141,-152,167,4,-229,66,0,17,66,-17,-30,25,70,-378,-344,-302
184099,-145,-199,271,62,27,293,99,216,143,11,65,-538,229,10,61,-11,-141,-171,166,1,-217,40,-49,0,75,10,1,-134,3,-417,-321,-187
184100,-157,-159,273,56,36,307,124,210,153,4,97,-539,215,10,69,-19,-160,-172,141,25,-175,-76,-84,-19,74,40,12,-305,-36,-432,-321,-166
184101,-157,-159,221,39,26,298,144,198,142,25,118,-555,196,0,83,-16,-170,-144,159,46,-147,-104,-56,4,92,63,75,-219,42,-350,-238,-71
184102,-142,-147,174,35,28,298,145,209,153,32,117,-562,214,0,97,-31,-176,-166,161,34,-152,-25,-80,4,94,78,89,-215,30,-346,-221,-90
184103,-140,-162,186,36,42,304,137,213,155,33,97,-542,214,4,88,-45,-214,-156,155,40,-136,0,-78,12,77,69,93,-238,17,-359,-217,-100
184104,-129,-174,232,46,45,313,108,216,149,39,106,-503,195,12,88,-47,-218,-149,157,33,-135,103,-64,13,86,80,114,-265,0,-357,-213,-28
184105,-105,-128,263,60,32,319,139,202,155,54,124,-500,180,11,85,-21,-200,-161,142,27,-123,164,-28,17,92,65,122,-174,50,-319,-195,-23
184106,-154,-118,249,67,40,314,155,201,172,39,104,-524,194,4,91,-7,-187,-160,155,38,-131,159,7,29,95,82,146,-84,135,-250,-147,-10
184107,-167,-153,247,73,26,308,117,189,141,30,79,-524,191,21,88,-13,-170,-151,169,36,-124,85,48,57,124,117,160,-31,241,-161,-47,96
184108,-153,-160,240,72,24,298,131,205,139,33,76,-497,207,17,95,-1,-133,-143,172,38,-123,33,63,60,99,121,185,-7,189,-179,-91,75
184109,-132,-158,276,73,40,310,152,229,155,33,67,-479,198,12,86,10,-101,-130,159,23,-102,61,79,67,116,141,223,88,225,-118,-38,106
184110,-154,-174,277,78,17,293,130,230,157,36,78,-478,202,8,74,20,-92,-116,179,51,-90,109,153,114,162,165,245,253,391,26,78,87
184111,-142,-153,278,71,12,283,123,232,142,21,79,-506,167,-17,58,-4,-94,-165,148,17,-108,105,71,55,115,108,198,61,208,-154,-61,94
184112,-109,-140,276,62,20,278,153,227,130,22,89,-506,118,-46,51,-10,-82,-227,100,-4,-138,111,-39,-43,54,63,166,-276,-24,-372,-180,117
184113,-97,-170,280,75,14,291,154,230,133,14,108,-521,101,-30,71,18,-91,-261,77,0,-124,143,-77,-66,50,85,194,-372,-44,-369,-143,174
184114,-111,-148,256,67,11,285,160,204,134,12,113,-543,104,-22,91,28,-135,-269,90,19,-95,156,-53,-39,80,112,233,-246,19,-287,-44,228
184115,-123,-150,232,71,20,272,160,196,119,37,121,-565,94,-12,113,55,-153,-258,114,49,-52,218,1,-15,107,148,284,-127,113,-194,31,299
184116,-126,-172,250,53,22,272,169,198,108,28,130,-559,90,-1,120,81,-147,-234,109,57,-36,247,17,-2,119,174,295,-77,165,-162,15,265
184117,-113,-146,266,73,27,303,195,194,132,52,146,-533,113,17,158,79,-111,-207,136,94,-14,266,51,31,162,199,307,-5,182,-151,21,202
184118,-108,-129,277,59,14,329,192,186,123,49,145,-508,113,11,155,73,-89,-210,137,93,-29,283,43,30,151,182,307,30,167,-177,-16,196
184119,-111,-131,265,39,15,295,186,165,98,34,136,-532,90,12,143,92,-88,-203,127,82,-14,279,34,53,162,213,338,56,239,-87,83,266
184120,-127,-124,247,32,3,292,178,113,106,47,138,-559,105,16,157,118,-81,-201,142,104,10,312,74,70,184,220,359,74,251,-61,122,318
184121,-148,-140,254,22,17,316,181,119,116,52,175,-534,119,41,171,137,-30,-192,162,125,36,359,84,65,197,237,390,-47,175,-144,59,313
184122,-172,-175,202,1,12,324,177,122,120,52,153,-540,124,55,165,125,-46,-184,168,126,26,400,100,89,197,260,420,-30,202,-143,60,356
184123,-158,-155,225,3,24,314,212,136,126,60,158,-517,154,56,175,139,-36,-146,196,140,46,449,159,130,238,277,434,122,305,-31,135,393
184124,-142,-141,203,-5,15,307,205,142,117,45,158,-515,155,46,181,140,-34,-112,234,147,42,457,216,174,259,288,417,292,446,142,247,319
184125,-141,-128,213,-12,-7,294,193,130,118,25,156,-529,168,53,175,156,-24,-108,215,135,40,467,189,176,271,297,449,249,475,178,299,335
184126,-149,-139,191,6,-11,291,191,133,127,28,152,-523,177,53,173,172,-49,-128,210,142,64,485,116,136,271,310,473,69,373,105,263,441
184127,-117,-120,229,26,20,318,213,177,142,44,176,-471,168,80,185,173,-13,-112,223,144,64,532,93,122,235,273,407,-63,224,-80,86,239
184128,-147,-134,226,14,0,296,210,178,138,42,149,-472,178,50,149,137,-3,-137,195,105,19,487,91,71,204,218,329,-104,85,-261,-93,62
184129,-171,-163,198,16,-10,275,180,171,137,28,135,-461,180,46,131,142,-25,-104,204,129,26,414,135,121,222,247,384,-14,225,-126,69,246
184130,-184,-175,200,14,-9,270,194,164,122,24,126,-476,180,41,131,128,-54,-139,193,124,9,487,158,121,214,236,379,58,272,-83,67,172
184131,-214,-195,169,1,-19,260,166,148,109,0,97,-499,174,34,114,75,-33,-139,184,75,-42,396,151,87,172,171,274,118,232,-177,-101,-71
184132,-203,-191,168,11,2,258,165,164,130,-3,82,-482,170,45,91,56,-35,-145,168,71,-73,279,90,52,148,134,197,71,178,-280,-202,-178
184133,-215,-191,168,27,3,260,164,187,139,32,76,-477,175,47,95,73,-63,-180,175,76,-57,297,54,37,154,163,243,-22,146,-228,-91,3
184134,-228,-214,180,37,9,253,152,207,158,21,77,-507,175,45,95,67,-59,-195,177,84,-53,347,36,18,147,183,273,-93,114,-193,-25,165
184135,-219,-238,187,28,5,225,110,194,154,2,50,-548,174,43,85,25,-78,-193,174,89,-89,134,21,10,127,163,227,-107,106,-209,-8,166
184136,-220,-244,194,31,-11,230,127,179,139,20,44,-543,180,30,80,1,-112,-181,163,68,-113,35,28,26,126,123,181,-46,150,-225,-84,39
184137,-239,-234,189,39,-13,257,139,176,163,26,95,-539,202,50,104,59,-152,-147,188,94,-76,241,48,76,162,165,241,21,221,-146,-41,69
184138,-258,-256,186,38,-14,240,106,190,163,11,50,-523,220,54,86,16,-157,-130,202,76,-94,159,62,75,157,144,209,100,262,-145,-79,2
184139,-244,-297,190,49,-15,200,82,192,178,8,17,-512,230,59,59,-30,-122,-111,198,66,-147,-121,80,82,152,109,148,144,271,-172,-144,-71
184140,-248,-307,182,45,-30,184,81,207,189,0,24,-515,231,49,60,-7,-114,-118,180,59,-131,-49,83,88,150,116,179,157,239,-196,-117,-46
184141,-228,-291,184,41,-37,190,89,208,187,1,44,-518,221,41,61,5,-122,-129,189,52,-134,79,56,58,131,101,179,54,175,-239,-136,6
184142,-239,-312,199,47,-46,190,73,189,182,-27,41,-525,218,12,49,7,-152,-131,162,28,-161,107,46,29,101,81,134,-106,90,-339,-211,45
184143,-225,-300,201,55,-32,194,71,208,177,-6,31,-502,212,0,31,20,-121,-156,143,9,-150,80,20,-1,71,67,157,-153,17,-345,-166,181
184144,-195,-248,229,74,0,230,92,245,188,9,45,-484,224,13,32,-8,-76,-138,148,-6,-173,-4,4,-3,62,47,129,-171,19,-355,-198,70
184145,-169,-249,232,75,19,245,88,249,169,0,32,-488,194,4,39,-33,-109,-161,133,0,-171,-52,-5,-8,76,43,134,-202,21,-341,-179,37
184146,-172,-236,223,83,8,233,79,233,180,14,50,-480,195,2,60,-16,-118,-154,144,0,-143,-58,31,0,95,62,139,-131,84,-289,-157,11
184147,-195,-213,217,69,-8,234,66,220,184,5,62,-497,171,-8,65,23,-115,-142,156,12,-123,38,59,25,103,88,195,-91,124,-239,-105,97
184148,-212,-239,195,60,-4,233,82,210,156,0,59,-510,168,-7,68,51,-141,-146,153,24,-102,137,49,20,108,107,247,-99,119,-202,-66,189
184149,-206,-218,211,61,6,252,108,212,151,8,75,-493,154,2,60,26,-114,-130,134,0,-116,159,82,20,71,56,158,-2,115,-261,-188,-64
184150,-155,-163,229,55,9,242,120,208,140,18,74,-500,142,-3,53,9,-78,-136,116,-3,-127,208,106,14,64,64,172,31,151,-290,-197,-6
184151,-136,-187,216,46,-8,236,98,191,139,4,64,-502,143,-3,55,19,-28,-133,135,-4,-115,187,106,25,67,63,187,41,129,-298,-184,46
184152,-194,-208,213,13,-9,251,71,173,124,-5,77,-480,143,-2,68,50,-40,-109,116,4,-108,193,78,34,82,71,228,40,139,-273,-175,130
184153,-189,-167,179,-6,15,252,127,168,117,13,105,-479,157,10,90,65,-73,-120,128,8,-76,235,83,51,106,79,238,14,132,-247,-146,89
184154,-202,-177,141,-30,-12,239,135,129,99,-3,84,-500,150,8,73,51,-106,-137,154,5,-90,281,99,57,109,77,221,38,161,-204,-110,48
184155,-185,-161,195,-17,1,263,161,147,126,10,95,-468,171,28,108,62,-66,-92,186,43,-56,318,156,109,139,135,255,140,272,-120,-31,149
184156,-197,-180,218,-32,-5,230,144,184,129,16,87,-464,213,20,81,51,-62,-84,211,41,-73,318,153,100,150,97,221,132,230,-202,-111,-16
184157,-202,-212,226,-22,6,233,118,211,132,13,77,-457,213,40,88,68,-42,-82,216,36,-81,379,133,98,157,106,218,101,175,-235,-139,-58
184158,-222,-215,188,-35,-11,230,111,191,137,25,87,-450,215,65,121,79,-32,-83,216,52,-65,424,111,112,159,143,261,17,207,-148,-20,109
184159,-234,-232,192,-48,-28,224,99,166,121,28,66,-485,217,63,92,65,-81,-91,205,56,-68,380,73,80,151,132,278,-67,175,-159,-5,173
184160,-264,-259,164,-62,-43,203,80,135,113,3,39,-507,192,35,78,49,-98,-139,179,51,-114,255,68,72,133,121,231,-28,178,-176,-31,129
184161,-276,-285,148,-51,-55,191,51,137,123,1,33,-505,214,41,74,21,-75,-113,219,38,-134,140,111,107,147,102,189,53,256,-128,-35,85
