,Fp1,Fp2,F7,F3,Fz,F4,F8,FC5,FC1,FC2,FC6,T7,C3,Cz,C4,T8,TP9,CP5,CP1,CP2,CP6,TP10,P7,P3,Pz,P4,P8,PO9,O1,Oz,O2,PO10
90530,1254,869,1085,340,647,1108,884,924,791,794,711,1090,498,713,845,1028,1159,506,300,119,386,1073,1269,316,209,-136,1680,3130,555,-415,570,2766
90531,1254,889,1076,350,655,1106,905,937,794,778,705,1139,504,700,851,1065,1203,501,311,108,383,1060,1321,351,231,-142,1657,3131,557,-436,542,2674
90532,1278,895,1063,351,668,1158,983,976,822,786,783,1144,510,717,875,1089,1181,502,295,103,399,1021,1324,353,205,-143,1651,3065,549,-442,514,2685
90533,1285,909,1106,346,637,1125,919,973,830,768,666,1166,470,720,832,1165,1198,477,282,115,384,1037,1264,317,202,-153,1725,3140,569,-450,523,2685
90534,1312,920,1154,368,646,1111,916,962,822,758,661,1175,475,727,825,1157,1203,484,275,82,365,1058,1278,296,171,-183,1725,3073,521,-491,467,2658
90535,1297,932,1143,371,661,1122,948,937,828,765,704,1123,462,698,841,1066,1149,463,250,72,394,1029,1208,254,97,-205,1769,3018,447,-529,418,2660
90536,1287,924,1152,358,661,1123,948,929,833,782,695,1112,456,730,868,1104,1167,427,257,99,411,1031,1198,249,117,-205,1859,3030,475,-552,406,2516
90537,1309,931,1146,349,662,1136,975,950,818,767,714,1051,472,748,844,1125,1249,415,257,100,354,1048,1206,263,132,-217,1661,3119,495,-554,410,2544
90538,1324,972,1164,327,698,1175,1030,940,826,782,772,1085,445,744,906,1115,1276,429,255,102,347,1129,1261,251,113,-199,1571,3078,470,-576,402,2630
90539,1277,943,1107,315,675,1167,1021,910,802,801,740,1088,427,712,941,1120,1196,432,243,92,401,1096,1176,230,107,-183,1654,3000,421,-594,425,2570
90540,1278,918,1107,322,645,1154,985,929,807,799,723,1119,453,721,883,1112,1238,423,252,98,412,1093,1309,279,147,-183,1667,2999,432,-551,467,2632
90541,1273,942,1057,335,648,1179,1026,950,814,791,772,1085,449,736,843,1105,1229,465,279,99,418,1110,1233,279,165,-183,1694,3047,481,-535,456,2648
90542,1278,971,1088,336,678,1195,1050,953,820,801,787,1071,465,719,881,1095,1193,496,264,100,422,1063,1199,270,148,-197,1660,3072,482,-541,433,2614
90543,1319,986,1173,363,681,1191,1009,1016,845,801,788,1119,488,711,872,1144,1174,513,259,87,413,1079,1268,270,104,-208,1661,3025,461,-528,424,2609
90544,1302,1012,1131,360,693,1198,997,978,831,790,759,1136,459,680,848,1134,1151,466,247,48,397,1059,1251,246,68,-225,1695,2985,397,-587,391,2602
90545,1272,964,1088,341,676,1177,992,934,819,769,752,1178,471,690,831,1123,1214,515,260,41,387,1003,1368,299,70,-250,1715,2991,413,-594,373,2542
90546,1296,946,1111,329,687,1186,994,960,824,776,755,1131,472,700,825,1133,1189,485,254,26,372,1050,1282,282,68,-263,1690,3024,431,-545,408,2584
90547,1319,969,1145,341,680,1204,1019,967,804,785,744,1125,476,723,811,1150,1124,481,247,48,371,1021,1202,262,86,-245,1731,3007,442,-527,440,2615
90548,1298,950,1121,346,656,1176,1014,925,815,799,736,1142,479,735,815,1164,1145,521,268,33,394,1024,1246,267,73,-247,1747,3013,423,-558,420,2548
90549,1287,924,1091,315,670,1150,986,929,816,807,714,1102,449,727,834,969,1223,486,257,41,369,1072,1159,263,46,-249,1693,3025,403,-563,395,2625
90550,1291,913,1127,335,661,1147,972,999,818,779,675,1084,445,721,822,971,1185,469,238,41,366,1073,1179,258,53,-258,1748,2954,375,-586,389,2564
90551,1318,965,1085,374,671,1166,969,1030,834,799,743,1096,462,747,850,1044,1142,452,251,63,397,1082,1175,245,57,-241,1699,3011,398,-596,384,2581
90552,1321,979,1089,383,673,1180,988,996,816,794,816,1144,463,732,811,1085,1153,498,246,50,400,1078,1242,260,53,-248,1658,3017,389,-606,372,2643
90553,1310,965,1157,364,656,1159,950,937,812,786,723,1125,438,731,821,1191,1160,468,214,40,404,1068,1219,246,48,-251,1682,2965,385,-613,375,2629
90554,1271,940,1102,336,652,1145,900,885,807,783,701,1093,414,702,815,1132,1175,456,224,36,379,1031,1205,229,51,-264,1703,2929,315,-656,336,2553
90555,1231,894,1064,304,661,1133,884,885,787,764,708,1056,400,690,825,1008,1122,433,191,36,371,1011,1197,189,14,-293,1677,2872,259,-708,300,2527
90556,1227,895,1039,285,652,1123,926,854,784,800,707,1005,400,706,831,1030,1090,409,193,46,419,1045,1184,191,9,-252,1784,2898,281,-663,319,2492
90557,1179,879,1008,261,632,1127,917,824,785,798,738,1002,395,718,781,935,1081,429,213,43,395,1020,1213,211,-16,-253,1689,2903,302,-672,317,2503
90558,1153,872,933,251,629,1142,913,815,791,783,759,976,390,698,795,913,1103,438,215,33,364,1045,1226,218,-13,-264,1666,2925,313,-708,308,2540
90559,1165,856,888,236,620,1162,920,823,772,780,751,1009,404,688,799,1030,1087,439,195,34,371,1064,1221,204,0,-270,1650,2957,317,-680,332,2581
90560,1154,856,936,270,631,1172,821,877,783,782,734,1074,414,689,799,1008,1129,474,196,44,364,1066,1301,214,17,-257,1733,2946,333,-653,387,2538
90561,1161,905,1020,314,666,1166,919,927,798,802,806,1055,446,703,826,1096,1161,463,225,57,390,1024,1246,236,75,-251,1636,2956,355,-623,415,2585
90562,1225,935,1039,326,672,1140,1011,900,801,773,772,1060,432,701,831,1172,1205,444,210,57,407,1005,1197,243,89,-224,1683,3062,415,-546,468,2594
90563,1271,906,1090,344,672,1128,919,902,791,743,698,1091,438,682,779,1072,1230,452,185,36,347,1048,1283,263,62,-244,1624,3016,415,-558,472,2623
90564,1282,936,1132,342,675,1164,944,936,793,762,715,1085,412,680,787,1080,1185,394,170,11,337,1008,1221,191,40,-269,1633,2949,294,-668,407,2557
90565,1266,911,1092,331,661,1132,929,908,781,769,701,1014,352,667,797,1102,1142,377,161,1,344,1032,1156,159,0,-293,1654,2894,241,-739,383,2538
90566,1236,863,1055,319,636,1095,908,872,785,740,679,954,358,671,801,1086,1131,390,155,16,339,1053,1160,168,-2,-294,1630,2853,250,-729,374,2548
90567,1191,837,1077,342,638,1075,887,905,807,784,694,988,385,694,813,1048,1127,401,172,20,353,1037,1165,184,19,-280,1619,2870,288,-656,387,2533
90568,1232,835,1107,378,611,1054,892,964,823,775,669,1019,415,687,798,1021,1128,414,171,33,342,1074,1183,181,18,-264,1692,2905,325,-605,417,2588
90569,1237,866,1095,366,626,1096,953,953,817,778,701,1099,411,689,813,1100,1159,455,153,42,378,1017,1260,172,20,-271,1720,2897,306,-637,398,2526
90570,1202,862,1070,335,607,1086,925,934,793,752,707,1019,404,669,804,1145,1115,403,134,16,376,1007,1191,146,14,-287,1652,2921,304,-670,341,2423
90571,1216,865,1093,338,593,1078,918,939,808,747,703,1030,409,640,803,1063,1164,374,139,21,362,1098,1115,152,20,-255,1675,3058,365,-620,373,2466
90572,1259,849,1123,353,604,1103,916,927,826,781,709,1064,401,656,845,933,1159,375,164,46,372,1145,1177,190,39,-225,1695,3048,372,-598,410,2546
90573,1230,827,1079,304,596,1102,902,892,819,769,741,1008,405,684,878,1050,1090,410,165,32,393,1110,1171,185,56,-225,1720,2942,325,-639,365,2570
90574,1181,802,1026,293,621,1096,901,895,816,751,735,989,411,698,825,1115,1120,426,198,61,432,1108,1180,197,84,-212,1758,2896,324,-646,409,2572
90575,1144,771,990,300,612,1092,906,878,793,754,764,996,394,716,828,1125,1106,409,205,78,442,1078,1112,185,73,-213,1700,2966,332,-632,442,2577
90576,1138,779,965,311,609,1075,869,902,793,761,736,995,413,741,873,1211,1061,393,208,103,456,1071,1121,178,84,-209,1726,2923,312,-640,482,2635
90577,1152,796,952,317,621,1099,915,901,794,788,721,1042,426,735,847,1244,1088,422,233,76,383,1085,1150,214,111,-200,1727,2947,311,-627,476,2626
90578,1145,786,1007,327,633,1108,902,926,799,788,740,1046,431,723,863,1158,1129,450,228,68,392,977,1141,245,111,-241,1643,2976,350,-640,425,2499
90579,1152,770,1030,332,621,1097,702,971,805,780,726,1047,446,721,836,1051,1148,458,243,56,384,1025,1197,247,117,-248,1628,2962,332,-651,336,2462
90580,1161,791,1038,318,605,1057,879,972,799,773,668,1068,453,713,850,1039,1100,481,256,55,352,1081,1218,274,139,-236,1673,2978,373,-642,350,2457
90581,1173,783,1087,319,604,1088,908,944,823,779,656,1073,465,713,852,1060,1071,507,269,57,348,1019,1276,307,139,-231,1636,3001,415,-604,378,2457
90582,1167,807,1055,313,589,1083,849,974,823,755,708,1113,468,730,844,1060,1097,483,259,40,310,1022,1300,296,137,-250,1602,2967,429,-579,378,2466
90583,1199,799,1110,350,604,1100,876,984,826,737,754,1146,467,726,766,1096,1163,468,272,41,316,1012,1286,311,156,-237,1591,3050,460,-531,434,2511
90584,1220,785,1182,363,616,1065,814,999,840,743,693,1127,467,726,759,1061,1204,493,260,24,301,947,1295,305,122,-263,1599,3027,409,-610,367,2481
90585,1259,808,1210,367,624,1072,855,991,856,764,712,1093,472,730,767,1123,1237,464,238,31,306,1036,1242,280,95,-251,1638,2974,331,-674,334,2470
90586,1260,827,1179,361,627,1107,888,968,846,774,743,1027,457,711,772,1084,1195,442,258,44,345,1047,1167,235,107,-229,1681,2926,315,-647,391,2541
90587,1283,863,1163,372,642,1133,947,995,849,772,792,1044,459,708,832,1053,1140,432,266,64,398,1077,1161,238,127,-196,1684,2771,250,-676,421,2632
90588,1268,886,1201,348,626,1165,951,1027,831,778,784,1126,472,719,831,1128,1193,415,273,97,408,1170,1227,259,142,-155,1753,2811,284,-664,441,2653
90589,1256,861,1189,350,598,1144,943,1017,832,789,788,1146,456,710,860,1155,1192,431,287,119,436,1160,1242,281,148,-133,1789,2909,367,-617,448,2579
90590,1208,808,1107,337,597,1126,911,1002,821,778,789,1127,459,719,876,1124,1166,480,297,115,441,1072,1225,285,180,-148,1696,2934,400,-578,479,2664
90591,1213,824,1080,325,589,1111,922,977,841,769,778,1117,445,715,892,1181,1124,510,303,126,470,1104,1244,297,211,-131,1793,2928,422,-556,517,2699
90592,1236,884,1116,315,604,1132,972,978,840,800,776,1080,449,736,875,1163,1120,489,315,156,468,1170,1323,311,207,-127,1815,2996,444,-525,545,2718
90593,1224,852,1115,302,617,1157,965,979,821,794,785,1032,442,748,868,1136,1126,407,287,146,488,1150,1248,291,194,-112,1793,3030,452,-539,522,2669
90594,1202,819,1092,300,598,1153,931,971,827,809,811,1053,459,742,895,1126,1180,423,282,132,443,1125,1200,290,178,-136,1742,3027,459,-577,459,2633
90595,1181,823,1086,307,600,1139,923,928,826,783,724,1078,464,727,866,1111,1197,476,285,102,381,1089,1282,288,152,-183,1723,3020,428,-625,384,2555
90596,1204,867,1090,297,646,1156,966,916,838,781,728,1125,459,745,853,1130,1217,471,307,111,386,1101,1333,314,163,-175,1679,3038,433,-631,404,2560
90597,1201,860,1073,296,669,1161,952,958,842,802,742,1133,452,739,875,1102,1263,469,290,124,401,1105,1285,277,172,-186,1669,3038,432,-611,421,2587
90598,1180,828,1070,296,655,1145,932,966,815,799,737,1096,442,715,865,937,1201,437,262,95,376,1038,1212,266,161,-194,1719,3100,479,-581,433,2540
90599,1179,810,1095,319,648,1128,868,995,844,779,719,1153,467,737,829,1001,1216,472,278,83,345,979,1328,312,154,-226,1615,3089,520,-545,444,2543
90600,1178,811,1119,335,648,1112,867,1048,848,765,712,1147,475,728,830,1014,1257,499,282,84,357,964,1363,324,151,-224,1580,3053,512,-516,457,2552
90601,1188,839,1124,344,653,1131,905,1010,872,783,733,1150,479,722,845,978,1264,486,269,74,357,1001,1323,325,133,-231,1582,3106,490,-522,429,2532
90602,1245,863,1221,381,678,1153,926,1015,907,804,733,1211,488,726,880,1047,1244,486,265,78,368,1010,1337,304,112,-221,1614,3089,425,-602,394,2548
90603,1255,854,1207,376,672,1144,920,1013,899,802,717,1169,469,680,844,1060,1250,464,225,34,319,970,1294,242,73,-246,1587,2998,360,-667,329,2506
90604,1297,860,1189,416,698,1182,796,1024,878,804,752,1129,453,700,832,1071,1257,480,202,12,323,992,1242,227,36,-269,1581,2933,313,-666,335,2513
90605,1325,931,1189,448,731,1185,914,1060,890,807,785,1221,490,708,838,1115,1288,540,222,46,368,1014,1332,285,95,-203,1655,2997,345,-619,384,2539
90606,1333,912,1234,460,702,1137,986,1080,888,777,706,1232,498,677,813,1080,1266,523,221,45,341,1068,1354,299,109,-202,1612,3052,394,-596,412,2560
90607,1370,928,1293,459,712,1164,941,1110,891,789,705,1212,514,696,821,1132,1302,540,229,61,330,1129,1327,319,108,-192,1626,3045,416,-598,423,2614
90608,1373,931,1244,458,744,1189,985,1095,867,803,752,1190,494,705,848,1146,1283,525,249,87,374,1136,1295,305,123,-175,1680,3100,445,-584,418,2619
90609,1318,927,1197,411,726,1186,950,1046,847,777,776,1160,477,711,867,1091,1263,548,273,74,398,1104,1419,316,147,-169,1674,3045,454,-593,437,2584
90610,1265,885,1179,378,677,1162,918,1013,859,777,722,1132,479,722,846,1090,1261,503,268,78,378,1098,1291,338,158,-170,1655,3043,451,-563,436,2554
90611,1235,864,1131,366,683,1161,915,1015,864,779,682,1119,467,717,850,1054,1231,459,248,82,354,1048,1230,305,130,-185,1643,2972,430,-606,425,2517
90612,1228,852,1119,363,665,1149,871,959,863,769,665,1108,439,726,853,1038,1151,436,239,86,362,1007,1183,266,124,-200,1702,2910,407,-580,420,2514
90613,1213,818,1096,338,642,1123,849,953,833,746,643,1104,419,700,830,1028,1086,429,231,54,330,972,1194,249,116,-216,1641,2883,392,-618,365,2453
90614,1219,858,1091,365,668,1167,918,943,839,760,741,1092,460,704,768,1077,1160,464,260,51,352,965,1205,270,141,-206,1612,2948,406,-601,384,2523
90615,1192,857,1033,360,679,1163,937,952,839,781,721,1028,466,731,767,1064,1154,418,271,58,315,964,1133,284,158,-235,1519,2934,382,-639,392,2524
90616,1171,831,977,352,659,1152,869,970,828,773,690,1018,447,769,808,1051,1143,404,267,83,323,1017,1066,269,151,-225,1581,2985,384,-653,430,2577
90617,1195,819,1050,342,666,1160,860,995,832,798,695,1064,464,778,850,1052,1160,451,309,92,341,1050,1154,327,190,-196,1654,3016,454,-545,462,2557
90618,1181,814,1060,339,637,1153,879,972,814,806,686,1031,441,760,854,963,1180,392,299,75,280,990,1157,323,183,-217,1556,3000,491,-519,466,2544
90619,1214,850,1121,381,659,1145,910,1000,841,798,697,1072,464,799,798,1065,1187,446,326,100,351,969,1248,344,208,-182,1650,3048,526,-529,481,2532
90620,1262,907,1156,387,671,1148,937,1043,849,778,733,1104,488,816,777,1139,1239,510,331,101,369,1026,1267,375,233,-159,1698,3137,566,-494,516,2579
90621,1262,906,1095,403,663,1164,926,1044,837,778,724,1070,467,789,800,1064,1310,469,300,108,368,1049,1217,353,224,-177,1673,3122,554,-490,538,2623
90622,1234,882,1121,392,667,1132,905,1013,833,750,713,1070,456,765,793,1081,1236,434,276,84,348,974,1204,300,195,-192,1662,2995,441,-548,503,2607
90623,1257,903,1154,404,694,1144,926,1010,859,774,732,1092,468,782,836,1113,1202,464,275,95,400,1012,1199,300,201,-152,1724,3017,407,-564,504,2650
90624,1278,901,1168,398,703,1141,920,990,854,777,713,1115,464,785,835,1135,1223,476,292,103,425,1059,1239,326,216,-157,1777,3114,470,-508,525,2642
90625,1283,880,1138,384,688,1141,910,963,841,776,739,1099,474,765,848,1106,1242,472,324,109,396,1078,1272,321,226,-171,1734,3067,520,-479,537,2711
90626,1304,874,1130,405,704,1147,948,989,865,786,749,1137,493,775,844,1078,1261,512,319,100,412,1105,1290,338,216,-150,1784,3085,577,-442,542,2701
90627,1287,876,1154,360,693,1138,914,965,827,757,704,1095,462,767,812,1053,1230,468,302,70,362,1122,1274,334,178,-168,1721,3056,524,-505,508,2593
90628,1260,856,1122,334,690,1132,868,930,811,749,714,1032,424,771,816,1013,1146,432,275,70,332,1133,1245,311,170,-199,1670,3023,454,-530,484,2628
90629,1213,835,1086,338,682,1138,894,921,813,752,732,1063,425,743,815,889,1201,432,236,59,334,1085,1196,269,134,-207,1748,2984,386,-623,419,2574
90630,1195,841,1057,307,654,1150,928,863,789,770,735,984,390,732,832,1054,1220,376,228,57,377,1097,1141,229,107,-210,1710,2968,322,-704,355,2449
90631,1184,845,1059,300,657,1145,915,898,792,777,708,1018,422,751,849,1137,1184,421,251,88,415,1150,1225,282,165,-201,1683,3042,401,-616,417,2598
90632,1196,849,1075,316,655,1149,896,947,825,780,692,1052,464,796,830,1104,1244,519,319,117,396,1166,1352,372,223,-132,1776,3170,530,-484,527,2719
90633,1150,828,987,293,629,1143,912,911,806,793,730,1038,448,810,852,1134,1280,494,333,120,422,1179,1331,388,221,-123,1749,3248,613,-439,564,2693
90634,1158,813,1043,324,612,1127,898,935,817,798,710,1114,459,801,858,1117,1252,507,340,88,368,1101,1324,378,226,-163,1710,3184,591,-461,503,2615
90635,1167,824,1061,326,633,1121,911,979,823,805,710,1134,468,805,829,1060,1268,491,347,98,334,1075,1334,395,214,-160,1703,3102,538,-482,507,2599
90636,1139,817,1037,325,625,1069,830,978,821,775,643,1057,455,783,777,1002,1222,483,340,102,305,1060,1301,382,187,-195,1619,3047,465,-536,503,2641
90637,1112,783,1009,338,615,1050,788,994,834,752,618,1006,452,778,749,970,1170,440,321,84,290,997,1253,347,175,-213,1633,3033,443,-567,479,2571
90638,1139,785,1055,340,596,1071,836,1005,858,758,645,1042,445,769,765,994,1179,409,312,66,273,1026,1211,324,161,-195,1676,2988,441,-561,494,2593
90639,1161,785,1136,327,603,1072,765,959,872,763,642,1071,431,779,778,999,1215,446,334,87,354,1092,1223,335,202,-156,1707,3036,458,-515,521,2600
90640,1172,775,1181,363,620,1060,737,979,876,745,582,1083,451,792,753,940,1145,459,354,95,333,1018,1279,320,215,-176,1655,3038,465,-526,518,2615
90641,1159,766,1133,367,615,1040,764,966,856,738,552,1064,465,805,789,961,1153,437,345,126,365,979,1239,334,235,-135,1746,3113,521,-511,535,2591
90642,1149,785,1098,338,623,1044,775,927,845,738,551,1076,459,779,831,989,1167,427,313,124,344,1003,1240,355,231,-127,1717,3073,506,-498,527,2509
90643,1145,762,1063,322,617,1051,744,949,867,732,623,1078,451,761,792,988,1137,418,304,119,339,1032,1279,352,223,-124,1641,3106,517,-485,542,2583
90644,1179,784,1057,341,623,1049,793,979,879,733,644,1097,473,758,735,1017,1204,478,325,119,368,1014,1325,399,249,-109,1679,3218,623,-431,580,2637
90645,1163,760,1057,329,595,1038,778,954,853,716,622,1073,472,753,765,1007,1288,479,305,124,330,942,1329,392,228,-130,1656,3201,606,-464,552,2509
90646,1179,758,1056,332,598,1082,780,936,843,747,620,1056,454,768,777,946,1195,482,288,116,316,965,1254,370,213,-144,1589,3088,546,-517,531,2546
90647,1166,776,1038,304,595,1122,726,933,823,766,660,1021,450,749,788,878,1126,433,254,109,333,1005,1138,337,186,-155,1593,3043,463,-593,489,2569
90648,1144,785,980,295,589,1087,849,950,832,766,667,1030,471,763,811,909,1107,440,274,119,363,1040,1165,344,220,-142,1665,3042,427,-599,518,2590
90649,1147,793,986,308,601,1080,930,893,807,758,677,999,422,755,816,1011,1132,423,279,122,374,1051,1202,349,236,-120,1643,3051,429,-570,531,2638
90650,1137,759,1000,297,621,1092,878,876,822,781,722,982,401,774,822,988,1137,404,257,100,336,1033,1176,331,211,-135,1642,3077,454,-572,533,2583
90651,1128,766,977,288,641,1123,825,902,827,775,757,1017,424,777,857,795,1138,449,278,104,312,973,1226,332,223,-141,1663,3070,486,-572,541,2556
90652,1116,791,968,288,623,1106,823,900,809,775,663,1005,419,761,804,854,1129,430,271,91,275,922,1233,341,210,-202,1573,3063,480,-625,435,2496
90653,1121,790,985,293,631,1090,831,923,843,752,618,967,412,776,784,1023,1072,384,262,88,320,1014,1129,321,196,-226,1629,3018,440,-660,419,2463
90654,1109,764,987,295,619,1081,725,913,845,743,650,975,418,764,763,965,1093,408,243,69,270,982,1166,278,159,-262,1600,2923,338,-730,375,2462
90655,1128,764,1023,333,626,1110,703,900,840,767,658,985,420,756,759,979,1055,410,252,77,284,953,1082,279,162,-252,1591,2877,287,-737,365,2439
90656,1149,774,1021,327,639,1080,898,928,856,768,643,1005,426,762,790,974,1076,410,270,69,277,914,1051,289,181,-249,1538,2940,317,-704,424,2466
90657,1128,735,990,307,639,1081,801,973,851,750,625,1022,435,744,814,991,1074,414,249,70,260,897,1099,271,163,-259,1539,2923,321,-720,399,2493
90658,1114,732,1060,297,647,1095,784,946,850,750,617,1002,422,751,815,967,1062,390,253,80,288,1017,1147,269,161,-221,1655,2902,315,-725,402,2413
90659,1151,761,1085,290,643,1114,825,933,856,731,711,1029,406,741,767,1020,1110,387,258,59,305,1046,1161,268,181,-194,1640,2880,302,-719,419,2459
90660,1168,801,1050,307,623,1099,857,962,842,710,746,1064,426,731,737,1068,1147,398,239,43,332,1023,1152,276,181,-216,1639,2922,299,-692,389,2536
90661,1180,772,1068,326,606,1075,831,989,832,737,685,1057,436,728,778,1021,1116,395,230,65,317,1067,1104,260,190,-232,1644,2981,336,-657,450,2619
90662,1172,774,1092,335,590,1077,818,1014,817,737,625,1087,440,709,776,1016,1111,397,249,78,354,1128,1161,270,223,-191,1740,2995,411,-595,524,2646
90663,1179,798,1087,336,640,1107,832,1013,823,766,675,1128,449,724,797,970,1189,440,265,89,361,1111,1175,319,232,-176,1623,3017,442,-544,597,2712
90664,1206,819,1118,349,666,1136,863,1012,837,764,702,1094,422,727,846,1072,1203,407,263,86,393,1076,1189,293,241,-176,1632,3100,469,-550,582,2664
90665,1244,860,1132,352,678,1134,906,1009,817,759,728,1049,425,677,815,1109,1247,390,228,70,373,1088,1232,290,226,-164,1686,3063,420,-607,495,2577
90666,1260,885,1160,379,673,1116,902,1034,843,768,736,1060,426,672,831,1127,1144,396,233,74,370,1097,1175,274,196,-199,1651,2993,371,-694,424,2507
90667,1253,854,1077,340,673,1111,904,1019,841,764,767,1076,434,710,856,1192,1111,434,268,96,425,1180,1143,318,244,-181,1758,3014,398,-666,458,2589
90668,1216,825,1038,317,673,1129,907,996,844,768,778,1084,453,731,862,1250,1156,471,294,101,447,1231,1185,364,264,-139,1872,3099,474,-618,521,2647
90669,1229,837,1091,346,675,1126,866,1014,844,753,747,1093,473,726,867,1198,1201,509,297,107,414,1214,1240,376,263,-146,1805,3119,508,-571,537,2666
90670,1247,859,1115,359,684,1170,953,1034,839,780,760,1102,478,736,924,1099,1234,477,284,115,430,1182,1268,374,249,-153,1747,3130,495,-563,526,2678
90671,1237,844,1108,349,656,1171,897,1033,838,791,605,1102,484,735,942,1053,1233,488,280,108,446,1115,1315,363,233,-152,1782,3082,460,-586,490,2549
90672,1198,798,1016,304,631,1116,827,987,792,790,556,1046,443,725,932,918,1157,439,238,76,415,1078,1207,318,204,-189,1693,3001,406,-652,426,2505
90673,1208,806,981,301,641,1127,850,967,807,784,770,1023,419,728,874,951,1165,413,254,76,402,1040,1175,306,203,-215,1700,3036,470,-623,457,2576
90674,1237,814,1056,337,631,1105,849,999,829,723,740,1027,451,722,792,1076,1185,427,256,58,335,1057,1183,322,206,-212,1686,3034,469,-598,471,2569
90675,1247,827,1082,333,630,1118,850,987,818,725,726,1025,437,718,777,1003,1177,442,243,48,297,1067,1166,327,173,-210,1590,3053,451,-591,476,2530
90676,1265,859,1155,362,660,1143,881,989,816,763,713,1097,459,694,802,910,1238,482,265,66,351,1122,1240,324,183,-198,1641,3053,432,-568,498,2532
90677,1252,858,1105,343,653,1145,887,982,822,787,744,1104,448,701,837,980,1215,475,263,78,407,1178,1209,332,216,-162,1736,3050,415,-564,496,2550
90678,1262,878,1107,356,660,1175,888,1017,806,807,756,1115,464,704,862,1133,1279,477,286,115,452,1185,1232,378,274,-128,1830,3100,494,-487,600,2669
90679,1273,877,1137,359,668,1190,941,1072,807,824,806,1170,491,725,916,1171,1300,492,336,151,490,1185,1289,407,310,-40,1910,3087,510,-443,688,2809
