,Fp1,Fp2,F7,F3,Fz,F4,F8,FC5,FC1,FC2,FC6,T7,C3,Cz,C4,T8,TP9,CP5,CP1,CP2,CP6,TP10,P7,P3,Pz,P4,P8,PO9,O1,Oz,O2,PO10
101458,-398,-184,-1475,77,-154,268,-436,447,58,21,168,-49,521,-281,-76,595,487,-391,90,239,-210,-29,-97,-194,40,13,14,-422,-246,-314,-110,-374
101459,-343,-290,-1434,128,-140,318,-470,526,76,30,189,65,516,-279,-82,573,386,-340,132,220,-248,-4,-16,-186,52,18,38,-451,-247,-271,-69,-241
101460,-348,-283,-1392,224,-128,277,-483,572,67,23,221,192,478,-276,-96,492,286,-293,125,203,-270,86,75,-163,56,30,57,-505,-254,-282,-42,-161
101461,-263,-226,-1347,154,-140,229,-506,649,87,14,197,315,451,-273,-127,447,238,-266,117,212,-291,133,161,-145,59,22,-16,-378,-191,-224,0,-91
101462,-183,-277,-1254,123,-150,188,-499,527,55,-6,149,447,432,-282,-151,595,221,-320,99,206,-321,87,35,-220,27,-18,-68,-412,-240,-240,-12,-37
101463,-182,-336,-1215,128,-136,185,-471,464,60,18,162,481,418,-282,-150,706,370,-309,113,217,-271,86,35,-194,39,14,-19,-366,-216,-194,25,35
101464,-176,-284,-1280,111,-140,182,-441,437,40,18,233,371,396,-294,-101,694,425,-398,96,211,-271,174,-153,-242,28,22,53,-420,-262,-222,56,95
101465,-313,-251,-1419,38,-192,235,-423,411,24,-4,227,313,384,-318,-95,665,488,-451,56,217,-280,194,-187,-261,38,31,148,-283,-215,-173,124,187
101466,-370,-235,-1429,69,-158,318,-354,463,65,51,255,351,420,-285,-57,621,457,-448,87,267,-195,163,-149,-211,75,124,259,-265,-143,-86,232,279
101467,-455,-232,-1476,9,-171,284,-308,459,44,43,236,384,409,-295,-84,539,411,-448,112,263,-221,127,-130,-217,61,88,143,-271,-167,-103,209,178
101468,-397,-179,-1486,43,-166,283,-286,482,58,30,294,357,411,-286,-61,494,502,-465,117,226,-288,108,-217,-245,40,8,-35,-358,-237,-264,-32,-199
101469,-311,-110,-1419,78,-139,270,-294,480,62,34,275,325,429,-305,-70,403,579,-448,88,213,-327,165,-181,-246,11,-14,-57,-415,-309,-351,-135,-255
101470,-366,-98,-1428,48,-186,243,-370,410,15,11,282,317,391,-333,-100,361,480,-485,48,196,-335,142,-222,-288,-18,-21,-38,-502,-376,-342,-55,-44
101471,-400,-154,-1456,38,-202,274,-512,467,40,19,277,270,442,-313,-107,452,424,-366,69,170,-322,35,-265,-269,-25,-12,-33,-415,-342,-297,-42,-72
101472,-460,-197,-1583,35,-196,337,-505,448,39,28,316,279,415,-317,-84,577,360,-483,84,184,-295,-120,-132,-254,1,10,-20,-393,-304,-267,-14,-58
101473,-592,-266,-1632,-18,-219,302,-428,363,32,23,345,434,383,-308,-69,619,335,-491,73,224,-243,-21,-75,-234,31,40,19,-322,-222,-203,39,-20
101474,-616,-260,-1594,22,-183,348,-338,302,33,54,332,519,345,-281,-36,577,539,-472,84,230,-250,171,-60,-220,49,65,84,-324,-176,-159,100,46
101475,-634,-318,-1615,14,-208,339,-370,379,12,12,275,264,383,-296,-85,542,496,-502,70,202,-272,127,-132,-254,29,59,153,-322,-170,-154,72,28
101476,-606,-321,-1533,18,-196,324,-377,513,33,7,301,119,445,-302,-92,536,379,-480,77,203,-278,52,-191,-247,16,27,139,-373,-227,-213,33,23
101477,-614,-346,-1587,3,-200,267,-349,502,53,9,220,114,441,-311,-103,543,428,-466,88,217,-299,156,-172,-250,34,53,166,-383,-253,-189,105,143
101478,-684,-347,-1605,-25,-205,233,-313,457,52,35,160,144,434,-294,-72,532,472,-461,113,240,-250,271,-147,-220,86,112,223,-328,-178,-83,230,305
101479,-664,-393,-1443,-23,-211,225,-337,374,28,6,201,271,418,-317,-85,517,448,-484,91,214,-293,213,-113,-212,41,69,163,-229,-190,-159,61,31
101480,-475,-287,-1416,74,-190,175,-324,416,40,-22,152,386,470,-318,-139,570,550,-405,61,196,-316,204,-88,-236,30,10,41,-185,-196,-238,-103,-124
101481,-372,-229,-1388,116,-169,200,-236,428,39,4,170,411,463,-312,-136,628,591,-389,69,204,-253,129,-74,-234,38,28,67,-241,-205,-208,1,20
101482,-406,-273,-1525,102,-179,201,-312,426,49,18,221,395,456,-306,-122,505,562,-370,98,201,-252,67,-53,-219,59,27,50,-175,-196,-180,4,-101
101483,-489,-286,-1609,88,-152,263,-336,439,79,58,291,328,477,-268,-36,464,576,-352,145,266,-224,176,-17,-172,113,67,86,-244,-138,-92,108,41
101484,-550,-321,-1570,48,-172,277,-376,402,73,50,323,286,482,-262,-42,492,495,-361,127,259,-241,100,10,-156,92,49,70,-175,-114,-76,150,102
101485,-593,-370,-1493,31,-162,343,-372,408,89,74,352,308,528,-250,-7,594,444,-309,146,276,-218,135,30,-161,117,104,140,-274,-157,-66,147,169
101486,-653,-414,-1475,-100,-213,227,-371,406,49,28,290,318,497,-283,-57,588,440,-318,130,248,-234,155,73,-190,104,97,153,-380,-180,-92,134,138
101487,-525,-356,-1396,-48,-170,166,-290,421,65,33,317,396,474,-252,-79,671,472,-320,142,267,-195,155,114,-165,143,168,208,-261,-129,-110,124,41
101488,-516,-389,-1442,35,-140,231,-254,501,71,64,329,445,418,-243,-34,740,466,-335,148,277,-143,148,69,-170,163,161,226,-232,-125,-116,92,-33
101489,-528,-449,-1552,-78,-166,261,-244,465,47,47,296,430,435,-270,-64,712,257,-389,104,233,-171,158,-122,-211,108,121,110,-427,-183,-123,102,7
101490,-624,-375,-1630,55,-174,255,-276,450,60,50,282,536,439,-280,-100,636,357,-321,122,246,-238,269,-103,-190,85,114,54,-423,-209,-159,127,133
101491,-600,-347,-1647,114,-165,203,-252,430,96,39,267,522,468,-271,-80,666,556,-281,142,245,-219,262,-108,-203,76,114,87,-321,-262,-244,43,31
101492,-537,-371,-1622,37,-198,228,-287,298,41,32,262,481,439,-295,-91,684,460,-432,94,228,-173,195,-139,-247,55,134,150,-394,-262,-207,66,-17
101493,-612,-425,-1643,-28,-206,273,-370,379,35,19,259,351,431,-312,-127,649,323,-510,66,218,-154,182,-266,-290,32,137,242,-506,-304,-210,113,92
101494,-629,-361,-1604,-8,-178,329,-373,428,75,68,297,342,441,-282,-27,742,416,-453,88,250,-73,192,-281,-276,73,194,358,-660,-343,-205,270,388
101495,-615,-324,-1549,-18,-183,342,-344,407,45,57,307,362,435,-289,-34,787,478,-455,67,232,-58,194,-204,-256,50,169,415,-615,-295,-138,339,536
101496,-635,-262,-1442,10,-160,288,-270,458,49,69,319,401,451,-279,-44,728,508,-432,87,237,-102,288,-182,-250,37,144,336,-469,-322,-196,159,254
101497,-633,-235,-1413,45,-169,345,-236,481,43,46,278,416,448,-298,-51,667,514,-430,74,236,-152,147,-144,-280,-7,80,174,-379,-343,-338,-119,-184
101498,-637,-274,-1448,52,-183,332,-231,454,68,53,291,439,494,-299,-27,622,531,-368,81,277,-141,195,5,-208,51,120,145,-290,-223,-182,33,-117
101499,-603,-307,-1447,19,-173,306,-203,451,67,59,311,471,508,-285,-52,581,482,-245,131,268,-162,242,71,-161,79,121,109,-124,-168,-174,27,-22
101500,-524,-325,-1434,11,-168,302,-176,471,62,33,306,469,492,-304,-102,629,308,-196,121,234,-210,213,-60,-205,24,67,45,-230,-229,-235,22,10
101501,-498,-272,-1437,16,-150,320,-131,489,66,54,364,482,463,-298,-33,725,398,-407,123,248,-138,204,-66,-201,35,120,59,-210,-208,-181,86,21
101502,-661,-220,-1431,35,-148,331,-142,423,82,68,390,544,466,-281,6,713,590,-415,142,249,-121,258,-55,-188,52,138,124,-295,-234,-202,60,73
101503,-729,-265,-1370,92,-160,238,-226,381,61,15,344,527,462,-301,-33,542,418,-389,112,232,-139,309,-106,-199,29,131,205,-346,-225,-186,113,133
101504,-626,-284,-1535,121,-136,220,-267,486,47,32,336,483,503,-287,-30,517,395,-356,117,258,-134,262,-64,-165,64,158,223,-296,-199,-160,154,148
101505,-553,-274,-1575,147,-124,277,-300,519,75,49,279,433,509,-298,-30,597,588,-380,114,233,-135,230,-113,-215,63,155,220,-276,-217,-214,88,49
101506,-478,-281,-1495,106,-143,230,-364,475,67,29,275,502,494,-307,-55,695,544,-364,108,207,-131,166,-110,-231,33,110,214,-251,-200,-201,98,46
101507,-477,-342,-1443,12,-158,279,-340,505,72,15,347,419,491,-318,-53,774,577,-379,90,203,-123,185,-13,-215,24,118,180,-221,-194,-174,69,0
101508,-414,-362,-1370,-33,-128,373,-295,525,79,79,321,431,521,-308,-28,869,579,-321,134,241,-78,304,131,-153,92,179,279,-192,-151,-131,100,11
101509,-406,-315,-1338,32,-140,366,-315,488,48,55,285,510,520,-310,-41,840,481,-288,126,226,-129,266,154,-151,83,138,228,-288,-148,-162,81,39
101510,-431,-288,-1428,32,-144,355,-319,504,59,51,324,532,531,-324,-36,792,468,-262,104,227,-144,218,111,-164,63,99,140,-183,-168,-155,125,183
101511,-468,-304,-1481,63,-124,311,-302,478,55,72,341,533,531,-312,-64,808,452,-315,90,214,-130,277,-12,-185,60,113,222,-277,-148,-96,230,368
101512,-586,-293,-1544,78,-127,257,-264,472,55,61,337,519,490,-310,-50,813,528,-306,97,202,-111,313,-26,-184,55,133,257,-260,-123,-73,239,391
101513,-587,-270,-1575,111,-134,297,-184,479,66,45,360,518,541,-317,-56,787,660,-275,105,219,-150,220,32,-151,56,98,162,-142,-100,-120,114,116
101514,-603,-305,-1583,52,-135,273,-162,428,69,50,349,709,561,-313,-54,831,708,-309,97,229,-129,50,88,-142,54,123,132,-75,-125,-136,84,-7
101515,-580,-271,-1517,23,-140,289,-181,418,72,59,374,858,547,-300,-17,865,709,-305,118,264,-43,227,224,-127,74,211,386,116,-34,-28,249,243
101516,-574,-288,-1448,87,-146,309,-172,440,70,47,405,653,472,-320,31,893,565,-333,89,273,23,256,174,-186,48,208,483,-276,-120,-70,268,354
101517,-529,-224,-1426,77,-120,350,-135,482,60,66,403,494,425,-310,23,895,411,-385,71,256,-11,157,14,-253,36,167,319,-487,-234,-177,121,61
101518,-544,-201,-1442,63,-105,352,-96,488,73,91,387,465,472,-290,0,796,425,-401,89,282,-64,378,-46,-255,69,181,339,-361,-190,-121,232,249
101519,-600,-204,-1489,128,-117,343,-176,501,70,73,348,457,510,-285,-28,808,460,-374,101,283,-53,440,-89,-253,82,205,431,-305,-176,-120,225,275
101520,-500,-144,-1432,88,-141,353,-255,474,54,42,338,483,498,-309,-36,762,410,-345,85,241,-104,393,-104,-244,50,157,292,-319,-192,-172,101,25
101521,-451,-122,-1343,22,-151,302,-259,459,68,61,351,496,495,-298,-22,739,562,-335,110,261,-122,513,-63,-209,92,164,243,-321,-142,-95,183,156
101522,-455,-134,-1281,17,-126,346,-175,472,64,49,387,494,491,-278,-9,738,644,-319,119,303,-91,620,-49,-186,137,215,319,-336,-148,-48,340,416
101523,-437,-163,-1323,56,-141,368,-141,519,55,69,381,526,470,-275,31,777,605,-320,119,344,-33,615,-99,-172,146,307,401,-267,-68,61,504,578
101524,-540,-159,-1342,68,-105,377,-115,500,70,115,445,580,490,-253,46,819,594,-323,159,381,34,624,-82,-128,213,401,515,-200,48,186,630,629
101525,-546,-167,-1357,102,-123,403,-108,494,85,92,435,610,522,-256,42,885,643,-291,184,364,-12,526,51,-100,215,338,399,-166,39,86,408,256
101526,-520,-225,-1432,103,-167,335,-208,515,67,56,354,630,520,-273,2,881,716,-183,182,303,-107,410,130,-95,163,221,211,-79,26,-81,115,-7
101527,-502,-236,-1434,128,-127,382,-222,596,101,89,396,712,578,-229,44,874,774,38,250,365,-24,383,219,3,255,308,388,65,156,69,309,252
101528,-507,-233,-1375,124,-127,329,-189,629,103,82,314,634,570,-206,69,926,690,-137,244,381,25,318,245,-10,259,341,434,-7,140,101,333,231
101529,-510,-216,-1450,92,-155,242,-163,594,100,57,264,578,558,-205,39,888,527,-182,231,353,-11,366,193,-31,242,301,362,-73,97,70,310,218
101530,-498,-213,-1461,67,-130,261,-143,569,117,74,358,682,570,-182,57,809,494,-189,241,367,-26,398,103,-6,260,312,320,-183,73,59,308,248
101531,-484,-221,-1456,-15,-160,224,-221,436,84,57,347,674,521,-225,27,800,663,-293,234,357,-37,358,4,-28,260,310,344,-191,67,39,278,159
101532,-473,-175,-1353,45,-153,248,-228,373,75,51,389,581,528,-215,19,771,669,-265,261,376,-11,412,74,5,293,334,383,-118,125,88,339,175
101533,-499,-227,-1247,92,-166,229,-183,538,110,50,394,615,596,-205,23,774,405,-169,281,364,-53,438,227,37,295,332,342,-145,169,122,360,237
101534,-580,-261,-1421,29,-189,240,-185,574,102,31,373,676,578,-214,0,788,566,-120,275,356,-69,428,277,44,275,321,339,-191,153,136,364,314
101535,-670,-300,-1634,55,-180,309,-121,523,76,50,415,850,526,-218,-7,794,754,-178,253,353,-38,399,189,10,312,355,377,-205,170,167,378,357
101536,-731,-414,-1651,100,-194,355,-170,553,84,21,379,645,575,-216,-16,805,613,-268,253,365,-25,391,112,-1,290,364,453,-151,192,184,435,483
101537,-704,-394,-1550,61,-190,341,-165,542,111,40,378,436,607,-212,9,829,612,-247,256,378,-2,319,178,25,290,361,388,142,260,240,480,503
101538,-664,-296,-1456,-8,-185,316,-138,444,92,74,428,478,600,-195,24,772,651,-227,268,384,16,201,233,63,299,347,294,336,302,215,419,260
101539,-641,-259,-1403,2,-161,293,-113,429,100,84,451,533,630,-189,19,692,672,-197,281,406,24,328,290,122,337,373,355,575,399,318,488,400
101540,-584,-295,-1341,22,-179,296,-112,382,43,49,404,460,572,-232,0,725,525,-260,194,343,-50,387,131,23,266,303,315,-150,158,127,334,238
101541,-512,-271,-1353,58,-152,358,-105,398,67,101,452,423,573,-218,43,831,531,-293,181,366,-9,300,-6,-63,219,309,504,-465,22,5,258,180
101542,-423,-198,-1404,-3,-176,352,-58,442,32,95,439,345,508,-240,59,899,507,-322,150,350,20,274,-77,-131,194,313,598,-357,-42,-35,276,145
101543,-489,-173,-1378,24,-180,311,-132,470,40,70,378,369,476,-251,6,947,442,-361,120,306,-2,329,-176,-180,143,263,472,-572,-194,-126,245,102
101544,-563,-188,-1363,32,-158,351,-170,447,68,91,373,477,532,-203,-3,943,617,-332,182,343,-37,397,-99,-110,197,296,339,-345,-55,-9,318,292
101545,-534,-242,-1320,-2,-168,390,-252,466,88,118,398,516,564,-175,36,904,599,-318,204,365,-45,275,-45,-89,229,296,245,-264,-32,2,335,305
101546,-575,-273,-1346,-70,-195,383,-270,478,84,102,370,544,551,-184,42,796,586,-299,219,370,-62,334,-18,-94,228,298,270,-213,-8,-10,330,265
101547,-668,-242,-1482,12,-170,370,-193,523,106,114,370,612,574,-154,49,781,705,-241,269,399,-67,429,115,-36,263,334,326,-34,89,95,391,331
101548,-631,-244,-1607,59,-165,349,-145,528,138,122,396,588,636,-137,49,812,747,-130,289,401,-49,448,176,4,276,335,386,19,120,143,431,388
101549,-585,-288,-1700,21,-163,336,-149,546,147,119,379,491,676,-145,13,775,709,-49,308,405,-84,437,221,41,263,305,393,201,199,183,464,382
101550,-653,-320,-1689,37,-205,274,-149,417,101,84,324,457,570,-181,-8,734,539,-309,245,369,-102,378,159,-24,247,275,389,-56,182,198,479,406
101551,-686,-346,-1682,-31,-214,196,-216,399,76,49,257,446,532,-215,-37,701,409,-328,212,312,-112,308,75,-51,199,250,328,-143,117,142,421,367
101552,-697,-301,-1548,-49,-204,272,-241,394,77,61,236,445,530,-217,-12,780,427,-347,199,329,-82,255,33,-80,182,238,268,-180,38,39,340,264
101553,-740,-368,-1564,6,-201,321,-272,388,65,66,271,454,484,-236,-4,768,408,-377,160,336,-93,182,-95,-139,170,225,282,-410,-107,-22,343,320
101554,-707,-342,-1580,8,-197,289,-267,389,76,74,321,494,480,-249,-43,764,464,-327,161,314,-135,215,-44,-146,148,211,315,-429,-137,-65,262,161
101555,-630,-317,-1403,6,-213,236,-237,336,68,31,281,483,460,-271,-78,710,365,-337,122,247,-160,202,-115,-194,93,139,203,-364,-197,-189,34,-83
101556,-563,-296,-1390,14,-191,229,-221,298,50,41,286,756,434,-267,-60,748,345,-314,127,272,-135,210,-102,-182,122,203,311,-336,-155,-130,109,13
101557,-606,-259,-1464,-15,-206,255,-214,310,54,44,273,816,441,-242,-51,950,572,-330,150,313,-95,251,44,-156,162,259,409,-299,-62,-68,206,137
101558,-643,-267,-1436,-83,-209,319,-176,415,67,56,255,532,505,-210,-70,1078,597,-328,147,306,-92,172,101,-137,148,241,345,-286,-67,-40,207,59
101559,-659,-262,-1471,-84,-186,310,-144,403,78,59,325,510,546,-206,-50,1009,611,-281,155,308,-116,102,129,-126,151,186,220,-301,-62,-32,226,16
101560,-642,-283,-1471,-62,-173,217,-178,407,69,41,333,467,524,-230,-82,929,556,-324,126,279,-171,194,102,-177,133,172,182,-332,-102,-73,253,128
101561,-630,-277,-1502,-79,-191,162,-203,344,61,48,323,308,532,-223,-58,759,555,-363,119,277,-144,328,46,-190,147,217,215,-339,-99,21,393,396
101562,-604,-290,-1536,-84,-184,186,-202,376,99,93,330,290,589,-180,8,674,594,-300,180,327,-70,443,12,-89,218,296,404,-41,48,214,615,666
101563,-627,-373,-1536,-114,-211,220,-220,324,54,61,335,282,529,-204,-13,676,509,-362,145,327,-42,433,-89,-111,201,313,509,-72,55,249,656,803
101564,-668,-400,-1514,-65,-184,268,-190,381,44,74,354,390,434,-226,-22,731,461,-372,152,330,-75,392,-102,-126,180,267,383,-109,22,112,414,398
101565,-622,-391,-1483,-3,-181,240,-173,427,57,70,285,479,420,-250,-43,716,478,-364,137,287,-161,381,-89,-138,142,160,167,-111,-85,-112,59,-118
101566,-654,-406,-1510,-24,-199,258,-190,355,60,55,304,465,450,-256,-39,677,495,-362,100,273,-164,324,-161,-172,129,162,147,-321,-128,-88,127,25
101567,-637,-322,-1569,-18,-190,273,-278,372,70,94,327,445,483,-242,-53,718,521,-312,107,278,-145,285,-57,-157,131,152,132,-209,-154,-170,40,18
101568,-664,-337,-1689,-22,-208,299,-387,397,75,78,323,329,507,-256,-58,733,558,-314,121,270,-142,189,6,-144,133,166,160,-120,-141,-149,76,41
101569,-717,-381,-1751,-55,-220,307,-342,406,72,31,314,213,518,-279,-65,615,522,-238,111,256,-136,80,13,-132,117,178,249,-59,-90,-108,123,22
101570,-685,-316,-1645,-31,-214,308,-260,428,68,55,348,75,555,-274,-65,568,353,-179,109,258,-131,107,-150,-171,118,176,278,-337,-184,-135,110,41
101571,-660,-248,-1631,22,-203,273,-218,436,83,72,338,-4,545,-253,-56,661,360,-373,111,285,-117,147,-154,-162,133,198,248,-416,-169,-105,163,174
101572,-704,-286,-1606,28,-209,272,-274,364,79,81,292,-63,512,-258,-57,674,372,-337,106,276,-123,62,-28,-141,129,179,194,-399,-195,-137,140,119
101573,-686,-316,-1542,-22,-228,248,-306,331,89,80,234,38,466,-237,-41,761,239,-295,136,311,-80,41,-42,-135,156,213,274,-519,-236,-145,150,85
101574,-653,-366,-1549,-85,-281,171,-362,293,47,32,139,-21,435,-254,-76,707,108,-313,131,292,-107,95,-57,-133,149,210,286,-492,-177,-116,167,59
101575,-666,-302,-1505,-61,-246,203,-299,291,30,49,176,-64,460,-249,-63,648,319,-320,123,286,-106,176,-74,-111,160,220,274,-401,-122,-78,208,136
101576,-660,-168,-1460,90,-173,278,-138,368,91,109,269,-97,504,-210,-17,702,513,-339,162,334,-92,272,-26,-83,209,264,282,-278,-31,23,342,374
101577,-715,-183,-1530,88,-187,338,-126,389,78,85,289,-162,491,-237,-41,668,446,-388,107,324,-127,299,-126,-132,181,236,322,-339,-52,58,425,543
101578,-659,-190,-1559,28,-178,321,-131,370,63,89,319,-192,476,-237,-28,683,437,-395,118,314,-112,271,-160,-134,171,246,343,-347,-41,93,435,563
101579,-546,-144,-1488,36,-147,281,-134,412,94,73,321,-226,481,-258,-64,678,401,-415,130,294,-175,229,-168,-153,147,189,177,-312,-106,-31,208,-22
101580,-505,-131,-1459,31,-151,259,-119,393,94,47,300,-187,465,-286,-71,706,359,-436,79,271,-193,256,-156,-156,113,178,176,-364,-159,-107,157,17
101581,-539,-160,-1468,-49,-188,223,-152,320,33,3,269,-199,391,-318,-132,590,332,-459,32,192,-291,252,-136,-226,50,68,16,-428,-255,-235,-38,-67
101582,-613,-178,-1555,-69,-184,241,-188,345,24,11,248,-300,390,-311,-137,565,251,-490,65,192,-300,241,-124,-213,72,81,41,-386,-198,-153,48,-41
101583,-662,-158,-1578,-38,-186,247,-198,311,28,40,252,-99,357,-307,-111,535,317,-379,67,196,-248,194,-91,-177,99,117,139,-348,-157,-170,50,-118
101584,-650,-137,-1637,10,-165,286,-193,318,40,24,283,-133,376,-298,-120,615,321,-366,61,223,-226,68,-56,-176,89,130,193,-372,-132,-111,168,100
101585,-667,-151,-1607,12,-192,262,-200,370,36,19,262,-324,424,-312,-122,691,241,-445,71,209,-204,-23,-44,-155,77,123,168,-461,-136,-60,217,135
101586,-571,-84,-1537,19,-182,292,-193,322,56,64,278,-181,431,-278,-81,657,225,-375,99,241,-165,172,-36,-116,127,185,264,-174,-59,-25,265,191
101587,-420,-43,-1436,10,-118,334,-151,330,61,88,327,-214,452,-245,-20,740,415,-352,138,290,-71,191,-70,-113,148,230,471,-207,-55,-101,122,94
101588,-344,-74,-1383,40,-113,325,-123,373,71,64,317,-304,454,-275,-41,754,300,-385,110,288,-73,124,-181,-165,104,169,401,-563,-226,-288,-51,-261
101589,-343,-80,-1392,16,-161,375,-132,375,62,69,291,-302,449,-288,-87,709,180,-404,96,278,-94,185,-212,-192,92,182,344,-604,-241,-181,167,28
101590,-394,-101,-1398,74,-145,418,-160,401,59,71,248,-423,462,-270,-78,719,303,-393,99,272,-106,289,-189,-175,97,176,295,-525,-210,-128,251,296
101591,-432,-263,-1400,96,-176,471,-209,396,55,63,202,-413,463,-299,-109,682,265,-391,65,243,-153,145,-170,-189,89,120,182,-408,-241,-190,142,102
101592,-433,-301,-1379,94,-173,420,-239,420,64,47,241,-439,491,-312,-105,624,226,-404,70,211,-188,139,-130,-209,56,115,100,-591,-237,-190,90,-99
101593,-415,-157,-1468,80,-153,348,-162,385,92,29,261,-463,532,-284,-109,648,361,-384,83,204,-192,171,-52,-191,63,91,-8,-585,-240,-232,-1,-290
101594,-414,-70,-1573,72,-182,288,-191,371,82,22,193,-461,557,-293,-117,522,429,-396,69,178,-250,102,-111,-190,47,55,-56,-471,-229,-233,-11,-257
101595,-438,-111,-1670,70,-201,182,-239,369,76,-1,168,-527,529,-304,-137,472,365,-409,57,176,-310,108,-211,-181,53,51,-35,-416,-191,-179,77,-75
101596,-456,-165,-1677,44,-192,230,-235,428,63,4,208,-525,453,-305,-149,445,317,-420,58,195,-312,110,-219,-194,80,68,6,-391,-200,-177,56,-101
101597,-500,-177,-1636,57,-155,254,-256,527,83,44,286,-434,428,-279,-94,358,351,-383,97,244,-252,167,-184,-166,107,118,68,-325,-112,-100,172,27
101598,-466,-117,-1454,86,-132,271,-249,486,109,61,326,-397,460,-277,-94,426,438,-366,122,280,-242,158,-163,-139,132,130,114,-341,-139,-86,231,104
101599,-405,-114,-1350,84,-132,265,-296,329,97,52,333,-324,455,-284,-63,568,450,-373,103,270,-205,123,-181,-162,125,151,142,-381,-157,-98,232,113
101600,-443,-63,-1409,103,-135,262,-314,306,69,58,238,-263,439,-300,-38,666,493,-356,95,257,-191,106,-117,-160,119,151,128,-337,-90,-75,224,69
101601,-519,-19,-1527,98,-173,294,-309,323,47,53,135,-299,441,-322,-61,728,454,-365,77,228,-184,-34,-45,-153,93,122,89,-298,-86,-67,160,80
101602,-477,2,-1520,134,-160,310,-214,418,105,87,279,-304,492,-282,-27,789,459,-286,110,274,-98,-53,54,-94,137,167,174,-215,-76,-24,216,159
101603,-395,-17,-1469,136,-167,284,-164,469,105,61,310,-290,537,-291,-43,662,344,-109,114,260,-100,20,27,-101,121,180,206,-434,-192,-127,173,118
101604,-358,-20,-1408,103,-146,342,-160,395,84,103,327,-189,500,-286,-44,631,412,-271,93,228,-134,210,131,-131,117,158,193,-433,-205,-129,152,120
101605,-315,-19,-1356,78,-125,397,-172,422,112,112,332,-142,520,-252,-45,674,420,-294,132,256,-131,411,167,-102,140,194,233,-323,-140,-71,245,287
101606,-331,-58,-1376,11,-164,396,-187,419,74,51,289,-328,514,-302,-64,674,257,-262,102,234,-142,344,37,-109,137,157,194,-264,-123,-40,253,238
101607,-322,-29,-1384,39,-163,413,-133,463,76,83,336,-400,523,-287,-31,681,362,-247,118,241,-145,284,-13,-103,136,149,165,-181,-106,-104,133,1
