,Fp1,Fp2,F7,F3,Fz,F4,F8,FC5,FC1,FC2,FC6,T7,C3,Cz,C4,T8,TP9,CP5,CP1,CP2,CP6,TP10,P7,P3,Pz,P4,P8,PO9,O1,Oz,O2,PO10
64361,-107,-6,-28,-502,-245,446,264,13,-150,-47,-44,-46,62,-169,303,306,-66,-123,98,309,-60,435,177,233,89,411,402,-148,179,-36,228,-32
64362,-147,-43,-70,-471,-239,522,250,29,-151,-33,-54,-91,60,-179,295,307,-67,-126,90,311,-69,386,123,211,86,396,407,-171,124,-89,165,-55
64363,-51,-17,-99,-517,-214,576,278,-35,-154,6,-24,-92,77,-163,329,308,-46,-138,96,326,-51,439,88,209,95,398,405,-163,117,-115,174,-120
64364,-89,-64,-133,-485,-237,585,259,-221,-145,-5,-51,-68,52,-182,324,285,-7,-188,97,289,-71,446,76,198,76,379,397,-121,114,-117,172,-112
64365,-197,-136,-145,-435,-249,569,199,56,-152,-29,-99,-92,59,-208,258,257,-33,-158,64,264,-108,365,77,188,58,363,407,-102,101,-114,140,-124
64366,-217,-177,-99,-433,-238,526,174,133,-129,-66,-126,-96,64,-216,235,224,-96,-131,57,221,-152,265,67,175,26,335,327,-145,82,-152,83,-198
64367,-136,-173,14,-422,-229,473,177,105,-131,-72,-138,-61,73,-232,225,198,-67,-165,47,205,-165,308,62,153,4,317,273,-185,61,-173,95,-170
64368,-136,-144,73,-439,-244,485,159,117,-135,-64,-129,-42,69,-222,221,191,10,-184,44,207,-162,353,79,167,-25,295,264,-152,81,-141,109,-124
64369,-169,-138,69,-440,-270,487,133,80,-128,-64,-145,-27,83,-197,224,173,-31,-127,47,209,-210,325,124,200,-24,272,275,-161,110,-149,96,-66
64370,-126,-90,98,-437,-256,465,124,79,-118,-70,-143,-32,104,-190,228,162,-50,-125,30,212,-207,302,134,183,-31,264,357,-190,55,-201,77,-119
64371,-102,-97,94,-444,-268,443,119,71,-131,-102,-191,-36,76,-222,189,131,-52,-160,35,199,-220,320,145,157,-53,235,340,-191,62,-206,60,-278
64372,-123,-149,74,-417,-243,468,89,135,-107,-75,-223,-9,110,-212,199,126,-21,-135,40,205,-223,344,162,178,-22,260,278,-150,83,-167,90,-209
64373,-188,-192,-18,-395,-237,420,8,201,-114,-90,-231,-36,89,-228,189,173,-56,-137,23,172,-269,289,109,157,-48,216,135,-155,42,-204,28,-237
64374,-191,-176,-5,-375,-234,426,15,144,-106,-76,-206,-87,77,-208,187,203,-75,-140,20,171,-261,286,80,136,-60,217,113,-176,40,-199,47,-244
64375,-185,-150,48,-402,-260,452,77,54,-125,-76,-178,-76,59,-216,188,172,-43,-136,22,168,-245,271,104,132,-81,221,145,-176,43,-205,41,-274
64376,-167,-240,18,-432,-271,401,92,68,-133,-99,-180,-28,64,-219,193,58,-5,-124,15,174,-238,249,132,144,-84,227,141,-110,95,-166,50,-231
64377,-154,-269,2,-438,-259,417,139,87,-140,-107,-171,-30,69,-193,186,-43,25,-124,11,190,-226,227,147,157,-56,251,195,-86,107,-121,101,-194
64378,-168,-257,1,-449,-261,448,116,50,-141,-110,-188,-14,69,-198,192,74,10,-120,22,207,-218,303,127,146,-51,244,236,-137,72,-150,106,-183
64379,-138,-161,85,-405,-254,499,163,94,-120,-101,-163,-20,85,-198,191,145,-6,-132,22,197,-201,301,115,151,-33,278,236,-142,82,-162,88,-211
64380,-97,-110,36,-452,-231,510,160,127,-136,-99,-153,-58,65,-200,207,144,-8,-137,0,176,-199,286,79,136,-58,270,201,-157,54,-181,50,-243
64381,-143,-143,-43,-414,-232,482,164,197,-127,-92,-151,-64,52,-225,197,164,18,-166,-8,172,-191,251,60,112,-53,252,195,-181,75,-167,63,-216
64382,-198,-207,-111,-392,-230,475,182,138,-123,-105,-157,-105,62,-260,194,139,27,-181,-14,168,-205,256,57,97,-65,236,215,-198,71,-147,55,-197
64383,-134,-207,-90,-436,-202,506,175,-151,-142,-72,-111,14,51,-238,213,182,4,-141,-6,185,-195,349,118,146,-42,276,283,-161,117,-106,119,-95
64384,-98,-150,-16,-453,-229,509,143,44,-152,-66,-112,28,34,-246,204,176,-22,-164,-2,191,-174,367,133,151,-60,291,295,-149,114,-93,124,-97
64385,-58,-86,80,-462,-244,510,178,149,-139,-76,-124,40,71,-256,207,140,-5,-109,11,180,-192,360,158,177,-55,298,282,-97,138,-76,137,-134
64386,-33,-73,113,-434,-228,530,209,96,-133,-58,-97,39,86,-233,236,132,15,-96,37,191,-189,384,205,215,-27,303,291,-92,172,-43,150,-101
64387,-27,-94,72,-459,-229,525,194,76,-126,-83,-91,32,64,-244,223,99,0,-116,19,167,-194,378,174,194,-37,279,274,-162,113,-120,80,-200
64388,-11,-100,87,-454,-215,500,210,77,-123,-70,-102,6,65,-259,203,77,-18,-115,13,176,-187,348,149,177,-57,268,237,-161,99,-142,69,-250
64389,-41,-116,159,-428,-212,496,196,46,-125,-60,-120,-15,70,-250,200,112,-10,-105,34,181,-190,318,161,189,-43,290,252,-167,127,-98,111,-191
64390,-124,-59,209,-426,-210,513,225,23,-120,-65,-119,-114,50,-260,226,171,22,-129,13,166,-175,337,107,177,-63,281,297,-197,129,-64,133,-154
64391,-193,-17,50,-412,-216,504,221,91,-122,-77,-136,-134,23,-266,202,157,34,-236,-18,138,-173,325,18,129,-98,267,291,-249,113,-89,118,-140
64392,-154,-7,47,-377,-222,503,189,96,-138,-70,-132,-171,28,-269,186,143,-51,-244,-31,133,-180,297,34,118,-105,272,278,-250,83,-122,122,-187
64393,-170,-11,120,-391,-229,495,184,81,-136,-68,-131,-67,39,-273,200,163,-96,-172,-30,142,-192,276,109,128,-92,260,257,-239,79,-159,92,-274
64394,-184,-82,46,-439,-242,487,178,55,-148,-75,-136,-63,39,-254,199,155,-95,-191,-17,154,-203,310,87,124,-77,251,235,-264,73,-144,93,-223
64395,-167,-127,14,-459,-252,449,164,45,-166,-102,-135,-65,45,-242,185,134,-83,-183,-21,151,-211,280,101,137,-66,271,238,-265,87,-116,108,-224
64396,-134,-82,26,-388,-247,457,179,91,-139,-86,-134,-53,33,-237,192,138,-91,-177,-4,153,-213,276,97,140,-65,269,246,-270,122,-93,122,-204
64397,-88,-33,-14,-394,-248,469,204,167,-118,-90,-132,-59,49,-236,178,123,-117,-146,-2,148,-218,249,89,163,-51,252,223,-314,105,-86,136,-172
64398,-70,8,-30,-409,-262,433,197,147,-126,-116,-127,-48,54,-248,167,110,-95,-147,-5,150,-233,200,123,169,-52,240,189,-308,65,-157,75,-210
64399,-120,1,-91,-401,-246,519,187,154,-108,-101,-143,-47,74,-219,181,118,-61,-125,13,166,-210,228,143,169,-37,251,225,-241,104,-135,73,-208
64400,-92,2,-90,-432,-251,517,192,114,-116,-108,-141,-62,57,-227,172,132,-50,-147,3,146,-224,194,45,160,-46,245,276,-196,85,-129,49,-195
64401,-37,10,-42,-403,-234,555,225,106,-126,-70,-135,-50,55,-240,189,161,-40,-140,6,161,-192,215,10,180,-31,287,316,-176,99,-101,101,-167
64402,-114,-73,-17,-382,-226,562,163,80,-129,-81,-145,-81,50,-247,172,134,-46,-132,2,158,-182,251,15,183,-39,288,277,-160,116,-52,121,-171
64403,-101,-180,-29,-392,-208,586,183,97,-127,-66,-124,-70,50,-236,201,140,7,-101,23,157,-191,224,54,191,-21,298,225,-112,145,-45,125,-186
64404,-100,-252,-38,-423,-231,545,156,92,-138,-79,-136,-89,38,-241,180,164,41,-142,1,139,-211,201,42,168,-45,274,216,-134,120,-87,103,-258
64405,-166,-221,20,-466,-256,526,182,27,-169,-76,-133,-62,36,-234,168,147,-3,-142,2,164,-237,270,47,182,-36,256,210,-153,96,-74,118,-259
64406,-160,-184,90,-499,-253,550,183,5,-176,-62,-138,-47,38,-226,174,124,-31,-96,30,182,-218,276,91,224,2,301,255,-142,137,-59,145,-238
64407,-108,-128,152,-494,-248,555,188,-11,-158,-55,-131,-74,58,-210,207,130,20,-71,58,207,-195,310,108,247,27,375,283,-107,190,24,225,-124
64408,-53,-43,195,-537,-253,549,179,7,-171,-51,-113,-73,65,-195,221,150,89,-100,70,237,-176,370,122,261,41,410,334,-91,233,68,290,-91
64409,-59,15,174,-506,-268,515,168,-13,-181,-34,-137,-23,39,-220,226,159,102,-115,49,243,-162,346,157,273,60,406,372,-56,241,56,303,-113
64410,-73,55,139,-460,-248,514,175,54,-164,-28,-108,-20,86,-209,225,167,96,-58,89,264,-138,384,230,298,76,437,393,-19,252,109,354,-50
64411,-76,13,90,-463,-253,505,163,61,-165,-53,-135,25,75,-235,200,156,104,-64,65,232,-177,401,196,288,53,438,380,-36,263,122,379,-1
64412,-64,16,68,-452,-256,501,165,51,-167,-62,-148,68,92,-232,206,233,122,-34,71,233,-155,393,215,295,53,436,372,14,297,153,401,-23
64413,-45,19,164,-419,-234,533,185,98,-139,-49,-116,127,114,-217,217,243,152,-14,86,229,-158,398,248,321,69,444,397,10,326,173,405,-7
64414,-61,-8,145,-415,-241,527,200,148,-123,-66,-106,120,117,-225,214,188,179,-13,67,219,-164,404,268,335,70,443,401,42,343,194,428,29
64415,-157,-91,96,-400,-251,517,138,183,-140,-69,-119,100,95,-233,206,51,171,-19,69,224,-173,414,265,311,58,442,399,39,325,174,403,58
64416,-141,-106,136,-387,-235,548,148,106,-131,-70,-171,120,110,-224,220,-27,190,21,92,252,-178,403,296,326,71,448,427,70,353,160,403,42
64417,-123,-113,211,-390,-234,557,164,-71,-124,-72,-171,151,129,-199,196,122,215,51,113,243,-197,396,328,334,80,430,424,34,345,165,391,5
64418,-49,-76,266,-343,-227,584,184,190,-109,-57,-89,48,137,-198,212,184,258,7,114,250,-159,431,280,328,99,440,473,11,359,167,390,10
64419,-49,-87,165,-436,-232,592,185,238,-120,-51,-92,7,135,-206,216,168,274,38,117,250,-146,458,290,345,96,447,477,54,379,187,419,22
64420,-148,-171,62,-480,-244,569,136,100,-145,-49,-111,63,104,-230,210,135,198,39,110,246,-153,465,334,366,79,430,448,76,391,195,391,31
64421,-158,-160,-5,-449,-234,569,68,175,-122,-62,-113,147,132,-213,208,152,125,65,131,268,-147,444,346,373,113,445,448,107,417,187,378,7
64422,-143,-149,-129,-438,-246,582,116,259,-129,-59,-119,96,131,-209,220,145,147,44,113,255,-147,401,313,372,134,465,434,101,420,169,364,15
64423,-182,-143,-98,-431,-256,619,107,262,-139,-61,-140,67,104,-230,218,157,154,9,100,237,-160,363,283,346,111,422,405,47,397,147,310,-75
64424,-153,-55,56,-378,-235,632,136,162,-144,-58,-107,56,118,-237,208,195,182,28,113,249,-122,366,279,326,118,424,401,34,352,131,269,-126
64425,-85,-1,156,-412,-232,566,216,124,-122,-41,-99,95,142,-200,228,228,234,42,125,292,-77,422,267,337,129,478,445,56,334,122,269,-132
64426,-77,9,219,-446,-231,542,243,185,-118,-41,-86,150,126,-191,245,251,256,40,127,292,-55,422,300,361,137,471,463,64,358,128,302,-24
64427,-59,21,208,-398,-238,539,254,247,-112,-26,-64,192,174,-215,254,262,206,68,132,294,-43,437,347,369,137,461,527,77,375,141,308,77
64428,-86,-23,214,-419,-253,520,247,157,-146,-47,-48,177,162,-232,247,254,178,73,110,290,-35,404,340,353,129,470,578,22,329,109,266,-17
64429,-80,3,208,-391,-219,506,256,159,-117,-40,-17,177,130,-232,262,249,240,80,122,298,-19,460,327,346,127,482,500,19,344,103,263,2
64430,-2,29,221,-372,-208,478,246,171,-118,-53,-40,109,124,-241,262,219,234,37,99,267,-50,481,292,341,114,474,418,29,328,105,266,59
64431,19,-39,262,-365,-194,552,251,168,-113,-39,-47,151,143,-230,255,232,179,43,105,282,-62,470,298,326,118,470,407,-34,294,96,247,-12
64432,0,-26,275,-403,-205,550,245,185,-119,-32,-86,156,128,-216,234,269,164,31,91,288,-77,449,289,297,101,434,408,-63,229,29,203,-82
64433,1,27,289,-419,-223,570,257,176,-128,-35,-71,136,126,-220,252,274,185,14,80,260,-83,438,267,297,70,419,364,-46,197,6,166,-124
64434,48,52,320,-449,-226,529,269,137,-153,-56,-87,121,116,-229,219,214,204,7,50,221,-102,411,269,275,42,396,333,-27,201,-17,158,-139
64435,72,66,343,-472,-222,530,302,105,-140,-58,-81,151,91,-230,225,255,231,14,60,224,-111,389,267,265,38,382,343,-23,198,-10,145,-139
64436,18,52,317,-453,-225,564,316,84,-148,-42,-49,165,66,-234,237,283,212,-6,35,235,-112,409,227,262,31,385,372,-71,164,-20,152,-115
64437,-38,16,248,-486,-225,559,301,47,-161,-55,-69,123,61,-246,226,238,202,-21,28,217,-111,404,229,267,25,380,378,-35,173,0,153,-98
64438,-64,7,185,-465,-225,573,254,88,-155,-77,-98,71,64,-258,199,225,187,-33,18,194,-134,379,224,230,12,355,349,-56,149,-34,140,-160
64439,-89,-18,178,-440,-214,588,193,129,-143,-73,-96,41,65,-245,192,249,170,-27,37,188,-140,379,195,226,10,344,364,-106,123,-37,143,-173
64440,-140,-110,143,-430,-239,574,205,102,-143,-91,-108,15,34,-238,168,221,142,-87,0,164,-148,329,146,182,-26,317,349,-123,103,-55,130,-137
64441,-195,-155,150,-443,-257,557,177,54,-154,-83,-114,20,6,-241,173,208,109,-122,-26,193,-145,413,142,153,-34,322,392,-114,100,-68,129,-119
64442,-206,-103,117,-455,-251,591,163,100,-158,-63,-91,41,-4,-220,207,300,133,-73,-15,202,-115,399,158,194,-18,329,381,-141,109,-97,110,-145
64443,-131,-63,54,-472,-252,600,221,88,-169,-50,-58,62,21,-202,241,365,168,-89,13,223,-113,392,183,181,0,364,400,-98,123,-34,150,-125
64444,-122,-65,61,-484,-243,548,216,-111,-172,-59,-79,80,20,-201,232,322,141,-55,1,233,-105,398,239,175,4,378,415,-57,135,-32,154,-94
64445,-150,-99,70,-465,-258,505,187,102,-165,-87,-105,40,20,-221,230,174,48,-70,-20,197,-123,374,212,169,-1,350,356,-128,122,-54,144,-101
64446,-191,-137,12,-458,-254,538,175,254,-151,-77,-122,45,34,-232,225,49,88,-106,-4,203,-145,374,156,155,-17,333,355,-152,118,-55,104,-203
64447,-174,-160,-3,-435,-248,544,217,243,-125,-84,-74,86,57,-226,224,171,150,-85,1,228,-128,386,133,156,7,357,390,-135,85,-92,106,-244
64448,-174,-196,82,-460,-261,542,221,182,-172,-88,-63,71,26,-261,226,294,146,-115,-13,226,-106,339,97,164,-1,371,421,-98,102,-75,158,-116
64449,-132,-111,115,-514,-257,588,268,104,-189,-70,-34,75,18,-273,244,277,131,-88,-7,200,-89,306,154,169,9,377,446,-51,117,-76,156,-99
64450,-146,-171,50,-466,-263,597,237,144,-164,-71,-51,-3,46,-257,249,279,151,-72,-2,206,-84,380,167,162,1,371,449,-37,145,-62,169,-76
64451,-183,-308,-57,-457,-259,592,193,180,-172,-54,-79,10,22,-257,252,255,104,-94,2,210,-99,345,160,159,0,368,495,-102,129,-68,147,-108
64452,-217,-314,-16,-450,-267,572,167,140,-163,-58,-91,-76,10,-237,248,255,53,-107,1,208,-82,285,152,154,-2,370,529,-224,62,-125,128,-184
64453,-255,-229,83,-485,-261,556,174,-1,-171,-70,-127,-54,30,-227,239,268,26,-101,-5,212,-67,291,150,152,-18,360,460,-252,50,-134,102,-195
64454,-197,-101,102,-517,-243,528,191,-16,-167,-60,-92,3,33,-232,220,266,61,-91,-1,191,-95,326,185,163,-21,349,332,-196,30,-163,91,-242
64455,-144,-20,170,-504,-262,544,200,32,-171,-58,-76,14,42,-225,234,247,80,-86,11,182,-93,383,134,178,-13,357,335,-154,49,-115,128,-148
64456,-117,0,158,-491,-250,554,200,26,-164,-42,-85,46,55,-223,223,225,100,-70,11,199,-112,392,108,171,-28,372,365,-140,37,-90,135,-130
64457,-91,-15,151,-543,-255,559,163,7,-188,-67,-91,17,18,-248,212,231,80,-146,-25,180,-118,363,58,130,-34,341,376,-193,-8,-138,111,-210
64458,-101,-66,167,-562,-269,524,158,16,-194,-81,-95,2,1,-270,204,218,35,-164,-54,160,-125,353,40,136,-58,338,361,-214,6,-132,114,-213
64459,-101,-78,171,-488,-221,470,183,44,-151,-69,-111,58,48,-279,202,229,35,-87,-14,183,-130,376,116,172,-36,370,380,-134,69,-82,123,-201
64460,-70,-50,208,-449,-190,500,226,68,-144,-71,-122,68,51,-268,197,213,52,-65,-4,166,-137,418,125,180,-24,359,384,-119,53,-136,113,-118
64461,-22,-45,150,-463,-192,501,205,79,-153,-80,-137,74,47,-276,186,205,48,-93,-11,156,-142,408,121,178,-23,328,379,-191,30,-162,90,-176
64462,-4,-76,122,-434,-188,502,212,106,-155,-84,-130,67,49,-262,190,190,66,-96,-5,168,-159,361,135,197,-25,331,358,-189,60,-143,81,-213
64463,-45,-111,68,-436,-209,490,175,117,-158,-92,-126,36,42,-274,163,165,48,-90,-26,138,-189,341,158,180,-38,319,316,-186,64,-116,78,-188
64464,-68,-121,86,-453,-218,483,173,88,-156,-98,-140,21,36,-276,150,158,27,-104,-31,136,-202,339,168,191,-42,299,309,-186,82,-129,78,-195
64465,-74,-87,141,-456,-197,461,165,119,-142,-91,-151,23,46,-280,160,176,71,-73,-18,152,-216,311,207,219,-57,280,300,-129,111,-152,65,-216
64466,-77,-32,133,-440,-201,506,158,167,-151,-87,-108,28,44,-296,172,185,70,-68,-41,140,-190,321,228,208,-64,278,324,-79,116,-127,69,-173
64467,-87,-95,115,-422,-233,615,146,128,-169,-92,-96,-5,14,-300,191,204,63,-94,-30,144,-180,302,177,170,-64,302,377,-116,91,-130,89,-112
64468,-77,-145,167,-431,-234,595,142,30,-170,-87,-100,-34,-2,-286,199,189,82,-146,-28,144,-184,293,154,155,-47,288,361,-160,66,-164,39,-196
64469,-81,-174,125,-459,-213,581,130,-5,-168,-72,-88,-31,6,-279,200,155,75,-139,-24,124,-192,289,144,148,-63,257,348,-144,57,-176,46,-238
64470,-111,-136,71,-474,-219,589,113,-195,-168,-71,-119,-17,-8,-278,171,168,51,-125,-30,123,-205,282,144,126,-67,266,322,-166,38,-177,31,-249
64471,-117,-88,99,-423,-189,591,113,-54,-157,-81,-154,-98,9,-281,171,257,125,-148,-12,135,-181,320,104,147,-49,281,331,-111,74,-159,60,-244
64472,-85,-98,-18,-368,-167,575,77,219,-119,-59,-153,-90,39,-276,199,356,44,-113,-3,156,-163,337,105,159,-34,303,339,-138,62,-155,80,-211
64473,-118,-155,-38,-371,-174,581,78,153,-120,-75,-110,-47,40,-300,195,288,-68,-136,-25,167,-175,328,110,157,-26,312,372,-187,61,-152,62,-218
64474,-133,-111,29,-383,-190,572,104,131,-133,-92,-65,-29,28,-311,208,210,12,-171,-19,175,-149,388,114,176,-12,337,427,-123,92,-99,115,-169
64475,-93,-51,29,-363,-181,538,114,155,-125,-68,-83,-47,43,-284,215,83,33,-118,13,197,-102,395,167,200,21,357,454,-69,124,-65,157,-153
64476,-98,-114,31,-387,-191,542,169,103,-119,-76,-98,-42,47,-271,205,123,38,-100,8,210,-117,404,176,185,20,336,446,-81,103,-99,132,-183
64477,-146,-111,92,-373,-194,540,179,71,-122,-53,-123,-34,37,-283,195,231,42,-132,23,194,-118,399,166,179,19,350,395,-103,96,-86,150,-157
64478,-149,-43,99,-354,-186,527,171,97,-125,-71,-145,-28,49,-276,175,190,11,-132,4,188,-135,350,169,172,10,326,356,-112,112,-107,117,-181
64479,-115,-3,46,-387,-203,496,185,141,-131,-90,-156,-30,54,-276,190,162,7,-130,-2,174,-171,334,182,175,-17,317,354,-128,125,-135,89,-257
64480,-128,-16,-44,-425,-200,517,161,180,-112,-77,-136,-78,51,-300,197,183,30,-128,17,185,-161,323,180,201,-15,330,364,-99,135,-113,108,-213
64481,-97,-61,23,-495,-217,519,123,49,-146,-64,-157,-75,29,-297,193,170,59,-145,-18,175,-171,324,154,182,-10,318,350,-135,130,-112,115,-236
64482,-56,-59,134,-426,-196,558,158,39,-138,-56,-129,-89,57,-274,212,176,95,-107,-4,189,-155,342,174,208,9,375,379,-90,132,-74,146,-180
64483,-111,-55,121,-443,-215,538,115,52,-139,-56,-156,-45,36,-291,194,187,153,-142,3,196,-144,358,174,207,-6,378,409,-24,171,-49,161,-151
64484,-73,-80,154,-436,-189,552,110,55,-117,-34,-156,-19,44,-282,222,207,136,-123,10,219,-107,388,200,214,23,417,471,-30,206,-12,164,-222
64485,-41,-95,181,-450,-200,534,120,52,-117,-44,-168,-17,52,-291,207,193,46,-77,13,222,-113,377,202,218,21,401,457,-114,183,-59,127,-245
64486,-93,-44,88,-424,-194,539,125,97,-116,-36,-120,-34,77,-300,222,194,98,-91,9,201,-106,394,212,222,15,373,438,-94,187,-30,149,-210
64487,-120,-14,22,-367,-188,545,129,178,-98,-35,-113,-35,85,-274,239,217,133,-89,21,210,-99,426,223,223,33,397,470,-32,227,-23,166,-145
64488,-85,-88,33,-399,-196,511,130,105,-124,-40,-115,-17,56,-276,220,211,87,-72,29,227,-95,385,218,228,25,397,453,-55,200,-51,148,-120
64489,-28,-134,87,-425,-188,505,126,26,-149,-39,-118,-100,68,-305,216,185,92,-73,24,187,-127,337,208,223,10,376,410,-72,186,-66,102,-174
64490,8,-88,157,-414,-181,525,142,55,-116,-22,-112,-28,75,-284,213,192,122,-61,35,202,-115,338,240,237,9,379,391,-62,218,-34,120,-218
64491,-37,-106,131,-409,-187,510,126,64,-111,-32,-133,-10,85,-267,225,186,99,-68,43,211,-110,367,231,232,29,377,425,-67,233,-1,170,-132
64492,-40,-119,90,-417,-205,489,91,46,-124,-51,-139,23,68,-261,223,182,100,-54,36,216,-108,374,213,235,37,403,455,-71,251,9,213,-99
64493,-94,-107,29,-465,-231,484,86,-156,-133,-65,-166,30,11,-272,196,161,73,-108,19,212,-137,335,171,211,30,381,422,-124,188,-49,140,-192
64494,-172,-123,-27,-431,-240,486,71,68,-127,-82,-174,-13,40,-282,197,142,19,-110,20,205,-156,333,171,202,34,382,471,-128,136,-101,102,-178
64495,-166,-100,18,-400,-211,498,82,195,-99,-62,-167,-12,65,-271,215,176,22,-89,27,214,-102,359,202,224,17,396,559,-104,133,-119,99,-189
64496,-71,-133,76,-408,-202,492,60,82,-95,-77,-200,15,58,-270,218,182,70,-70,26,212,-84,375,225,236,18,380,522,-37,152,-95,126,-245
64497,-38,-261,63,-439,-226,406,27,85,-116,-107,-206,10,46,-279,199,150,56,-59,14,192,-125,353,226,222,5,358,416,-59,176,-68,130,-164
64498,-72,-341,34,-379,-217,479,17,73,-131,-91,-208,-1,54,-273,190,168,26,-49,38,195,-161,362,220,231,16,351,333,-148,172,-84,115,-124
64499,-155,-264,47,-377,-200,525,5,58,-110,-81,-214,8,69,-274,207,249,62,-49,58,210,-129,371,229,242,35,379,428,-151,172,-70,133,-138
64500,-186,-135,76,-389,-196,539,9,46,-118,-75,-187,-17,81,-277,226,312,61,-42,41,215,-117,345,220,241,38,375,473,-99,205,-49,167,-149
64501,-167,-107,85,-439,-206,546,17,65,-129,-88,-170,-21,73,-283,212,237,64,-35,36,206,-142,386,226,236,31,374,428,-105,179,-38,139,-165
64502,-95,-133,94,-462,-210,474,43,132,-131,-62,-164,-7,56,-283,199,130,76,-90,29,208,-130,326,211,213,18,346,373,-119,153,-44,142,-168
64503,-77,-132,123,-469,-209,446,78,69,-127,-75,-183,27,80,-263,198,5,86,-87,43,209,-126,401,251,236,23,365,400,-63,195,-24,187,-117
64504,-107,-157,111,-496,-233,424,61,5,-139,-115,-217,-33,65,-267,145,64,58,-61,36,177,-192,442,244,220,-5,342,385,-76,205,-8,195,-60
64505,-106,-210,120,-466,-243,419,62,50,-132,-92,-215,-36,82,-259,158,141,94,-49,54,204,-174,401,273,238,25,354,413,-22,242,19,198,-90
64506,-142,-237,65,-473,-233,402,69,88,-114,-86,-215,1,74,-235,173,131,135,-46,52,210,-154,400,273,247,38,365,402,0,207,-3,186,-145
64507,-158,-193,-10,-447,-245,411,63,145,-114,-90,-210,-50,83,-254,170,144,189,-15,57,197,-141,421,214,242,38,386,417,-49,198,3,175,-126
64508,-138,-142,15,-418,-214,436,93,188,-114,-112,-159,-61,101,-261,181,140,259,-35,75,217,-132,394,204,242,55,398,429,1,225,5,176,-148
64509,-147,-110,3,-407,-228,441,56,188,-91,-104,-160,6,94,-257,165,139,181,-73,63,220,-153,357,227,229,48,380,387,-64,185,-23,146,-172
64510,-158,-147,63,-417,-238,443,3,136,-97,-100,-167,79,111,-269,147,176,41,1,76,212,-158,366,326,253,36,372,379,-56,206,-15,156,-120
