,Fp1,Fp2,F7,F3,Fz,F4,F8,FC5,FC1,FC2,FC6,T7,C3,Cz,C4,T8,TP9,CP5,CP1,CP2,CP6,TP10,P7,P3,Pz,P4,P8,PO9,O1,Oz,O2,PO10
74516,-132,-98,428,0,-119,94,-181,335,50,-146,-153,-513,131,-95,-157,-174,62,12,35,-54,-240,98,94,104,46,41,145,-203,130,-202,-303,30
74517,-136,-118,402,-38,-111,114,-159,328,23,-143,-131,-500,123,-80,-135,-150,34,-3,51,-27,-223,200,58,113,64,74,207,-180,167,-146,-215,169
74518,-152,-112,386,-41,-119,128,-124,304,21,-136,-110,-483,112,-88,-130,-107,9,7,38,-24,-211,239,33,102,76,85,214,-246,134,-125,-175,217
74519,-159,-103,368,-52,-99,135,-125,301,44,-134,-102,-475,124,-60,-131,-82,30,45,66,-17,-199,312,96,131,103,110,246,-145,192,-53,-134,273
74520,-165,-108,355,-52,-103,134,-136,305,19,-121,-102,-483,135,-57,-132,-134,28,58,71,-6,-196,275,133,158,125,101,260,-33,275,-7,-106,352
74521,-182,-112,353,-59,-105,126,-148,296,22,-126,-125,-491,122,-66,-138,-164,11,65,81,-1,-212,120,166,166,130,110,271,14,319,21,-81,397
74522,-186,-114,339,-52,-123,123,-145,301,11,-130,-130,-481,132,-77,-155,-183,29,67,61,-18,-247,2,183,177,109,90,207,74,345,17,-117,234
74523,-165,-96,361,-52,-114,141,-146,295,21,-118,-120,-464,154,-54,-157,-142,73,76,71,-9,-237,91,178,178,118,94,215,92,310,-7,-152,218
74524,-174,-99,365,-40,-112,147,-153,287,12,-118,-115,-462,142,-65,-143,-136,78,72,70,-16,-219,203,130,164,113,78,227,14,245,-85,-180,243
74525,-167,-90,393,-30,-82,151,-128,304,36,-105,-102,-446,148,-72,-126,-114,90,68,75,-22,-217,232,138,178,100,66,226,-56,244,-87,-198,153
74526,-154,-105,417,-44,-122,124,-128,302,18,-113,-123,-473,132,-88,-147,-130,86,40,42,-36,-239,265,118,146,88,53,235,-85,217,-93,-193,142
74527,-154,-102,404,-27,-115,149,-109,324,31,-130,-101,-472,144,-81,-114,-97,94,43,55,-18,-202,305,137,161,98,83,255,-40,256,-73,-178,158
74528,-120,-65,412,-7,-103,163,-112,349,44,-125,-92,-447,163,-68,-119,-110,110,60,71,-22,-196,172,184,184,126,96,252,-36,246,-66,-172,144
74529,-126,-66,401,6,-100,132,-115,350,32,-121,-109,-458,182,-82,-132,-129,98,74,84,-14,-203,13,186,192,136,110,222,6,264,-6,-91,215
74530,-125,-68,401,11,-86,153,-91,354,38,-113,-110,-445,181,-81,-118,-70,95,82,88,-2,-187,94,198,216,152,125,230,69,342,50,-45,266
74531,-132,-87,407,14,-88,129,-133,351,47,-121,-120,-435,178,-81,-126,-77,114,73,82,-14,-209,160,213,215,125,103,214,53,290,-45,-150,198
74532,-142,-94,412,17,-96,135,-157,350,60,-133,-125,-437,193,-76,-122,-108,107,74,100,-7,-196,163,204,210,125,107,239,20,269,-61,-149,296
74533,-127,-92,413,15,-83,138,-136,347,75,-128,-111,-450,209,-65,-126,-126,102,83,111,-7,-198,148,186,216,131,91,236,21,273,-100,-171,255
74534,-106,-77,428,40,-81,152,-124,394,77,-126,-101,-434,229,-40,-99,-92,96,99,133,12,-171,192,208,234,148,114,256,43,301,-46,-135,260
74535,-105,-106,418,40,-86,143,-138,387,80,-127,-99,-433,238,-46,-116,-90,112,124,143,29,-154,193,253,266,173,149,266,163,383,51,-75,245
74536,-134,-109,383,10,-98,114,-170,348,62,-144,-125,-473,221,-64,-107,-138,90,98,124,11,-181,178,211,244,158,142,264,45,346,25,-59,271
74537,-127,-89,398,20,-102,122,-149,353,70,-139,-107,-474,209,-49,-87,-110,103,91,126,13,-160,222,172,228,171,154,296,-142,274,-21,-33,367
74538,-140,-100,395,18,-107,121,-141,358,72,-141,-108,-504,197,-63,-114,-120,58,73,116,7,-175,218,143,226,154,143,278,-111,288,-19,-107,309
74539,-124,-109,393,18,-106,128,-141,361,79,-145,-87,-507,204,-75,-101,-125,0,52,104,1,-184,189,135,218,147,124,240,-55,296,-37,-124,329
74540,-118,-108,422,24,-89,153,-126,376,78,-134,-89,-484,207,-65,-79,-133,16,80,112,26,-178,104,162,242,173,141,221,8,349,43,-74,225
74541,-120,-84,430,34,-78,145,-130,378,69,-131,-103,-511,187,-77,-99,-153,-6,77,110,7,-226,107,144,219,124,92,137,33,339,-47,-252,-33
74542,-127,-94,413,44,-87,127,-125,373,70,-142,-99,-500,205,-79,-101,-164,-56,48,78,-31,-230,138,117,165,88,57,111,-3,241,-195,-354,-80
74543,-150,-123,389,29,-87,140,-165,361,60,-142,-108,-518,204,-82,-98,-186,-43,54,59,-26,-236,82,110,173,82,46,103,4,230,-182,-344,-65
74544,-161,-130,349,23,-98,143,-159,365,67,-128,-113,-538,211,-80,-128,-202,-10,67,85,-25,-239,83,123,191,108,63,96,-16,276,-119,-324,-35
74545,-178,-151,361,19,-112,114,-191,362,68,-135,-121,-535,189,-97,-140,-220,-36,35,58,-21,-273,70,64,151,64,31,62,-174,185,-200,-375,-140
74546,-165,-131,390,11,-89,126,-207,371,69,-142,-120,-527,179,-92,-113,-193,-80,29,61,-19,-282,63,25,126,63,31,81,-247,114,-262,-359,-73
74547,-125,-102,428,31,-74,160,-166,385,70,-105,-100,-486,216,-53,-102,-174,-57,47,69,-4,-239,68,39,141,101,63,120,-218,133,-220,-342,8
74548,-119,-123,422,20,-82,163,-180,372,59,-112,-100,-471,213,-62,-108,-192,-50,80,72,-5,-247,36,48,144,105,79,120,-214,167,-188,-321,-9
74549,-126,-99,437,12,-84,157,-158,368,53,-122,-94,-488,212,-63,-106,-179,-31,55,62,-12,-241,75,32,142,95,49,93,-274,132,-221,-390,-193
74550,-112,-90,452,8,-80,151,-145,378,51,-116,-92,-510,207,-72,-100,-153,-18,58,55,-16,-227,137,53,140,81,59,90,-233,115,-241,-373,-165
74551,-117,-90,393,6,-84,150,-138,370,54,-133,-77,-503,188,-67,-93,-138,-42,44,69,-6,-190,206,41,144,90,103,154,-274,144,-185,-286,7
74552,-99,-71,406,3,-105,159,-126,370,45,-124,-82,-495,185,-86,-102,-154,-11,37,56,-17,-190,75,42,139,93,98,157,-300,120,-194,-265,83
74553,-79,-51,447,36,-83,172,-106,371,56,-111,-79,-480,199,-77,-84,-154,6,34,58,-1,-216,-7,54,125,83,85,148,-288,107,-216,-304,87
74554,-69,-60,467,67,-62,189,-94,394,65,-99,-56,-467,203,-53,-68,-140,27,61,61,16,-212,18,96,157,100,100,161,-206,172,-180,-268,72
74555,-59,-65,471,36,-82,175,-111,371,54,-125,-63,-487,167,-91,-101,-157,1,18,43,-10,-233,57,46,108,46,70,150,-316,41,-318,-343,49
74556,-92,-79,435,13,-84,168,-132,370,42,-123,-91,-539,148,-99,-133,-179,-23,0,19,-15,-245,82,30,99,65,68,152,-300,61,-296,-366,56
74557,-95,-77,437,31,-81,191,-100,372,57,-110,-87,-547,163,-75,-97,-180,-40,24,45,-8,-222,62,68,134,76,75,154,-188,156,-178,-251,130
74558,-93,-87,449,42,-78,186,-121,378,65,-84,-85,-545,167,-68,-79,-196,-43,34,54,-11,-208,27,68,157,81,98,168,-162,174,-145,-190,223
74559,-119,-80,427,35,-82,173,-158,363,49,-114,-100,-558,154,-85,-114,-254,-30,20,24,-26,-238,-48,45,142,50,57,133,-177,147,-193,-266,190
74560,-100,-51,434,49,-90,177,-149,370,55,-115,-93,-540,149,-92,-120,-237,-39,11,20,-55,-262,-25,28,119,29,32,103,-280,119,-240,-345,57
74561,-83,-53,404,26,-76,170,-132,355,46,-110,-100,-546,143,-106,-119,-221,-50,-9,5,-65,-266,4,13,100,16,-3,89,-297,96,-262,-387,5
74562,-86,-39,402,25,-63,189,-113,343,33,-99,-96,-563,146,-106,-145,-215,-97,-25,-4,-63,-298,39,36,105,-4,-36,61,-203,113,-269,-408,-126
74563,-84,-55,428,25,-58,180,-154,353,44,-95,-100,-531,122,-105,-132,-239,-102,-13,11,-59,-309,61,42,110,15,-24,55,-225,106,-268,-416,-124
74564,-104,-70,408,9,-72,185,-150,328,25,-105,-95,-554,81,-110,-139,-237,-79,-35,-4,-80,-291,65,39,93,13,-32,56,-265,97,-254,-391,-42
74565,-100,-57,420,5,-73,188,-135,347,40,-99,-82,-562,93,-106,-139,-200,-82,-35,-7,-91,-292,101,15,71,17,-25,78,-298,67,-265,-375,-2
74566,-71,-33,463,32,-44,202,-102,354,47,-89,-63,-534,116,-104,-121,-175,-83,-27,-7,-70,-296,72,42,95,10,-19,85,-264,61,-270,-357,55
74567,-87,-50,451,23,-73,199,-102,353,17,-88,-69,-547,118,-107,-118,-196,-109,-17,7,-48,-268,-2,59,103,17,19,124,-268,98,-204,-260,163
74568,-92,-76,451,15,-65,190,-138,353,21,-88,-67,-542,129,-109,-100,-200,-93,7,2,-41,-229,14,61,90,38,44,149,-292,82,-202,-242,205
74569,-76,-55,456,26,-67,204,-118,347,37,-82,-51,-527,120,-104,-110,-204,-117,-4,-4,-47,-255,12,34,97,39,20,131,-251,98,-218,-281,144
74570,-67,-54,487,39,-61,201,-112,368,31,-92,-80,-518,127,-105,-126,-208,-99,0,-3,-55,-274,-2,44,128,27,0,93,-145,175,-186,-328,-26
74571,-81,-74,466,17,-69,173,-128,349,16,-118,-111,-518,94,-123,-128,-236,-59,-6,-37,-72,-302,14,54,95,2,-42,40,-111,163,-239,-433,-215
74572,-87,-69,447,26,-75,183,-129,351,19,-117,-78,-506,104,-126,-129,-194,-36,-6,-30,-56,-266,53,75,95,19,2,77,-113,147,-249,-392,-116
74573,-67,-46,467,34,-72,201,-82,362,15,-95,-40,-522,106,-107,-98,-161,-14,-10,-13,-44,-242,103,60,105,34,1,98,-161,100,-259,-363,-32
74574,-50,-12,464,38,-75,223,-36,367,26,-73,-8,-502,114,-90,-58,-134,12,10,-6,-18,-205,190,53,108,44,48,154,-255,87,-238,-290,105
74575,-44,-10,476,43,-70,219,-18,354,45,-80,6,-480,121,-85,-42,-94,1,55,20,20,-154,257,82,133,93,122,209,-274,124,-191,-241,181
74576,-43,-10,463,6,-69,232,-24,362,44,-61,11,-472,153,-64,-29,-80,12,63,52,35,-134,229,112,155,114,129,252,-186,187,-135,-201,188
74577,-69,-26,462,-6,-88,214,-29,338,24,-50,-2,-485,140,-63,-39,-103,6,61,47,32,-137,102,121,168,125,133,258,-159,194,-129,-194,200
74578,-80,-40,462,0,-87,209,-38,322,20,-67,6,-489,136,-83,-52,-101,16,61,46,14,-152,138,123,161,97,105,176,-112,189,-176,-294,12
74579,-90,-20,420,-14,-90,204,-21,309,0,-66,4,-497,128,-78,-56,-72,21,73,59,22,-180,190,167,184,117,104,152,11,263,-121,-280,-35
74580,-86,-20,423,-22,-71,191,-19,306,17,-70,-5,-477,135,-67,-32,-36,41,78,77,47,-149,228,201,211,153,165,218,63,325,-26,-185,92
74581,-100,-48,415,-41,-92,182,-40,285,20,-94,0,-462,143,-56,-38,-70,32,59,80,44,-116,175,174,196,168,184,240,-13,298,-41,-153,187
74582,-107,-35,430,-45,-90,196,-26,292,14,-95,6,-462,134,-46,-32,-74,55,36,80,56,-88,176,180,188,164,186,271,-93,223,-95,-146,240
74583,-98,4,425,-37,-99,219,7,293,21,-72,1,-474,126,-45,-12,-35,56,33,65,55,-77,245,191,181,171,183,305,-136,213,-90,-123,279
74584,-102,-20,401,-53,-111,209,-9,280,0,-87,-11,-497,113,-66,-34,-40,35,22,42,30,-111,246,184,143,129,165,315,-124,207,-99,-152,300
74585,-91,-42,415,-41,-115,192,-10,296,13,-98,-13,-485,117,-75,-61,-51,34,12,37,8,-130,264,157,127,94,133,301,-85,185,-171,-234,305
74586,-117,-23,380,-40,-107,194,-11,287,6,-107,-14,-517,122,-65,-54,-54,42,13,52,21,-132,227,133,140,105,127,284,-55,204,-129,-195,213
74587,-122,-13,366,-51,-101,197,-19,270,8,-97,-13,-560,100,-71,-61,-77,49,0,29,15,-143,183,113,126,93,118,261,-70,213,-119,-206,149
74588,-129,-8,361,-70,-104,176,-16,240,-7,-118,-19,-584,78,-101,-76,-65,31,-27,0,-3,-137,206,94,105,78,111,276,-93,173,-144,-234,189
74589,-137,-11,361,-66,-110,186,-36,226,-11,-99,-25,-573,81,-83,-81,-19,33,-15,16,1,-113,231,119,121,98,118,293,-58,180,-127,-212,188
74590,-134,-17,379,-45,-96,187,-23,233,21,-101,-19,-550,81,-67,-53,1,26,-8,17,34,-93,237,144,135,100,141,319,-60,206,-119,-195,210
74591,-98,-13,391,-58,-103,200,-10,238,22,-105,-3,-555,81,-60,-45,-5,1,2,33,27,-88,278,135,142,101,135,330,-77,213,-114,-193,237
74592,-122,-32,391,-46,-88,207,-7,265,14,-102,-4,-556,107,-70,-22,-7,0,-10,41,35,-85,274,109,134,119,157,326,-42,222,-95,-155,235
74593,-117,-30,395,-45,-88,195,-4,278,9,-96,-23,-558,100,-72,-11,-7,-8,-13,43,53,-63,270,115,135,113,168,313,-63,213,-109,-166,239
74594,-153,-51,366,-60,-89,186,-23,263,0,-90,-27,-582,118,-48,-8,-18,-18,-17,47,64,-71,262,130,139,128,180,308,-65,226,-107,-184,264
74595,-178,-55,352,-78,-94,182,-40,240,1,-90,-39,-601,125,-39,-25,-21,-48,-28,39,58,-103,249,105,134,113,176,311,-61,209,-131,-198,233
74596,-145,-27,352,-86,-94,215,-21,247,19,-80,-17,-598,104,-51,-19,-4,-61,-38,38,38,-98,275,88,116,106,150,310,-38,202,-124,-201,226
74597,-156,-56,329,-95,-113,197,-37,234,-5,-71,-30,-618,91,-77,-43,-13,-22,-46,11,20,-125,279,72,94,87,140,282,-48,192,-139,-231,208
74598,-159,-81,318,-75,-93,184,-60,214,-6,-98,-26,-626,93,-71,-61,-38,-22,-54,1,14,-151,254,47,78,73,120,266,-91,175,-171,-236,190
74599,-150,-54,319,-56,-73,216,-70,220,14,-92,-11,-625,100,-66,-38,-45,-71,-56,26,41,-125,257,45,73,79,129,295,-122,163,-157,-237,203
74600,-150,-28,323,-54,-73,199,-57,227,7,-96,-20,-588,109,-57,-33,-32,-41,-44,39,26,-114,231,64,84,89,127,283,-99,164,-157,-220,221
74601,-111,1,339,-43,-62,213,-26,243,7,-111,-23,-590,126,-78,-39,-38,-33,-40,37,11,-124,225,72,69,83,131,279,-82,160,-140,-208,212
74602,-91,-4,358,-31,-68,232,-26,241,31,-99,10,-577,133,-76,-29,-43,-32,-34,20,24,-113,187,81,65,88,143,278,-64,178,-121,-192,220
74603,-64,-1,387,-13,-57,242,-21,249,46,-70,19,-566,128,-64,-21,-27,-35,-29,23,25,-121,193,63,78,91,122,285,-53,184,-112,-191,226
74604,-48,-2,358,-15,-55,244,-18,246,27,-76,18,-590,121,-87,-19,-29,-56,-36,14,9,-125,198,60,54,67,115,277,-64,194,-133,-211,224
74605,-63,2,358,-39,-70,230,-11,238,25,-96,5,-600,108,-88,-26,-65,-69,-72,-9,-9,-135,172,64,43,48,95,258,-102,178,-154,-230,187
74606,-87,-2,346,-45,-73,216,-49,240,38,-108,-30,-617,113,-108,-52,-88,-59,-74,8,-16,-159,164,55,54,36,82,255,-100,162,-140,-227,178
74607,-83,0,329,-39,-81,205,-68,204,26,-125,-32,-630,109,-120,-53,-96,-84,-82,-14,-25,-161,143,41,39,36,75,227,-89,157,-152,-216,172
74608,-67,3,341,-23,-73,237,-55,211,31,-98,-11,-661,101,-127,-51,-79,-86,-90,-24,-37,-165,181,23,33,18,67,231,-111,149,-165,-236,165
74609,-50,13,372,-21,-61,244,-51,249,40,-104,4,-633,107,-122,-38,-69,-71,-83,-26,-34,-149,194,44,31,30,70,244,-118,157,-156,-242,171
74610,-40,24,391,-21,-56,255,-45,250,43,-109,2,-605,92,-127,-48,-84,-82,-81,-32,-46,-167,153,57,24,24,58,208,-134,139,-167,-254,127
74611,-41,9,385,-3,-62,248,-70,232,33,-107,-17,-618,74,-129,-62,-103,-110,-76,-49,-45,-167,73,53,20,18,49,198,-152,130,-182,-258,120
74612,-52,-7,367,-16,-46,260,-72,233,19,-104,-7,-620,69,-131,-38,-97,-107,-87,-29,-38,-186,124,39,18,20,62,224,-161,138,-180,-249,160
74613,-62,26,366,-30,-43,251,-59,249,23,-88,-5,-605,71,-121,-42,-99,-99,-81,-33,-81,-201,104,29,19,-10,41,198,-186,104,-211,-275,116
74614,-73,4,371,-11,-63,246,-58,278,31,-89,-35,-601,94,-114,-71,-129,-61,-65,-19,-56,-189,78,22,15,12,43,200,-128,125,-196,-269,83
74615,-88,-22,379,-15,-62,241,-85,284,35,-99,-40,-578,92,-114,-72,-124,-35,-43,-13,-54,-185,105,24,48,8,33,222,-107,121,-198,-260,121
74616,-80,-12,405,11,-45,261,-91,324,50,-99,-31,-521,115,-101,-82,-132,-67,-30,-16,-50,-195,114,39,42,1,48,199,-128,117,-187,-274,132
74617,-81,-31,412,12,-49,245,-111,327,69,-96,-54,-526,138,-123,-104,-146,-56,-26,-19,-68,-199,115,70,45,30,36,201,-146,131,-185,-250,126
74618,-80,-41,411,26,-49,232,-125,336,77,-108,-60,-531,148,-132,-102,-139,-82,6,-14,-71,-214,101,107,67,15,33,207,-121,153,-209,-261,98
74619,-90,-40,404,29,-46,222,-115,342,60,-116,-66,-534,144,-136,-117,-144,-67,5,-16,-76,-238,102,96,55,0,17,181,-124,153,-198,-272,121
74620,-76,-14,393,28,-28,236,-105,340,58,-117,-58,-543,147,-129,-103,-144,-79,10,-4,-75,-220,133,126,60,14,36,199,-92,171,-163,-247,129
74621,-52,7,433,49,-39,247,-71,366,61,-107,-49,-519,156,-130,-116,-144,-66,28,7,-59,-207,150,135,99,39,47,228,-74,177,-139,-231,156
74622,-48,5,451,53,-26,249,-83,376,65,-104,-37,-495,176,-103,-106,-150,12,41,22,-44,-194,158,150,117,48,44,213,-53,190,-136,-227,153
74623,-58,0,456,56,-22,230,-91,359,76,-110,-45,-485,186,-105,-107,-163,43,49,27,-44,-199,159,163,122,36,62,204,-33,218,-138,-239,148
74624,-40,5,464,62,-33,231,-96,367,86,-111,-49,-463,188,-102,-103,-148,61,71,47,-47,-199,171,196,143,53,59,217,-5,245,-122,-228,165
74625,-57,-11,456,57,-47,222,-102,355,84,-117,-44,-457,172,-118,-104,-133,50,46,8,-67,-196,191,194,139,36,38,227,-11,228,-113,-224,169
74626,-41,2,470,70,-43,226,-90,358,76,-109,-41,-468,168,-138,-116,-152,41,47,5,-68,-184,180,177,130,29,51,226,-18,223,-123,-230,170
74627,-13,6,482,83,-13,256,-77,374,93,-106,-29,-491,160,-138,-123,-153,41,28,6,-68,-195,153,180,132,38,50,219,-32,213,-137,-228,158
74628,-23,8,493,93,-35,236,-101,397,92,-118,-49,-479,154,-146,-119,-175,39,19,-14,-87,-228,115,195,114,26,28,197,-43,204,-160,-240,144
74629,-42,0,480,98,-37,231,-96,390,97,-121,-66,-470,160,-145,-144,-172,41,23,8,-88,-217,103,190,109,22,15,184,-51,193,-166,-254,143
74630,-17,-3,490,93,-22,232,-80,407,91,-130,-65,-465,171,-133,-151,-175,32,34,3,-88,-212,134,165,110,26,26,194,-41,160,-165,-244,156
74631,-25,25,488,97,-25,250,-61,389,75,-129,-50,-457,144,-152,-143,-172,22,12,-16,-86,-211,156,135,87,13,16,196,-72,145,-189,-271,168
74632,-30,29,473,87,-25,255,-71,381,72,-133,-56,-447,142,-147,-137,-166,24,15,-26,-94,-229,168,145,98,18,21,197,-97,145,-197,-262,164
74633,-29,17,453,76,-22,227,-79,386,87,-121,-59,-454,149,-140,-142,-171,-1,26,-28,-84,-227,163,143,97,16,14,219,-94,134,-184,-250,157
74634,-50,1,411,72,-35,206,-113,357,65,-126,-84,-465,136,-154,-170,-179,-2,6,-50,-93,-242,164,133,82,-8,7,212,-106,135,-214,-288,134
74635,-47,26,429,81,-23,224,-75,369,77,-118,-72,-449,143,-139,-140,-157,43,21,-28,-84,-235,181,166,83,10,11,218,-88,145,-205,-282,146
74636,-31,17,480,65,-21,222,-80,385,77,-126,-80,-455,141,-135,-142,-160,57,31,-27,-78,-228,176,176,100,24,21,229,-60,157,-164,-260,132
74637,-16,17,511,72,-33,209,-80,406,64,-124,-75,-447,146,-131,-145,-159,46,37,-23,-86,-213,174,163,103,24,23,225,-44,154,-178,-265,170
74638,-7,38,521,67,-38,198,-73,407,66,-127,-67,-441,135,-140,-141,-161,66,36,-21,-84,-230,129,160,88,10,31,210,-60,149,-193,-282,178
74639,-20,2,529,69,-54,203,-104,440,75,-127,-65,-441,142,-133,-130,-162,100,50,0,-64,-213,164,198,111,16,56,241,46,185,-139,-248,188
74640,-26,-10,501,62,-42,199,-92,410,86,-104,-75,-431,163,-115,-105,-149,82,68,20,-49,-186,180,238,156,45,79,240,216,288,-64,-230,158
74641,-50,-36,447,40,-51,186,-116,401,81,-122,-88,-437,158,-102,-121,-159,25,95,25,-40,-193,144,321,186,68,91,231,463,457,73,-156,137
74642,-32,-12,487,53,-52,209,-94,396,79,-123,-77,-433,165,-103,-103,-139,-14,101,18,-40,-196,132,330,200,74,98,229,518,479,71,-151,134
74643,-62,-32,468,33,-62,205,-99,379,47,-108,-68,-452,139,-126,-119,-153,28,84,-4,-42,-205,101,297,176,48,70,205,478,476,77,-165,117
74644,-63,-21,483,35,-36,203,-85,394,69,-83,-65,-446,156,-104,-90,-141,93,81,6,-19,-179,138,264,155,60,91,238,322,360,0,-161,173
74645,-59,-8,497,44,-41,217,-94,383,48,-81,-70,-480,127,-104,-77,-137,24,14,-39,-50,-204,148,131,45,11,50,220,-63,80,-271,-306,141
74646,-84,-42,458,16,-76,216,-114,329,27,-118,-70,-504,79,-118,-110,-167,24,-41,-70,-72,-212,139,60,9,-18,23,198,-307,22,-265,-292,160
74647,-69,-32,469,23,-79,202,-94,343,31,-110,-71,-498,88,-126,-115,-175,70,-32,-61,-73,-187,144,75,31,-9,50,224,-334,60,-182,-223,205
74648,-48,-2,510,46,-49,210,-61,366,30,-109,-53,-470,103,-133,-114,-177,76,-16,-55,-57,-190,177,80,18,-10,66,261,-341,54,-190,-217,211
74649,-46,-2,518,28,-44,233,-29,366,32,-111,-30,-469,89,-140,-112,-154,73,-44,-79,-78,-185,213,55,-8,-23,65,270,-370,-36,-236,-215,255
74650,-42,11,517,52,-37,226,-22,399,34,-107,-43,-458,98,-143,-98,-111,110,-41,-77,-76,-178,220,61,-12,-35,64,275,-365,-79,-275,-224,258
74651,-39,6,518,18,-52,204,-37,390,15,-136,-50,-469,85,-158,-132,-104,109,-40,-77,-81,-182,193,44,-22,-62,54,235,-343,-67,-307,-297,196
74652,0,51,544,50,-41,237,-23,414,47,-112,-25,-421,111,-132,-108,-81,127,-11,-65,-80,-171,251,49,-13,-45,52,248,-348,-88,-357,-326,181
74653,-39,3,534,42,-60,205,-146,401,35,-109,-69,-436,113,-134,-126,-106,124,9,-47,-64,-173,247,43,6,-20,77,282,-367,-89,-352,-292,220
74654,-93,-86,479,24,-53,178,-245,396,68,-112,-102,-430,137,-102,-96,-101,126,46,-2,-15,-131,244,66,59,27,125,328,-295,12,-228,-200,241
74655,-163,-133,407,6,-81,151,-213,370,57,-124,-74,-443,151,-109,-89,-49,74,20,-13,-13,-121,289,40,41,25,129,357,-433,-80,-297,-240,266
74656,-192,-129,388,11,-71,174,-136,366,56,-116,-45,-429,136,-97,-74,-21,94,51,3,-16,-97,326,82,66,30,148,394,-354,-54,-295,-195,349
74657,-139,-46,411,6,-55,196,-6,389,67,-113,1,-423,139,-95,-76,15,109,78,10,-11,-74,317,151,100,43,165,416,-206,80,-156,-124,369
74658,-39,54,450,24,-46,226,70,392,54,-126,24,-441,134,-126,-78,6,87,57,-13,-42,-100,315,146,76,19,120,380,-222,78,-182,-161,335
74659,28,113,509,42,-39,222,62,383,30,-135,0,-442,108,-142,-108,-46,63,4,-69,-71,-128,310,97,58,-13,74,324,-223,39,-230,-230,250
74660,28,98,481,38,-53,222,42,336,31,-133,3,-491,110,-130,-91,-38,27,13,-59,-66,-135,284,85,51,-12,90,325,-169,91,-204,-190,300
74661,-25,62,437,19,-59,230,38,319,55,-120,-10,-522,119,-122,-77,-47,1,32,-45,-52,-126,258,115,72,11,111,342,-125,133,-170,-160,273
74662,-30,57,411,9,-70,225,11,306,36,-136,-23,-546,94,-140,-108,-72,-6,-16,-59,-91,-175,207,46,17,-8,80,289,-280,4,-269,-258,203
74663,-20,77,419,8,-72,218,-19,316,43,-137,-16,-520,91,-144,-103,-77,-47,-18,-62,-76,-167,162,22,29,-12,61,265,-275,17,-266,-261,209
74664,-19,64,399,-1,-71,208,-14,302,34,-128,-23,-554,107,-132,-100,-89,-61,-9,-40,-72,-165,159,23,41,5,66,270,-191,46,-250,-247,204
74665,-54,76,358,0,-72,239,14,296,33,-115,-13,-580,115,-109,-87,-98,-80,-22,-40,-64,-175,143,22,29,-10,45,227,-212,-1,-301,-295,128
