,Fp1,Fp2,F7,F3,Fz,F4,F8,FC5,FC1,FC2,FC6,T7,C3,Cz,C4,T8,TP9,CP5,CP1,CP2,CP6,TP10,P7,P3,Pz,P4,P8,PO9,O1,Oz,O2,PO10
173287,10,149,336,53,-129,518,142,200,-113,263,165,265,185,-240,103,54,263,245,-94,20,-70,499,421,-47,-3,283,373,307,276,205,178,67
173288,21,131,411,73,-141,527,160,201,-111,267,202,271,206,-237,119,81,276,283,-81,40,-29,497,452,-18,-6,296,375,336,284,195,164,31
173289,-45,143,321,75,-125,562,157,66,-93,298,232,309,190,-229,149,131,302,246,-84,66,-4,461,420,-22,-8,324,413,333,259,161,173,10
173290,-85,58,171,67,-122,546,146,103,-92,309,234,270,152,-244,155,136,256,156,-129,55,16,453,338,-65,-21,313,411,249,218,120,137,7
173291,-80,-100,82,49,-142,515,121,279,-96,294,230,205,162,-258,133,107,159,176,-127,40,-15,401,297,-84,-26,296,393,209,187,60,71,-54
173292,-51,-109,150,22,-147,511,141,192,-113,304,231,183,146,-240,163,133,183,149,-119,69,0,434,315,-84,-29,314,395,243,217,76,105,-24
173293,-60,-17,282,36,-133,522,181,93,-133,312,244,171,108,-240,175,153,235,124,-140,67,6,511,313,-99,-31,314,393,242,199,68,92,-3
173294,-71,84,299,35,-137,562,188,110,-123,325,264,134,129,-223,180,170,174,116,-140,78,25,428,329,-112,-12,318,409,231,206,63,87,-26
173295,-108,85,291,14,-141,497,130,98,-123,318,242,200,128,-214,187,178,109,182,-119,92,42,573,402,-81,13,348,440,281,228,90,103,14
173296,-63,140,297,-69,-143,449,106,62,-134,301,237,212,125,-220,171,150,163,162,-110,92,20,558,394,-76,14,344,432,278,209,117,94,-15
173297,-36,206,290,-87,-161,522,111,75,-129,326,290,229,141,-188,194,178,180,152,-99,91,43,524,382,-66,20,344,427,296,225,111,103,-16
173298,-116,166,235,-44,-183,564,86,65,-135,312,300,219,146,-190,205,189,148,140,-110,111,48,550,353,-75,16,338,425,270,234,111,107,-13
173299,-104,151,218,-29,-166,586,132,77,-145,315,320,174,159,-187,197,209,158,145,-96,121,45,571,342,-79,42,353,415,250,223,123,104,-24
173300,-82,154,269,-44,-173,586,163,16,-149,325,317,210,142,-178,175,227,153,137,-87,106,40,569,349,-78,65,357,428,243,213,112,113,-15
173301,-57,159,323,-72,-154,613,203,-10,-145,339,325,177,155,-170,189,239,195,160,-52,140,64,596,390,-32,99,376,500,295,267,145,147,54
173302,-66,145,309,-77,-172,583,220,29,-137,318,310,225,143,-177,177,227,176,189,-41,130,59,607,388,-18,89,361,505,304,250,151,149,55
173303,-58,158,294,-45,-170,568,210,117,-127,312,299,247,183,-163,172,211,177,187,-26,124,26,632,392,-17,72,349,480,296,256,146,130,70
173304,-76,141,280,-29,-179,568,221,163,-113,307,297,258,202,-166,158,211,168,204,-32,98,15,615,386,-29,83,334,492,283,231,129,124,40
173305,-82,160,246,-6,-184,556,222,129,-101,301,277,246,212,-181,136,186,155,182,-41,102,8,587,355,-37,82,323,524,261,219,113,111,16
173306,-111,127,245,13,-175,519,182,85,-99,296,235,206,187,-180,95,178,129,158,-37,69,-21,449,333,-47,51,267,493,231,209,100,102,-5
173307,-157,108,239,14,-180,473,119,86,-131,269,180,174,171,-197,66,100,79,145,-66,23,-84,481,301,-75,-5,213,421,169,150,31,3,-181
173308,-201,110,251,40,-176,486,122,111,-97,283,163,148,178,-193,49,143,77,140,-62,9,-89,484,266,-95,-12,196,384,129,128,5,-8,-172
173309,-193,31,252,7,-176,491,102,86,-115,273,168,121,169,-194,31,135,96,142,-66,0,-134,385,225,-112,-39,157,306,90,101,-25,-29,-134
173310,-128,-97,199,-32,-189,465,46,67,-129,244,137,101,141,-199,25,39,-6,81,-80,-23,-168,284,182,-139,-60,125,256,51,54,-63,-73,-190
173311,-114,-109,170,-62,-200,423,26,36,-135,242,118,67,134,-190,0,-91,-47,31,-86,-22,-183,222,152,-158,-50,120,225,4,28,-86,-114,-194
173312,-181,-93,120,-98,-215,380,-12,9,-140,242,65,69,120,-183,-20,-256,-55,27,-95,-28,-239,187,132,-161,-56,100,188,-7,34,-81,-118,-226
173313,-213,-81,49,-123,-233,391,-62,-29,-139,218,-5,27,112,-179,-49,-205,-78,-5,-113,-43,-267,152,86,-182,-91,89,173,-14,28,-91,-140,-324
173314,-250,-102,25,-144,-232,396,-104,-60,-151,238,-67,0,96,-205,-50,-156,-153,2,-115,-65,-287,87,94,-196,-118,60,144,-30,-1,-141,-187,-370
173315,-282,-161,11,-119,-225,375,-127,-73,-147,239,-43,-39,73,-209,-68,-185,-173,-40,-139,-93,-284,16,61,-214,-130,44,109,-64,-15,-149,-181,-363
173316,-284,-176,25,-107,-212,403,-113,-45,-149,233,-19,-81,42,-201,-79,-208,-173,-94,-184,-113,-307,-44,9,-263,-164,-5,62,-96,-46,-186,-204,-410
173317,-299,-132,-13,-104,-222,422,-121,-54,-167,235,-14,-109,3,-230,-79,-251,-193,-124,-223,-142,-351,-191,-24,-294,-208,-29,-6,-111,-84,-229,-257,-439
173318,-294,-110,-115,-95,-225,395,-152,-91,-182,212,10,-137,-8,-252,-93,-297,-222,-180,-256,-184,-382,-74,-41,-320,-244,-58,-14,-137,-134,-248,-281,-439
173319,-274,-92,-70,-103,-205,378,-145,-137,-172,203,33,-119,-30,-265,-93,-291,-294,-152,-249,-173,-376,-27,-36,-321,-207,-33,2,-217,-149,-251,-280,-439
173320,-234,-144,-31,-129,-191,364,-141,-156,-161,215,66,-163,-22,-279,-81,-241,-303,-133,-230,-153,-339,-176,-2,-302,-195,5,-1,-223,-114,-229,-257,-451
173321,-216,-174,-16,-98,-182,287,-90,-276,-147,206,15,-83,2,-260,-43,-192,-208,-86,-199,-133,-290,-69,51,-262,-160,56,67,-87,-30,-149,-175,-371
173322,-217,-131,52,-37,-177,354,-69,-183,-125,215,-57,-70,20,-246,-59,-170,-149,-80,-193,-118,-290,-11,119,-234,-131,82,86,-35,-16,-97,-139,-338
173323,-172,-45,86,-12,-182,407,-56,115,-109,215,-50,-65,71,-232,-58,-154,-151,-49,-166,-100,-278,2,112,-214,-113,99,98,-65,-29,-107,-111,-334
173324,-176,14,100,-58,-178,374,-35,99,-100,211,-3,-120,99,-212,-28,-118,-151,-22,-138,-80,-236,13,100,-205,-90,118,157,-15,23,-82,-97,-336
173325,-166,32,145,-107,-183,403,-12,24,-113,197,40,-183,82,-221,-21,-84,-103,-41,-141,-51,-207,32,64,-197,-82,141,163,-7,11,-89,-101,-359
173326,-169,55,189,-88,-186,395,-3,-16,-105,186,76,56,68,-225,-19,-69,-68,-17,-134,-43,-194,86,104,-175,-43,177,169,30,38,-67,-51,-291
173327,-126,38,230,-99,-192,392,2,13,-118,195,94,104,112,-224,2,-66,-70,30,-120,-19,-171,150,141,-143,-36,191,158,31,75,-12,-1,-242
173328,-74,38,263,-99,-217,395,0,-13,-134,205,94,127,117,-217,8,-74,-79,47,-120,-18,-170,178,161,-132,-44,211,198,66,102,29,23,-220
173329,-130,34,159,-54,-216,376,-3,-40,-121,208,83,131,116,-225,-3,-83,-46,58,-114,-16,-162,214,197,-124,-32,241,254,93,128,37,41,-197
173330,-115,25,87,-62,-223,391,1,51,-112,213,105,124,130,-218,23,-33,-64,71,-118,-4,-146,161,192,-109,-30,252,259,80,140,34,47,-206
173331,-70,3,131,-46,-197,419,3,117,-102,254,130,119,167,-202,51,-12,-47,88,-103,24,-93,135,230,-100,-7,267,265,117,167,57,67,-188
173332,-127,-107,119,-42,-215,407,-81,108,-112,217,78,81,141,-215,34,-33,-48,93,-106,16,-89,327,203,-84,-14,264,270,74,149,42,48,-182
173333,-123,-209,120,-44,-201,452,-80,50,-111,226,114,97,135,-224,63,-16,-29,101,-96,45,-84,298,207,-72,-11,281,303,63,158,51,73,-130
173334,-152,-232,113,-105,-201,452,-73,-49,-129,247,99,39,121,-219,59,-41,-46,93,-106,34,-103,280,196,-89,-13,272,304,70,151,45,65,-134
173335,-190,-167,145,-91,-199,436,-75,-92,-172,228,84,31,92,-248,37,-73,-71,50,-130,-6,-105,283,142,-125,-50,254,279,19,122,0,19,-201
173336,-199,-90,152,-65,-204,430,-90,-46,-162,215,92,46,75,-247,42,-70,-71,17,-150,-2,-113,242,127,-144,-40,247,290,24,109,1,7,-230
173337,-226,-93,140,-63,-201,415,-60,-13,-128,224,87,61,86,-233,31,-51,-117,20,-147,-19,-125,194,121,-168,-65,234,312,-15,50,-52,-29,-276
173338,-269,-91,45,-76,-213,376,-55,-75,-141,218,52,35,53,-241,26,-76,-198,-9,-175,-32,-125,195,83,-195,-89,217,293,-57,15,-86,-54,-293
173339,-292,-62,50,-71,-211,327,-101,-99,-148,201,37,-11,43,-241,29,-65,-236,-28,-187,-14,-133,89,33,-206,-98,204,266,-113,-10,-128,-65,-318
173340,-317,-54,99,-38,-210,341,-97,-64,-129,217,52,-11,64,-212,30,-64,-203,-17,-162,-2,-141,149,28,-198,-81,206,250,-102,-17,-117,-83,-311
173341,-324,-86,62,-53,-212,334,-123,-60,-142,192,37,-32,47,-221,25,-28,-191,-75,-186,-29,-140,193,-13,-230,-89,177,213,-101,-29,-131,-98,-326
173342,-305,-41,3,-41,-210,361,-45,-58,-145,201,82,-58,50,-227,44,55,-223,-60,-191,-10,-141,135,-18,-217,-94,201,222,-117,-46,-137,-112,-310
173343,-274,23,10,-5,-207,370,-8,-26,-117,224,101,-42,60,-236,44,23,-290,-23,-188,-12,-127,148,0,-241,-114,179,233,-153,-84,-149,-133,-318
173344,-243,36,12,-23,-195,382,-18,-13,-135,220,112,-51,39,-247,44,-73,-240,-117,-216,-31,-134,133,-66,-300,-140,160,207,-174,-127,-183,-135,-375
173345,-249,32,14,-35,-200,378,-7,-57,-160,223,117,-65,7,-275,38,-230,-243,-135,-241,-50,-149,153,-55,-286,-154,165,211,-146,-111,-133,-113,-359
173346,-226,54,32,-32,-177,424,54,-62,-139,238,119,-7,31,-247,35,-120,-282,-62,-217,-36,-135,191,3,-256,-121,202,236,-114,-70,-136,-95,-317
173347,-161,55,78,-40,-171,448,95,-68,-158,260,127,-23,14,-261,44,-14,-273,-86,-238,-43,-160,117,0,-276,-139,192,221,-146,-85,-154,-131,-344
173348,-143,-38,94,-60,-181,440,98,-77,-136,262,132,-35,32,-258,37,-27,-251,-68,-228,-35,-157,141,4,-251,-121,197,237,-133,-59,-114,-100,-294
173349,-142,-89,104,-99,-192,441,75,-100,-140,245,143,-39,20,-235,42,-1,-227,-68,-199,-24,-134,161,22,-239,-117,205,287,-79,-34,-119,-81,-273
173350,-215,-99,56,-124,-223,423,41,-131,-177,235,124,-61,18,-233,35,-38,-254,-82,-196,-50,-156,138,12,-256,-109,178,279,-91,-57,-119,-98,-289
173351,-252,-55,49,-135,-226,420,36,-96,-159,242,129,-32,39,-225,25,-48,-227,-71,-194,-24,-170,206,28,-240,-86,176,267,-100,-56,-111,-73,-266
173352,-249,-81,97,-106,-220,452,67,-53,-158,268,147,-10,62,-211,46,-31,-214,-47,-171,-6,-160,177,38,-225,-91,197,276,-69,-39,-103,-59,-253
173353,-224,-62,61,-76,-198,471,115,-38,-143,272,188,-2,84,-214,60,-10,-209,-45,-170,0,-145,140,36,-217,-103,191,252,-87,-72,-96,-83,-254
173354,-261,-83,23,-123,-214,422,65,-79,-170,251,162,-27,50,-247,50,-57,-193,-62,-219,-33,-173,306,27,-263,-135,166,242,-89,-95,-116,-96,-239
173355,-236,-102,81,-128,-220,485,48,-81,-157,243,187,-1,39,-240,40,-55,-171,-53,-202,-35,-156,269,62,-241,-112,167,250,-57,-81,-91,-74,-241
173356,-219,-67,99,-116,-221,492,65,-69,-160,248,233,19,64,-239,33,-35,-142,-15,-177,-36,-168,191,79,-209,-102,177,245,-6,-35,-58,-52,-191
173357,-222,-49,20,-131,-225,439,45,-67,-149,213,200,26,87,-236,27,-32,-137,2,-178,-46,-170,143,94,-206,-98,170,237,-16,-4,-64,-57,-209
173358,-269,-61,-64,-108,-224,396,44,-62,-140,207,98,6,80,-224,13,-17,-121,12,-162,-45,-163,158,98,-176,-104,184,226,-26,-19,-57,-55,-201
173359,-268,-98,-72,-113,-245,358,13,-20,-161,204,0,-43,65,-225,-2,-32,-79,-22,-162,-45,-179,157,71,-191,-101,175,245,-34,-14,-58,-73,-260
173360,-258,-172,14,-132,-233,376,5,6,-150,216,26,-15,104,-197,22,-40,-158,37,-150,-23,-155,148,135,-160,-94,173,275,-83,18,-76,-74,-281
173361,-278,-223,23,-107,-238,385,9,3,-145,208,76,-45,94,-216,29,-16,-163,6,-158,-23,-146,83,105,-165,-87,187,254,-62,12,-60,-84,-285
173362,-279,-185,32,-103,-219,376,-14,-54,-163,213,38,-23,61,-225,9,-35,-123,7,-169,-31,-164,113,108,-160,-85,198,205,-40,32,-44,-42,-268
173363,-283,-126,36,-124,-232,376,-31,-231,-172,220,33,-12,45,-220,20,-59,-99,13,-173,-22,-166,149,123,-163,-83,201,199,-16,40,-39,-44,-255
173364,-305,-89,66,-95,-253,386,-4,-419,-166,232,52,18,35,-210,19,-42,-70,14,-174,10,-149,178,121,-151,-86,207,247,10,50,-15,-16,-240
173365,-338,-72,-64,-71,-235,370,-15,-31,-127,226,83,20,94,-227,9,-27,-113,40,-154,-21,-159,50,151,-162,-98,207,206,22,66,-13,-36,-268
173366,-305,-80,-133,-142,-243,376,-34,76,-139,195,62,4,110,-222,15,-55,-131,32,-152,-27,-162,129,137,-156,-70,207,230,-14,45,-40,-80,-256
173367,-296,-115,-68,-106,-247,370,-36,-49,-129,211,63,18,107,-201,12,-53,-94,19,-142,-2,-146,217,124,-165,-50,225,241,-4,37,-1,-27,-211
173368,-302,-164,-34,-88,-247,345,-67,-81,-155,201,47,11,71,-210,-7,-82,-113,-33,-150,-29,-152,161,75,-197,-73,220,198,-47,30,-39,-27,-270
173369,-299,-113,24,-90,-246,370,-53,-69,-151,223,73,40,81,-213,12,-33,-153,-4,-139,-16,-114,194,126,-168,-45,253,252,8,32,-17,-14,-185
173370,-273,-57,89,-101,-252,373,-7,-43,-135,222,90,78,102,-213,42,0,-137,23,-122,33,-95,239,140,-148,-22,288,299,65,83,65,43,-163
173371,-230,-26,136,-105,-235,369,27,-2,-114,226,98,94,111,-188,58,39,-46,44,-104,31,-53,289,150,-122,0,309,330,147,148,102,96,-91
173372,-228,-21,167,-117,-218,354,45,35,-100,220,129,105,119,-197,41,36,-11,65,-87,46,-43,298,176,-108,12,326,354,177,161,104,104,-77
173373,-264,-26,129,-65,-253,324,54,-39,-133,208,111,76,100,-197,29,31,-31,30,-96,20,-44,308,148,-127,-3,309,353,109,112,58,81,-120
173374,-227,-22,160,-67,-240,383,70,-71,-142,231,130,89,86,-182,43,63,-27,38,-90,42,-37,350,152,-117,15,334,428,99,124,87,99,-57
173375,-188,6,181,-61,-216,404,68,-18,-119,231,137,110,131,-166,62,99,1,74,-68,72,6,375,168,-93,49,346,470,153,152,99,127,-7
173376,-186,-60,199,-53,-209,418,47,-3,-114,215,146,88,128,-172,35,106,-18,69,-71,70,-6,357,169,-88,32,337,442,123,153,92,134,-4
173377,-182,-90,197,-106,-218,403,23,-53,-130,212,141,62,101,-186,32,158,-51,55,-88,61,-31,225,143,-121,15,322,394,81,139,86,125,-2
173378,-177,8,184,-114,-205,406,40,-59,-133,230,153,63,113,-190,52,162,-42,49,-72,47,-39,246,136,-105,29,316,358,49,118,72,109,-36
173379,-172,25,180,-88,-197,410,49,-26,-120,240,149,88,121,-170,71,82,-36,67,-35,74,-40,335,152,-93,45,316,353,78,146,96,103,-105
173380,-202,-25,146,-78,-215,425,36,-23,-113,245,157,85,121,-160,87,-1,-60,64,-53,72,-55,219,155,-62,70,324,351,105,166,112,93,-137
173381,-235,-62,132,-91,-234,393,15,-30,-127,240,119,83,123,-164,50,-165,-21,79,-33,79,-85,207,169,-50,89,343,342,113,182,122,118,-146
173382,-229,-46,130,-100,-233,381,20,-22,-113,236,90,79,143,-156,47,-73,22,114,-5,111,-74,234,200,-26,112,369,336,137,213,157,143,-105
173383,-204,-56,102,-132,-249,364,26,34,-114,224,82,56,145,-151,50,-37,-25,117,-17,105,-73,310,179,-17,127,379,350,103,227,154,149,-97
173384,-247,-24,73,-138,-248,298,24,-26,-127,212,100,56,152,-149,38,-94,-26,119,-20,116,-76,330,160,-45,107,372,351,63,186,151,160,-106
173385,-308,-38,13,-137,-257,306,-1,-51,-139,207,80,18,149,-169,46,-102,-22,85,-32,104,-94,269,137,-47,97,359,342,77,167,167,167,-113
173386,-313,-84,-160,-107,-272,348,-11,35,-133,203,80,45,152,-175,63,-102,-27,40,-34,86,-118,244,128,-70,94,356,291,27,129,116,128,-155
173387,-358,-63,-288,-41,-253,361,-30,92,-113,231,83,25,160,-157,76,-88,-63,63,-44,88,-95,216,100,-86,83,355,274,-11,96,79,94,-199
173388,-360,-57,-299,-88,-231,396,0,59,-113,244,96,-9,155,-156,101,-37,-55,49,-46,91,-76,205,106,-86,83,366,285,17,122,108,118,-153
173389,-359,-36,-243,-92,-257,405,3,33,-122,258,111,24,130,-163,100,-24,-60,39,-74,98,-87,79,98,-116,72,353,265,14,91,85,107,-197
173390,-364,-5,-126,-104,-253,417,23,-12,-126,290,163,32,118,-152,121,-17,-98,34,-60,104,-78,210,100,-109,72,364,308,15,75,65,110,-216
173391,-338,12,-1,-120,-245,441,63,-89,-143,291,239,43,100,-154,153,-12,-128,16,-65,98,-37,197,117,-122,79,379,313,-4,92,74,133,-205
173392,-281,16,80,-156,-244,452,72,-117,-151,293,266,29,94,-150,148,17,-110,11,-80,111,-22,187,115,-116,74,393,332,-16,100,97,132,-182
173393,-301,-12,124,-164,-241,476,74,-96,-140,289,235,0,108,-144,153,31,-95,19,-63,121,-22,183,111,-113,68,410,361,22,115,116,137,-167
173394,-341,-53,80,-161,-253,483,54,-90,-126,288,142,-20,107,-142,145,35,-109,24,-76,112,-21,206,125,-128,52,403,366,-3,99,91,125,-219
173395,-341,-43,93,-139,-262,488,91,-85,-129,294,108,-50,115,-163,154,56,-121,32,-68,110,2,233,129,-118,70,406,350,-49,106,107,127,-194
173396,-272,-46,188,-81,-231,517,108,-49,-107,295,170,5,141,-156,187,91,-60,75,-52,143,35,236,184,-61,82,415,375,51,191,162,183,-135
173397,-239,-36,207,-67,-227,509,136,-21,-118,314,227,90,151,-158,201,101,-11,75,-44,143,20,306,231,-43,77,423,406,90,209,182,214,-89
173398,-246,0,155,-80,-252,497,112,-10,-120,300,202,132,168,-183,212,109,37,132,-36,143,35,312,262,-39,73,431,412,96,197,171,192,-108
173399,-207,11,116,-79,-242,448,133,21,-121,303,201,138,169,-165,198,119,75,144,-36,149,49,326,246,-15,92,426,404,168,231,209,207,-74
173400,-208,-5,161,-116,-226,457,154,12,-119,309,220,88,173,-136,214,132,53,99,-22,168,32,348,226,-25,91,423,397,158,238,207,221,-79
173401,-253,-87,175,-139,-263,472,134,-39,-130,314,215,109,172,-143,212,130,-3,122,-18,152,31,353,258,-8,80,405,418,165,245,213,204,-80
173402,-213,-126,156,-121,-255,476,130,-43,-111,342,234,124,175,-119,221,128,2,147,-12,168,36,388,264,17,105,406,427,188,277,217,230,-23
173403,-186,-76,57,-97,-237,481,139,-11,-106,325,256,136,199,-107,232,140,15,148,13,179,41,352,256,19,107,422,419,243,293,250,242,-30
173404,-172,31,128,-84,-237,511,171,-28,-94,318,251,140,191,-113,242,148,44,132,12,188,64,270,266,13,114,434,450,264,314,272,259,5
173405,-179,78,152,-118,-238,493,186,-253,-136,321,249,152,175,-128,218,159,34,114,-4,190,84,425,256,-4,121,449,475,178,268,252,235,13
173406,-232,65,81,-157,-254,489,175,-175,-153,316,253,126,148,-140,205,150,15,99,-20,183,51,374,256,-6,118,413,443,193,238,224,188,-43
173407,-276,74,89,-129,-237,482,191,74,-131,336,275,95,182,-90,218,147,-16,123,16,178,32,315,281,17,124,415,358,231,283,242,199,-42
173408,-253,82,106,-108,-242,460,194,29,-143,298,245,85,174,-108,183,122,-33,100,-5,135,4,272,275,-4,100,366,273,211,282,201,166,-108
173409,-203,10,141,-123,-241,476,192,-10,-131,315,247,119,160,-119,156,136,-29,108,-12,124,-28,273,253,5,84,353,257,188,224,203,165,-85
173410,-187,-4,135,-111,-237,504,204,-20,-126,295,255,106,174,-116,165,159,-30,105,-5,117,-43,262,246,1,86,334,239,157,221,179,140,-108
173411,-220,17,81,-103,-246,493,186,-10,-126,273,241,66,157,-139,136,202,-40,85,-28,88,-70,217,191,-35,69,307,214,139,165,116,61,-192
173412,-277,38,67,-116,-260,459,153,-22,-137,267,207,30,151,-166,112,150,-57,66,-73,54,-118,248,143,-68,1,277,226,86,118,80,38,-183
173413,-238,64,83,-135,-240,470,143,-55,-131,271,217,31,159,-156,117,95,-8,45,-72,76,-101,247,144,-81,21,274,260,54,115,71,44,-159
173414,-179,114,71,-102,-234,392,140,-39,-102,273,207,38,179,-144,122,-29,-65,86,-49,87,-99,204,175,-56,34,277,266,55,121,62,53,-175
173415,-210,60,-18,-65,-248,422,153,17,-87,263,193,59,175,-139,117,-121,-130,75,-53,84,-109,279,158,-58,23,309,298,54,146,85,51,-182
173416,-198,16,-8,-56,-242,472,109,13,-97,279,163,74,161,-136,128,16,-117,40,-53,101,-101,226,164,-71,39,320,298,61,137,63,56,-196
173417,-237,-46,59,-63,-234,470,14,7,-115,298,137,91,164,-138,137,71,-103,44,-56,115,-79,230,178,-70,40,322,287,77,134,43,29,-209
173418,-275,-101,80,-51,-227,468,27,6,-102,296,146,59,160,-150,111,29,-113,46,-47,120,-69,159,162,-86,45,311,315,59,118,30,10,-189
173419,-274,-91,48,-85,-248,459,74,4,-91,285,170,92,163,-138,148,31,-87,63,-43,126,-54,60,170,-68,56,327,335,55,120,22,7,-210
173420,-247,-39,39,-123,-236,480,83,53,-99,301,190,120,193,-120,181,45,-66,111,-35,151,-17,294,200,-45,77,362,374,82,158,43,47,-196
173421,-265,-21,63,-28,-241,516,108,106,-97,311,208,74,201,-140,185,70,-4,109,-31,168,17,335,211,-31,86,390,421,117,176,70,101,-175
173422,-195,10,161,-3,-223,502,124,73,-104,311,218,120,181,-138,194,59,32,75,-34,168,12,330,221,-47,72,402,408,117,194,87,118,-163
173423,-183,-54,180,5,-197,521,119,47,-82,298,227,102,202,-126,210,67,-15,134,-28,165,15,326,297,-16,79,410,390,135,193,82,105,-156
173424,-184,-102,156,15,-196,531,142,56,-77,302,227,100,198,-139,200,67,20,125,-37,160,51,312,287,-15,64,405,386,163,218,102,118,-92
173425,-198,-52,101,-10,-199,551,142,37,-92,303,218,131,163,-147,177,64,34,140,-63,149,34,261,284,-23,67,397,366,192,223,117,130,-115
173426,-215,5,92,-39,-189,561,129,41,-109,303,225,76,146,-158,161,52,76,144,-71,148,19,286,263,-33,65,381,334,194,222,99,96,-159
173427,-204,53,49,-62,-221,557,154,6,-137,281,220,71,107,-184,165,72,102,44,-88,137,4,218,203,-100,18,365,313,137,211,95,73,-174
173428,-194,40,61,-61,-203,587,165,1,-131,300,248,100,124,-170,184,98,81,80,-85,148,51,266,271,-75,47,401,349,175,236,99,92,-131
173429,-174,54,82,-59,-199,592,185,34,-128,319,263,161,153,-158,194,110,19,141,-66,157,63,245,346,-37,57,411,356,211,249,95,114,-116
173430,-172,107,119,-79,-214,563,196,40,-139,307,280,175,159,-165,202,126,30,133,-71,155,64,291,329,-36,59,405,359,195,248,117,115,-138
173431,-215,92,116,-104,-218,556,216,-15,-126,293,297,123,139,-169,195,149,37,112,-79,140,101,237,312,-37,51,416,368,209,259,137,134,-137
173432,-248,75,117,-106,-231,532,181,-29,-122,295,336,70,132,-173,200,168,22,111,-86,130,104,186,268,-38,37,420,371,160,232,121,129,-158
173433,-301,13,104,-88,-239,508,146,-61,-129,299,312,72,129,-187,189,134,7,96,-108,111,69,302,252,-66,16,409,347,127,235,121,101,-167
173434,-337,-62,116,-80,-238,492,165,-117,-123,308,313,66,116,-201,176,152,8,45,-104,110,56,283,258,-57,21,421,348,126,244,135,134,-197
173435,-297,-104,77,-107,-229,489,175,-213,-141,312,326,103,117,-177,182,161,3,72,-83,116,70,280,267,-61,28,433,360,122,217,118,141,-168
173436,-337,-92,-73,-65,-240,483,160,-261,-150,312,253,94,120,-179,165,167,13,97,-77,118,63,278,270,-48,35,420,359,147,215,120,145,-117
