,Fp1,Fp2,F7,F3,Fz,F4,F8,FC5,FC1,FC2,FC6,T7,C3,Cz,C4,T8,TP9,CP5,CP1,CP2,CP6,TP10,P7,P3,Pz,P4,P8,PO9,O1,Oz,O2,PO10
57005,379,227,168,221,-8,609,151,407,87,61,311,-106,329,112,215,327,208,127,296,216,98,411,563,354,619,338,477,283,420,256,290,175
57006,378,254,162,215,-16,633,211,408,95,61,332,-109,340,119,203,315,175,171,323,211,61,422,552,346,608,313,448,253,431,267,296,202
57007,388,245,196,211,-17,638,195,439,110,62,285,-105,355,133,256,274,160,198,347,224,45,412,572,352,609,308,475,287,426,267,293,166
57008,382,230,195,209,-31,604,118,446,90,61,223,-109,358,125,251,238,141,193,323,200,33,337,593,354,570,264,451,283,414,232,266,119
57009,389,250,185,193,-14,652,160,368,81,84,341,-118,311,115,241,181,143,149,305,183,76,363,568,339,568,287,456,327,432,242,296,200
57010,422,272,197,220,9,677,200,391,101,77,399,-107,326,132,164,266,159,162,292,180,80,379,575,331,565,297,501,395,487,307,342,247
57011,403,258,192,223,18,675,201,424,96,83,310,-123,348,129,209,296,183,176,290,172,48,390,590,337,547,282,512,438,513,345,380,284
57012,403,221,212,240,0,628,154,482,112,62,267,-94,361,128,204,332,197,206,296,155,78,421,616,344,548,271,521,404,481,307,353,238
57013,405,252,209,223,0,620,146,421,77,60,283,-131,293,113,198,386,196,145,249,143,71,433,563,278,507,252,513,289,403,229,256,182
57014,382,257,171,183,-15,617,173,374,58,80,286,-130,264,109,194,361,195,118,226,138,62,430,527,271,509,246,519,318,426,243,264,174
57015,379,239,151,200,-14,616,182,392,78,71,279,-161,292,116,188,301,175,150,236,144,43,416,568,283,484,219,453,339,434,257,255,217
57016,385,214,199,216,-11,616,127,410,66,69,266,-171,296,121,209,239,160,153,233,128,18,434,558,247,474,244,440,246,334,162,212,196
57017,397,201,217,214,-36,606,93,422,68,67,237,-102,288,117,238,200,214,167,240,133,28,421,527,236,451,249,451,223,307,112,183,141
57018,403,257,224,229,-17,629,175,425,62,69,281,-85,290,127,210,328,227,137,235,155,103,459,524,232,462,268,547,267,327,168,232,198
57019,418,277,243,232,-4,632,209,420,60,57,350,-99,291,119,167,420,207,118,223,146,119,501,537,224,440,296,549,262,319,169,284,239
57020,443,301,234,251,1,663,221,443,68,72,378,-88,299,116,253,327,210,148,222,170,140,559,573,227,439,327,521,286,310,200,296,320
57021,397,279,197,235,7,667,249,407,60,60,378,-121,286,103,281,347,181,129,196,170,164,538,522,209,416,315,555,225,260,151,272,313
57022,398,287,254,266,16,661,212,442,82,95,362,-118,304,122,277,409,216,142,216,174,138,501,525,229,410,332,565,222,296,157,303,300
57023,396,274,248,255,5,656,180,443,63,78,342,-132,304,84,240,413,229,108,198,159,132,495,433,208,400,320,566,271,319,175,322,322
57024,400,285,226,236,0,697,257,441,54,75,407,-146,307,89,284,413,143,107,190,152,164,488,460,214,384,292,550,200,253,147,286,302
57025,386,286,175,210,-10,674,224,434,65,79,411,-114,307,112,298,418,141,139,232,185,210,531,522,276,427,345,616,297,354,247,341,343
57026,389,289,157,180,-11,659,218,384,52,96,360,-127,286,99,290,496,142,141,258,200,215,519,517,290,462,369,653,344,448,317,404,351
57027,387,285,173,187,-7,675,223,317,72,94,353,-143,289,105,279,509,151,148,258,193,129,518,517,269,471,354,601,327,432,308,398,312
57028,382,286,193,203,19,660,254,323,91,84,388,-132,322,118,277,416,136,157,253,184,141,537,539,279,457,340,583,317,415,263,366,261
57029,415,290,177,216,7,623,208,479,97,68,355,-103,333,105,297,416,157,177,245,190,147,570,567,297,450,324,565,233,353,233,350,342
57030,438,282,203,212,-15,606,155,524,72,48,319,-50,320,91,268,418,169,212,251,191,130,517,584,320,462,330,554,237,376,279,393,324
57031,425,245,196,223,-7,601,145,487,66,50,303,-55,315,84,271,372,151,169,263,169,130,447,521,311,466,307,548,220,374,269,370,272
57032,401,268,204,212,3,633,165,429,83,76,301,-68,352,124,348,381,217,211,279,195,151,466,574,340,514,329,575,228,342,269,359,244
57033,386,256,190,178,-4,634,160,386,58,83,289,-71,343,107,365,384,245,226,256,202,132,467,624,356,491,311,519,271,368,252,307,179
57034,388,269,181,171,-7,647,186,461,72,78,352,-31,353,100,309,402,216,250,276,207,138,443,587,346,500,322,511,310,441,297,324,210
57035,343,254,180,179,-16,629,179,463,82,33,367,-78,343,107,206,428,198,219,278,201,143,399,599,351,520,325,504,350,469,312,339,185
57036,313,212,157,140,-44,609,127,365,47,49,302,-125,296,98,254,353,169,172,252,202,104,342,578,330,503,308,489,398,500,338,332,121
57037,311,197,122,141,-39,604,130,376,54,41,287,-157,301,97,260,317,120,151,251,189,90,324,541,315,495,281,481,335,475,288,294,114
57038,309,214,105,167,-35,624,124,398,46,43,304,-178,306,100,231,349,84,163,257,196,57,361,566,319,505,284,430,275,436,285,306,137
57039,305,171,45,152,-42,602,78,368,38,60,282,-151,297,100,275,319,113,164,250,216,75,364,548,303,508,309,419,213,358,248,310,153
57040,321,152,92,156,-45,598,47,431,56,60,281,-126,329,108,268,310,161,171,269,220,69,303,512,305,510,294,411,191,293,193,240,134
57041,327,151,109,168,-23,587,116,430,65,44,318,-130,317,102,179,366,172,196,272,195,52,334,519,306,504,267,394,149,270,135,188,77
57042,303,149,116,148,-36,603,118,374,45,57,296,-139,274,101,213,312,135,155,237,174,48,351,497,283,482,262,392,75,235,108,194,67
57043,265,155,115,151,-15,612,90,397,42,64,283,-154,287,120,219,269,108,133,245,183,52,308,506,271,476,240,374,107,199,85,170,87
57044,240,95,117,120,-51,584,51,383,22,52,251,-203,279,93,208,96,74,89,227,153,-16,269,478,228,460,204,332,97,182,71,114,6
57045,247,102,73,124,-40,591,43,360,40,73,244,-222,290,136,211,153,83,113,241,159,-34,252,503,255,480,221,319,82,180,84,139,-8
57046,211,84,-12,88,-52,574,13,285,33,53,233,-224,265,126,206,150,50,142,246,136,-44,202,474,244,457,186,288,49,158,61,116,-16
57047,179,74,7,90,-65,567,-34,287,22,33,228,-245,232,98,188,172,13,70,213,127,-69,181,349,192,438,166,266,16,162,47,85,-43
57048,205,99,0,99,-61,539,-19,298,7,19,174,-213,245,77,145,198,-24,96,205,113,-89,189,432,198,447,159,215,-10,131,23,67,-50
57049,239,130,50,128,-39,537,13,339,34,4,165,-166,236,59,125,63,-27,97,188,87,-118,157,444,206,417,103,191,-42,99,-23,5,-113
57050,228,118,50,124,-36,547,19,319,24,21,174,-219,246,60,145,68,30,77,190,97,-100,136,383,200,426,124,200,58,165,11,20,-108
57051,202,121,51,125,-44,543,-15,332,20,15,154,-231,242,29,106,118,-16,71,187,67,-116,154,364,185,397,113,170,94,157,1,40,-132
57052,219,105,8,113,-36,542,-34,305,26,17,147,-217,249,64,120,94,-15,107,196,65,-112,144,399,185,395,115,167,75,141,0,40,-97
57053,243,109,25,121,-37,545,-32,311,32,12,139,-225,247,72,127,85,3,93,204,58,-90,128,382,172,387,123,223,53,145,17,34,-79
57054,216,126,0,103,-26,546,3,296,34,26,181,-241,219,64,144,147,-25,39,179,54,-67,111,352,151,385,137,249,2,128,35,64,-37
57055,218,118,13,99,-20,578,51,292,28,41,217,-241,210,54,161,182,-21,27,165,88,-50,171,351,149,391,165,243,32,136,43,112,0
57056,223,139,28,92,-23,595,75,283,31,56,213,-236,215,66,167,213,-10,31,183,112,-30,221,377,154,399,178,285,52,170,70,117,3
57057,233,136,52,126,-26,582,1,279,41,45,153,-219,233,92,171,180,36,51,177,105,-43,199,356,139,413,175,279,61,169,60,136,26
57058,256,149,74,146,-18,595,4,270,54,44,134,-204,250,51,180,177,10,39,169,111,-49,162,304,120,387,142,246,-55,66,-44,54,-48
57059,290,147,68,160,0,595,15,345,54,51,181,-191,248,46,215,179,64,28,174,125,-33,164,348,125,389,144,224,-69,55,-63,10,-119
57060,338,193,168,170,11,620,94,443,52,55,288,-161,239,73,176,211,116,68,203,136,8,243,399,156,438,184,256,13,137,-1,85,-36
57061,319,171,177,196,16,628,81,407,72,58,252,-160,262,76,179,205,93,104,220,140,33,228,427,190,462,209,329,53,182,42,137,19
57062,296,118,124,199,2,594,-15,380,75,37,205,-158,277,71,173,199,87,112,215,128,-28,192,449,199,456,185,343,76,207,73,152,17
57063,271,131,102,177,-1,586,20,367,77,35,193,-149,271,74,208,186,60,121,206,132,-25,209,447,197,451,186,334,67,182,79,133,-14
57064,265,122,68,184,7,607,56,384,69,66,227,-169,264,76,275,192,0,96,205,137,11,237,406,205,445,193,298,56,202,83,115,-30
57065,255,98,64,175,3,600,23,412,77,46,223,-136,284,87,202,238,39,115,201,122,14,258,431,222,432,200,284,78,211,101,130,17
57066,249,135,91,194,17,641,70,405,84,78,309,-222,276,101,172,280,64,67,211,123,19,274,400,190,434,204,319,46,148,33,118,9
57067,261,145,116,162,-5,636,72,383,61,65,300,-196,265,87,220,250,96,96,207,111,1,249,448,180,430,173,323,89,143,27,109,-14
57068,270,112,171,182,-10,593,45,391,68,54,181,-134,272,89,182,208,163,124,218,102,-36,257,486,232,417,190,340,206,269,138,163,26
57069,290,134,150,209,10,629,86,426,94,77,224,-149,274,79,211,207,94,92,226,127,-19,284,443,238,400,196,343,175,288,138,194,49
57070,340,154,188,227,3,632,63,418,99,82,260,-138,294,106,226,100,70,123,235,133,2,287,496,242,412,229,357,198,347,202,235,105
57071,354,173,204,226,13,631,70,382,96,78,246,-142,282,90,200,159,128,133,218,139,41,327,516,257,437,247,393,283,375,264,313,156
57072,349,173,188,230,27,624,75,414,92,55,223,-168,272,69,162,134,82,102,203,130,34,309,465,249,420,255,422,295,404,286,335,209
57073,301,142,147,192,21,636,89,379,70,68,291,-175,244,52,208,181,44,49,154,112,91,297,393,158,370,249,444,30,200,136,246,169
57074,294,138,171,182,10,642,64,345,53,77,276,-214,203,26,201,251,21,-3,115,83,70,275,332,97,299,204,431,-69,40,-38,110,66
57075,295,123,157,175,15,594,-6,370,37,48,199,-229,172,23,184,216,12,-8,86,70,-10,270,290,83,262,161,363,-62,-4,-80,77,-32
57076,283,95,104,159,7,590,-21,356,31,52,228,-229,177,24,209,164,56,-3,90,77,-25,279,320,95,293,158,311,4,43,-46,60,40
57077,263,102,76,141,-5,580,-4,313,48,39,171,-275,213,51,167,171,74,6,128,96,-7,304,383,143,329,193,357,72,138,8,113,73
57078,227,57,66,137,-10,534,-33,352,59,6,133,-237,236,37,115,92,74,79,161,81,-39,285,435,172,327,162,291,58,137,6,93,-5
57079,222,76,80,152,-14,547,-7,350,57,26,174,-178,233,49,155,143,98,70,153,92,-35,313,403,169,327,132,254,13,92,-28,61,2
57080,274,98,136,161,-2,586,4,350,59,42,180,-153,226,59,165,243,74,57,148,98,-4,287,380,149,365,165,346,57,139,-11,89,25
57081,279,108,121,157,3,595,29,343,43,30,197,-140,230,55,170,270,102,78,151,92,10,301,426,175,363,194,360,103,185,42,118,31
57082,310,166,132,173,34,620,70,363,59,44,233,-153,258,57,202,331,140,83,176,117,28,371,413,199,380,204,371,160,226,76,158,98
57083,316,187,101,147,21,636,121,367,49,65,232,-159,265,47,212,328,123,116,187,125,45,377,514,217,403,232,448,139,253,116,197,122
57084,316,194,118,155,18,646,128,376,54,69,214,-166,284,70,232,306,120,115,204,139,61,404,509,237,413,250,442,141,275,161,233,151
57085,285,157,107,161,6,630,78,398,73,50,223,-169,267,66,252,261,52,69,175,135,63,386,371,205,404,217,411,135,247,130,221,116
57086,259,148,89,151,11,624,98,389,56,52,236,-164,244,65,243,285,63,29,174,129,57,399,379,186,386,224,421,143,244,146,222,122
57087,286,145,116,160,1,613,133,253,71,63,248,-200,228,74,211,322,98,37,183,141,62,382,443,205,407,224,418,173,287,176,214,123
57088,278,135,91,177,7,615,127,229,66,51,279,-211,245,87,179,304,108,57,168,128,55,352,430,206,398,216,394,182,303,170,205,104
57089,263,139,53,151,10,613,133,340,71,46,293,-189,257,94,176,325,105,80,185,123,59,347,440,211,428,213,408,169,304,170,194,82
57090,281,130,57,100,-10,597,81,372,31,51,251,-165,226,88,206,337,99,90,201,167,66,360,463,249,463,214,435,192,339,179,211,87
57091,279,144,40,119,-7,618,136,319,38,54,300,-159,243,95,216,340,84,78,203,176,94,385,426,238,469,238,469,145,300,154,206,138
57092,270,152,46,130,3,632,115,353,48,68,307,-123,261,114,249,328,113,111,234,188,89,371,440,245,486,275,480,71,218,118,231,155
57093,233,133,35,117,-1,624,87,370,64,60,317,-147,243,117,238,357,110,118,233,177,80,353,463,268,493,244,482,69,180,115,220,150
57094,229,120,25,115,-4,607,105,342,67,68,311,-179,264,115,202,277,130,106,238,175,59,352,459,282,488,245,457,130,227,113,177,120
57095,246,108,69,124,-39,559,15,350,70,27,184,-117,300,99,173,215,144,161,262,184,48,374,510,318,513,243,444,209,302,138,188,118
57096,251,118,78,131,-21,548,19,369,83,38,205,-110,314,118,189,231,149,199,284,198,55,382,561,360,549,267,422,226,355,184,230,142
57097,248,77,76,147,-22,522,23,381,101,29,189,-134,320,123,199,193,142,193,287,209,45,321,546,348,571,259,423,281,381,214,205,142
57098,234,46,69,136,-48,529,18,369,95,17,191,-127,307,123,207,83,124,155,273,187,44,294,484,302,549,239,431,183,298,144,182,98
57099,231,61,95,143,-53,523,1,406,106,14,173,-92,317,126,187,231,122,163,273,179,57,300,492,278,519,243,443,54,202,59,122,87
57100,217,69,119,146,-46,547,46,408,95,18,215,-80,340,121,180,319,138,215,276,177,24,286,549,287,500,237,407,102,222,84,146,121
57101,205,35,106,133,-43,549,56,416,98,29,254,-79,351,117,174,272,143,207,275,159,-3,302,548,301,484,228,379,149,266,110,177,129
57102,214,39,100,139,-42,537,29,390,107,37,223,-119,342,134,226,303,130,151,267,182,38,322,513,309,518,247,388,195,290,132,198,102
57103,208,36,90,117,-33,530,54,396,98,41,250,-143,346,141,211,297,136,175,265,178,12,330,547,313,533,253,439,168,329,188,249,146
57104,234,38,101,130,-50,544,66,402,103,41,271,-168,321,122,217,258,119,166,258,188,17,362,509,306,522,271,480,137,319,190,294,185
57105,232,44,94,133,-64,526,34,400,93,12,211,-181,324,110,165,200,105,165,252,176,19,355,503,291,502,258,452,153,302,171,271,146
57106,181,21,66,113,-82,498,-18,419,97,3,189,-184,288,105,193,164,96,142,221,153,17,297,483,267,480,224,389,86,219,89,157,57
57107,156,-16,66,117,-74,484,-43,451,93,-3,210,-163,296,110,155,238,78,175,240,143,34,279,480,270,482,209,367,134,236,111,163,35
57108,164,14,80,106,-70,489,-32,365,90,-6,197,-214,288,112,117,309,89,175,239,153,14,279,514,291,473,217,392,208,290,158,186,62
57109,145,3,-3,76,-77,480,-43,290,52,-3,147,-210,271,72,157,315,68,141,230,142,-30,263,499,267,445,217,392,246,326,161,201,59
57110,140,-24,-40,62,-84,486,-17,311,54,-8,158,-187,274,68,193,263,66,168,228,150,-4,227,464,252,458,224,399,207,306,116,170,10
57111,106,-54,-48,50,-84,480,1,254,29,-9,236,-196,223,88,183,263,76,104,209,152,12,223,429,219,432,207,371,71,226,88,133,26
57112,127,-74,-4,70,-87,465,-52,278,58,-16,198,-159,254,112,116,287,66,122,234,160,14,254,477,231,429,210,386,-23,145,75,122,44
57113,107,-80,16,65,-92,460,-46,192,48,2,172,-207,254,106,149,262,2,97,226,158,14,270,403,223,453,215,422,-20,115,41,116,34
57114,126,-37,5,86,-85,464,-21,276,66,-6,173,-186,278,123,188,240,60,111,236,190,36,291,420,225,471,262,445,81,167,93,174,25
57115,126,-33,46,48,-93,455,11,398,50,-4,194,-143,268,101,180,236,82,124,228,176,13,299,483,243,472,233,371,36,158,80,177,50
57116,155,-2,83,61,-76,517,83,379,33,7,271,-128,259,77,186,223,59,128,210,172,8,280,519,266,477,205,369,43,219,117,184,85
57117,188,25,65,98,-67,523,52,359,38,5,217,-152,272,96,184,197,74,124,223,191,43,286,472,270,480,233,445,166,288,183,217,113
57118,205,29,78,100,-50,526,45,351,47,2,238,-138,270,93,206,174,106,144,225,182,42,285,508,283,470,240,448,238,314,179,260,155
57119,233,28,109,110,-39,523,31,363,55,10,267,-81,282,101,221,227,105,148,257,197,66,290,578,316,482,251,443,253,358,219,284,169
57120,226,47,138,121,-44,499,-13,396,65,-2,180,-96,298,127,193,264,109,195,289,198,84,295,550,333,499,288,502,247,377,246,297,134
57121,223,47,119,106,-63,498,13,384,57,3,188,-122,281,116,201,241,105,178,287,197,63,296,523,307,458,272,477,162,300,205,256,70
57122,226,23,102,88,-77,503,49,373,54,23,227,-131,280,107,227,214,156,177,273,188,84,347,543,294,467,272,434,189,321,215,265,131
57123,220,41,102,115,-75,482,18,380,53,14,192,-115,311,104,210,208,165,186,270,208,121,398,565,310,488,310,506,237,386,279,330,182
57124,221,73,90,131,-59,535,37,402,64,17,248,-117,315,123,253,278,147,192,275,238,162,352,547,336,495,338,559,226,388,297,374,180
57125,254,84,138,148,-57,552,53,458,80,38,250,-62,341,126,287,263,175,218,309,260,193,391,556,361,516,369,589,238,411,303,411,236
57126,290,129,171,168,-39,549,85,445,74,37,265,-78,325,109,269,163,198,193,291,251,196,428,559,325,492,355,536,116,287,204,372,270
57127,282,161,122,161,-32,585,158,433,83,38,253,-74,329,123,250,305,213,211,295,250,168,442,606,326,509,353,572,94,259,207,363,277
57128,298,162,131,150,-34,589,177,420,103,58,257,-69,342,146,288,343,191,233,332,274,181,427,601,348,537,371,561,154,327,234,367,199
57129,299,151,199,154,-34,599,149,420,108,76,298,-65,350,172,353,354,206,219,342,307,235,469,579,357,573,407,573,176,362,250,381,181
57130,276,156,154,152,-26,616,153,413,93,76,353,-71,357,172,343,364,237,185,341,308,260,469,584,359,603,425,577,244,374,281,356,196
57131,303,148,166,183,-13,637,195,434,109,64,359,-70,375,169,279,362,220,211,354,301,207,434,614,366,601,394,520,230,388,286,352,190
57132,289,151,179,175,-23,618,148,440,94,63,325,-84,366,166,317,360,221,219,351,313,180,482,675,380,611,368,514,251,426,282,380,183
57133,273,150,157,149,-32,616,110,409,70,66,323,-102,349,164,298,316,253,223,345,301,162,442,673,380,611,368,522,274,436,317,385,181
57134,265,130,103,146,-34,642,135,382,62,74,342,-88,336,158,302,358,208,214,326,323,185,475,589,374,595,363,521,279,437,330,392,191
57135,282,165,119,144,-25,620,197,397,77,47,371,-89,335,152,239,413,147,209,332,295,201,489,606,373,593,384,563,240,418,302,417,249
57136,277,175,115,125,-42,615,222,402,56,32,363,-128,320,131,228,370,125,213,316,268,192,463,600,348,559,353,530,170,364,258,365,187
57137,283,166,92,98,-39,630,213,399,62,66,363,-157,310,144,279,388,154,232,313,276,215,446,600,348,544,362,537,139,343,257,343,152
57138,265,190,29,102,-36,641,225,397,50,70,380,-144,327,150,289,365,144,251,315,277,219,498,622,373,549,382,510,208,384,276,340,186
57139,248,174,71,94,-49,624,191,357,44,52,380,-93,302,125,259,326,145,224,278,261,188,465,615,360,532,333,484,249,423,286,308,134
57140,272,163,97,118,-45,619,198,417,63,41,386,-51,296,138,250,329,176,205,284,255,164,473,623,333,546,329,494,231,403,289,324,142
57141,261,137,70,105,-36,584,149,365,32,24,327,-51,269,113,252,357,212,162,256,244,156,525,569,296,549,314,477,221,358,251,288,142
57142,268,156,91,115,-33,597,141,337,54,50,324,-64,286,108,245,372,207,166,279,270,176,521,595,308,562,336,480,224,368,259,298,147
57143,229,149,93,108,-50,604,166,287,33,56,338,-108,274,109,247,352,134,185,250,270,177,447,586,295,560,320,449,150,313,235,290,157
57144,234,122,72,99,-41,590,121,330,60,41,305,-111,268,118,274,356,163,191,249,259,207,449,582,305,578,331,510,159,348,265,302,189
57145,269,154,68,96,-31,614,139,439,24,50,313,-104,263,134,287,393,158,162,244,270,183,448,514,274,566,346,546,127,343,262,291,147
57146,286,150,128,125,-6,599,124,434,34,47,322,-91,247,113,270,394,142,178,237,241,129,409,557,268,539,318,449,102,281,212,250,127
57147,289,142,108,138,-7,621,152,405,56,50,351,-89,266,105,257,377,174,179,231,245,128,407,511,255,539,300,432,174,295,209,248,102
57148,273,148,131,151,-28,611,166,388,52,40,316,-107,256,88,228,356,150,158,224,210,85,427,484,245,511,264,470,137,273,156,178,59
57149,288,138,174,166,-13,589,79,431,66,28,243,-40,301,100,235,371,200,204,247,224,71,495,550,272,521,273,456,138,285,150,168,61
57150,280,115,152,160,-35,602,69,454,69,34,329,-88,286,88,269,230,129,157,231,197,79,481,498,213,493,242,337,41,162,72,107,83
57151,295,141,169,187,-17,602,137,450,85,22,315,-88,285,104,187,258,120,149,239,189,134,485,490,223,491,246,411,32,163,87,134,98
57152,321,142,175,188,-15,588,127,428,85,15,286,-88,282,99,197,329,141,164,254,228,135,446,503,260,497,246,417,50,249,181,208,127
57153,333,172,141,185,-5,590,116,412,87,22,267,-105,283,99,238,360,130,155,271,235,133,412,495,254,531,280,417,130,308,224,267,186
57154,299,153,106,179,0,587,113,422,87,21,287,-113,294,122,239,372,77,173,275,247,116,388,507,284,571,285,418,111,291,208,268,242
