,Fp1,Fp2,F7,F3,Fz,F4,F8,FC5,FC1,FC2,FC6,T7,C3,Cz,C4,T8,TP9,CP5,CP1,CP2,CP6,TP10,P7,P3,Pz,P4,P8,PO9,O1,Oz,O2,PO10
37114,-197,71,112,-385,184,52,-562,437,131,-104,66,-460,47,0,224,30,-205,-90,145,219,-153,-878,708,274,181,108,112,-49,640,0,-136,-81
37115,-288,-25,-5,-297,176,181,-528,353,115,-117,-27,-508,5,-20,220,69,-313,-160,119,230,-128,-679,294,243,196,138,206,53,673,44,-87,34
37116,-314,37,29,-229,187,328,-559,216,105,-111,39,-434,0,-24,228,77,-178,-159,121,229,-111,-748,129,237,187,141,164,16,656,29,-105,-37
37117,-295,2,97,-235,197,197,-692,211,148,-121,-21,-458,47,5,244,-70,21,-111,160,270,-117,-729,219,288,245,185,189,-8,717,95,-5,133
37118,-359,-193,-40,-185,162,266,-795,219,125,-128,-41,-557,15,-13,224,-114,-50,-193,147,259,-123,-793,246,266,229,169,237,-235,594,24,-69,201
37119,-428,-174,-81,-140,167,405,-668,166,107,-111,-10,-591,-24,-14,246,38,-133,-250,114,248,-91,-716,217,235,213,166,292,-335,517,-19,-134,96
37120,-241,121,-35,-120,199,363,-451,239,137,-108,66,-644,-9,-20,249,235,-137,-222,112,233,-93,-579,239,227,183,131,214,-283,494,-87,-218,-31
37121,82,386,209,-129,245,355,-256,332,145,-89,121,-554,5,-15,241,293,-198,-183,107,205,-93,-537,229,209,156,148,176,-290,491,-91,-260,-9
37122,194,454,305,-118,249,231,-225,298,154,-109,150,-496,10,-15,265,216,-213,-189,98,216,-74,-610,265,214,158,151,221,-206,539,-42,-234,-24
37123,36,311,206,-125,231,106,-329,235,143,-86,135,-525,2,-16,251,230,-353,-206,100,226,-87,-614,248,222,165,139,147,-170,519,-37,-229,22
37124,-62,187,151,-115,224,354,-458,222,140,-100,165,-517,12,-18,236,291,-83,-160,113,220,-114,-594,277,236,179,151,161,-283,527,-37,-213,80
37125,-108,120,123,-155,206,517,-479,201,128,-79,164,-488,9,-19,255,217,22,-150,115,229,-149,-670,335,246,186,134,157,-136,574,-17,-183,59
37126,-47,104,143,-37,217,536,-439,247,119,-76,107,-392,-3,-42,247,189,58,-206,97,199,-161,-870,336,194,152,102,85,-120,548,-74,-252,-30
37127,-3,217,179,9,247,479,-363,291,148,-84,90,-403,17,-34,251,200,-53,-193,94,202,-148,-703,359,175,134,112,111,-153,498,-112,-280,3
37128,4,201,213,-48,228,450,-382,299,125,-99,-24,-652,18,-43,214,156,-177,-126,90,191,-168,-639,316,176,131,97,108,-155,505,-78,-279,-5
37129,-73,158,105,-136,220,404,-410,235,129,-100,-3,-750,12,-44,216,162,-63,-131,101,212,-149,-740,276,197,160,113,157,-120,545,-50,-238,50
37130,-161,129,44,-257,213,292,-369,190,116,-94,59,-636,-10,-15,228,240,-41,-166,109,236,-97,-669,284,207,167,154,232,-113,579,-5,-179,154
37131,-196,52,57,-320,218,263,-391,209,117,-77,68,-574,-7,0,231,226,-245,-158,126,240,-91,-625,267,209,174,164,211,-186,576,-18,-197,75
37132,-119,161,92,-256,234,311,-358,252,121,-86,53,-575,-8,-4,228,216,-218,-169,105,213,-103,-737,278,221,156,140,180,-50,596,-9,-217,-12
37133,-83,242,131,-193,244,411,-352,355,146,-70,95,-552,21,-13,246,209,-229,-127,101,218,-116,-721,297,222,161,137,188,-42,556,-29,-256,62
37134,-123,132,81,-192,235,420,-364,391,154,-101,94,-567,18,-24,226,202,-232,-119,94,215,-125,-531,622,226,156,134,182,-142,567,-20,-234,38
37135,-107,64,72,-132,244,448,-321,334,133,-91,117,-553,2,-36,220,213,-248,-173,87,195,-119,-567,386,177,137,113,169,-184,497,-93,-295,-29
37136,-112,104,117,-157,259,403,-315,442,152,-72,119,-521,8,-23,232,72,-214,-214,75,190,-139,-690,50,126,114,64,113,-338,411,-175,-378,-82
37137,-73,160,156,-142,269,413,-308,459,149,-69,181,-469,8,-25,263,92,-178,-231,89,212,-119,-794,42,126,125,91,106,-262,458,-113,-297,36
37138,45,51,207,-68,266,263,-302,418,157,-55,190,-487,8,-32,268,142,-170,-214,87,196,-161,-607,82,121,114,78,89,-278,431,-152,-345,38
37139,0,52,197,-156,247,290,-395,334,149,-69,193,-579,-2,-20,233,199,-237,-186,80,201,-174,-704,189,138,107,33,32,-231,445,-156,-395,-175
37140,-124,170,120,-162,260,538,-523,252,141,-60,249,-622,-25,-32,233,213,-220,-209,72,198,-143,-761,214,141,103,63,81,-188,488,-120,-360,-106
37141,-176,239,78,-186,264,508,-389,216,124,-55,343,-652,-32,-20,260,204,-139,-236,52,188,-101,-667,167,132,96,91,122,-165,486,-126,-363,-85
37142,-214,244,60,-307,244,415,-278,218,120,-59,286,-611,-42,-39,267,198,-190,-244,64,202,-89,-636,232,133,108,116,218,-143,518,-81,-295,1
37143,-142,196,102,-99,245,425,-288,145,128,-67,167,-505,-38,-40,256,197,-173,-221,57,180,-92,-736,279,145,120,111,188,-120,518,-82,-305,51
37144,-136,228,137,-31,253,436,-275,100,120,-66,141,-494,-44,-38,254,248,-251,-198,48,200,-111,-627,248,145,114,96,144,-205,488,-105,-320,14
37145,-195,232,146,-126,283,420,-301,326,148,-65,144,-475,1,-29,244,228,-284,-186,61,193,-139,-724,282,170,121,78,138,-170,514,-77,-313,-69
37146,-185,52,105,-164,260,436,-354,329,152,-54,124,-484,14,-3,281,239,-27,-167,95,215,-88,-614,349,209,152,127,215,-83,561,-45,-273,31
37147,-57,-29,145,-175,236,401,-426,337,137,-64,154,-512,-12,0,296,229,-115,-176,110,233,-67,-520,352,196,151,162,298,-92,583,-40,-273,50
37148,1,13,148,-156,228,431,-417,399,140,-57,197,-467,0,-16,264,245,-63,-190,95,243,-61,-644,314,168,137,171,338,-60,577,-35,-241,-8
37149,32,149,84,-93,251,410,-323,380,147,-54,189,-504,4,-42,227,234,-89,-184,81,191,-144,-781,287,145,117,97,82,-122,530,-71,-304,31
37150,-33,235,-2,-40,246,285,-342,342,155,-74,118,-570,4,-41,235,259,-95,-179,79,191,-91,-816,358,163,123,101,185,-95,531,-77,-295,6
37151,-167,254,1,-42,202,266,-312,393,158,-114,26,-634,5,-65,203,218,-93,-196,77,167,-94,-879,293,139,118,87,183,-173,514,-90,-333,-86
37152,-155,344,52,-121,235,363,-251,425,156,-114,74,-586,-15,-53,215,249,-222,-270,50,174,-143,-646,201,112,109,66,173,-204,484,-87,-322,51
37153,-72,286,94,-193,256,439,-294,443,163,-108,127,-470,-49,-46,180,239,-141,-292,26,143,-187,-565,312,121,100,15,38,-118,474,-91,-316,113
37154,19,261,51,-210,251,483,-302,315,152,-119,148,-607,-33,-51,174,259,-119,-251,12,122,-196,-697,295,105,64,4,-15,-125,439,-170,-393,-121
37155,19,266,75,-193,279,559,-327,363,148,-90,206,-701,23,-56,208,184,-163,-175,29,160,-176,-579,266,119,73,37,74,-121,461,-115,-348,-9
37156,-38,257,72,-242,277,569,-300,444,160,-76,270,-659,0,-57,207,164,-309,-198,33,161,-163,-634,252,109,87,53,117,-148,480,-78,-286,84
37157,5,223,105,-241,266,637,-294,379,161,-60,315,-574,-8,-58,234,128,-170,-214,55,172,-138,-665,333,143,110,97,175,-21,537,-4,-220,157
37158,21,280,187,-205,279,553,-286,414,168,-66,290,-548,10,-35,259,133,-179,-147,85,189,-117,-708,365,173,127,118,199,52,563,1,-214,160
37159,-3,275,226,-91,279,589,-300,368,136,-88,197,-452,-8,-52,247,55,-224,-123,28,159,-128,-590,340,131,87,81,184,-180,457,-106,-309,82
37160,45,216,209,-105,273,560,-321,268,130,-74,293,-368,-23,-63,269,37,-151,-110,23,174,-94,-509,604,126,78,105,236,-390,392,-129,-288,151
37161,87,195,163,-109,258,413,-322,264,142,-87,228,-531,-20,-65,274,185,-234,-191,40,190,-60,-536,423,145,124,165,317,-83,527,2,-173,305
37162,91,243,116,-123,285,149,-222,259,130,-64,227,-510,-23,-57,270,322,-200,-188,34,196,-78,-610,168,142,120,141,298,56,534,-20,-186,249
37163,67,291,126,-156,290,210,-98,257,104,-78,193,-486,-30,-53,257,375,123,-187,34,192,-74,-585,120,114,123,133,252,-133,498,-65,-257,118
37164,0,351,145,-253,308,555,-138,288,100,-70,218,-475,-29,-52,241,374,-38,-215,23,167,-92,-470,190,80,94,133,245,-197,424,-121,-316,100
37165,-19,301,228,-204,310,647,-202,286,110,-70,134,-431,-33,-54,241,365,-87,-179,42,183,-100,-532,262,133,129,153,253,-10,522,-32,-240,137
37166,-88,257,243,-43,310,526,-170,359,129,-77,116,-511,-31,-70,211,313,-91,-216,23,166,-164,-674,220,111,84,51,55,-140,466,-123,-414,-281
37167,-52,265,229,-52,304,403,-149,330,108,-74,175,-545,-59,-66,227,338,-84,-253,0,151,-148,-741,141,46,40,45,124,-491,303,-233,-444,-106
37168,-31,203,195,-71,287,257,-258,225,91,-79,162,-545,-96,-57,238,342,-113,-263,0,152,-147,-675,199,45,58,47,139,-343,336,-201,-381,-41
37169,-71,229,222,-191,278,338,-249,223,103,-62,214,-480,-65,-67,230,274,-142,-217,8,161,-166,-671,232,85,62,39,93,-284,391,-167,-386,-138
37170,-158,258,140,-120,264,345,-264,231,114,-56,249,-509,-68,-65,246,263,-214,-231,1,172,-158,-702,199,83,62,59,118,-283,398,-151,-370,-98
37171,-114,312,54,-74,270,386,-277,246,108,-77,245,-544,-52,-63,228,215,-159,-255,0,159,-164,-606,204,89,80,54,115,-266,390,-143,-342,-22
37172,18,309,46,-68,254,287,-358,331,129,-101,202,-545,-45,-60,229,204,-243,-238,8,150,-141,-728,252,86,80,66,134,-217,432,-115,-337,-36
37173,111,296,106,-64,278,202,-376,409,148,-76,233,-482,-8,-34,246,245,-265,-220,34,180,-128,-590,300,131,98,89,148,-128,484,-69,-312,-37
37174,162,234,142,-116,288,351,-318,353,152,-60,208,-481,0,-12,249,280,-169,-237,67,186,-88,-467,266,125,121,125,297,-132,511,-21,-237,111
37175,48,95,46,-201,262,538,-272,225,118,-59,310,-645,-25,-39,277,185,-199,-264,44,178,-91,-594,260,100,127,120,342,-152,506,-25,-250,-35
37176,-28,27,49,-254,245,620,-254,140,110,-81,248,-601,-66,-51,266,131,-438,-277,41,180,-145,-717,300,107,112,79,120,-263,455,-69,-304,-28
37177,-85,39,74,-271,269,694,-311,163,127,-62,208,-427,-74,-53,256,220,-179,-357,10,153,-160,-641,89,68,75,45,52,-371,355,-176,-405,-53
37178,-89,49,76,-199,269,615,-278,193,114,-82,170,-477,-62,-54,226,300,-26,-325,18,157,-185,-804,167,78,111,72,93,-260,421,-84,-346,-60
37179,-87,136,170,-233,250,504,-347,219,116,-86,169,-672,-15,-27,222,337,-214,-228,43,186,-167,-822,542,140,137,98,133,-282,442,-68,-309,15
37180,-60,200,167,-309,230,491,-343,258,137,-109,117,-711,-7,-32,235,198,-196,-216,45,192,-116,-681,269,109,129,120,175,-421,405,-92,-291,47
37181,-131,270,124,-385,241,548,-220,400,160,-93,171,-660,-18,-28,246,132,-192,-271,27,177,-100,-554,37,91,126,125,228,-283,426,-69,-268,51
37182,-265,267,55,-279,228,573,-209,350,121,-99,165,-607,-46,-56,237,172,-279,-295,6,152,-121,-525,8,65,103,75,138,-298,394,-124,-347,-122
37183,-191,331,-22,-119,234,485,-196,465,128,-99,145,-542,-36,-42,253,263,-107,-270,34,172,-63,-558,52,81,112,120,204,-277,430,-66,-278,32
37184,-87,325,-51,-149,232,348,-171,300,133,-109,89,-565,-43,-43,227,295,-167,-283,40,167,-80,-637,38,76,106,114,193,-285,417,-93,-275,39
37185,42,253,11,-146,251,317,-147,251,113,-91,125,-555,-45,-47,213,265,-301,-248,44,168,-163,-630,89,138,127,130,158,-167,500,-39,-242,36
37186,61,243,44,-129,261,480,-193,304,114,-54,187,-539,-28,-16,244,172,-317,-240,44,181,-99,-842,199,176,162,145,245,66,617,60,-181,55
37187,-91,260,50,-147,257,352,-194,245,127,-58,210,-546,-36,-13,272,80,-261,-222,71,217,-86,-676,278,185,182,150,327,64,631,50,-208,-8
37188,-102,299,147,-204,272,307,-149,255,106,-38,247,-529,-8,-19,296,204,-142,-187,85,242,-77,-555,260,181,190,165,268,-161,577,15,-218,35
37189,-75,348,103,-176,259,474,-176,251,123,-45,275,-581,-8,-14,287,315,-143,-228,61,223,-77,-731,223,136,154,122,180,-332,428,-80,-319,-47
37190,-27,353,2,-193,260,418,-174,223,121,-47,315,-602,-26,-26,274,351,-173,-274,67,213,-65,-562,177,111,135,141,197,-379,412,-94,-313,37
37191,55,292,78,-199,277,439,-228,250,108,-43,241,-596,-43,-12,250,329,-177,-306,39,201,-123,-551,148,78,113,99,159,-456,339,-182,-355,127
37192,92,287,37,-168,260,486,-268,294,119,-67,157,-567,-23,-24,220,171,-347,-328,43,164,-202,-680,99,97,91,65,141,-400,344,-178,-374,24
37193,57,336,43,-153,253,436,-331,292,126,-88,186,-593,0,-40,222,135,-339,-325,43,163,-157,-641,131,91,96,81,206,-362,381,-150,-331,64
37194,-57,283,29,-170,249,396,-311,269,108,-87,225,-632,-25,-38,219,160,-208,-263,48,154,-137,-714,256,99,113,82,233,-334,396,-140,-337,35
37195,-50,238,63,-194,274,351,-271,139,129,-81,204,-716,-19,-7,215,237,-315,-232,64,179,-156,-693,247,147,120,78,140,-312,443,-118,-334,22
37196,0,173,120,-212,261,76,-313,117,147,-103,123,-695,28,-13,182,238,-415,-203,82,172,-183,-646,152,176,132,63,146,-178,504,-74,-346,-87
37197,17,132,134,-217,258,-35,-308,120,128,-86,110,-570,5,-22,172,185,-354,-220,65,145,-203,-698,137,122,107,15,120,-176,452,-144,-421,-207
37198,3,128,117,-256,253,389,-242,203,118,-81,139,-534,1,-31,177,170,-369,-258,60,138,-240,-933,229,101,77,-17,37,-184,440,-191,-484,-159
37199,-138,-69,72,-169,255,586,-310,289,113,-88,123,-658,0,-39,179,108,-201,-257,37,115,-237,-702,312,109,55,8,43,-217,445,-159,-376,-43
37200,-219,-103,78,-26,260,642,-378,319,153,-71,139,-687,29,-19,211,12,-111,-202,51,140,-214,-695,573,143,68,37,67,-247,456,-106,-340,21
37201,-186,17,31,-99,266,629,-397,346,145,-64,207,-635,24,-22,214,51,-390,-245,42,145,-185,-649,101,55,56,40,95,-454,355,-179,-400,29
37202,-173,139,-35,-172,266,517,-381,308,137,-46,236,-532,-28,-9,239,109,-322,-305,26,153,-213,-563,-92,34,53,17,105,-541,261,-280,-462,-45
37203,-191,219,-37,-182,280,521,-330,249,143,-43,249,-571,-51,-13,274,196,-371,-393,3,159,-182,-668,-15,20,50,53,150,-393,293,-237,-405,-52
37204,-181,256,-48,-277,262,542,-331,310,130,-23,242,-665,-25,-17,263,230,-394,-349,23,155,-169,-624,78,52,53,55,106,-277,377,-177,-391,-116
37205,-74,308,11,-270,253,459,-321,371,122,-45,180,-649,6,-20,243,113,-342,-261,54,175,-140,-749,170,100,76,63,180,-201,438,-107,-324,49
37206,-21,218,62,-254,246,398,-285,369,117,-80,164,-579,-16,-18,231,89,-237,-234,49,184,-154,-869,192,112,93,74,202,-209,442,-127,-328,50
37207,2,95,139,-318,247,451,-268,383,142,-63,120,-561,5,-7,206,319,-195,-214,65,171,-160,-563,154,116,105,79,181,-261,435,-147,-355,-3
37208,0,94,120,-301,235,523,-265,321,119,-71,160,-552,-6,-23,210,355,-258,-211,73,166,-185,-657,175,132,106,59,158,-169,511,-87,-340,-21
37209,-61,67,99,-222,253,630,-340,262,102,-73,299,-528,11,-15,237,245,-235,-197,62,164,-193,-737,158,155,95,42,104,-230,481,-114,-383,-113
37210,-158,162,-2,-149,254,724,-408,306,98,-63,309,-597,-8,-22,231,179,-246,-219,51,151,-200,-700,166,128,83,17,100,-251,471,-119,-378,-118
37211,-134,189,-13,-125,242,722,-483,300,99,-53,275,-585,-16,-24,236,195,-281,-199,62,155,-159,-732,197,141,86,45,162,-238,467,-118,-341,-28
37212,-81,180,17,-107,233,594,-444,355,116,-44,236,-542,4,-1,259,260,-303,-202,71,185,-108,-610,237,158,131,87,239,-174,488,-79,-289,-8
37213,-15,222,-29,-120,249,527,-281,442,148,-72,129,-541,49,0,217,248,-190,-160,78,178,-159,-693,222,130,116,72,159,-173,478,-106,-328,-80
37214,-58,204,-28,-84,277,480,-297,303,181,-82,21,-529,46,13,227,205,-102,-221,84,175,-174,-672,198,117,103,60,102,-175,448,-113,-334,-12
37215,-163,135,-58,-254,257,385,-333,218,139,-48,88,-488,-29,1,234,161,-212,-338,67,176,-161,-569,252,111,93,56,171,-158,453,-109,-325,-2
37216,-186,259,3,-200,258,206,-298,135,139,-60,81,-553,-57,24,244,201,-373,-326,79,198,-155,-600,291,121,139,86,194,-132,521,-65,-280,44
37217,-199,314,-24,-145,255,160,-277,108,133,-79,70,-673,-28,11,233,189,-449,-277,77,193,-155,-811,214,131,152,118,198,-97,569,-13,-245,107
37218,-169,347,-82,-158,236,108,-207,170,138,-88,62,-565,-30,-8,219,167,-324,-248,77,184,-178,-780,248,125,132,87,180,-99,513,-69,-308,-39
37219,-180,289,-54,-219,222,100,-175,182,119,-105,70,-393,-31,-12,230,168,-354,-265,69,205,-160,-744,283,133,126,89,136,-73,497,-85,-340,-46
37220,-168,231,-11,-268,208,236,-227,170,88,-110,149,-527,-65,-9,244,177,-240,-318,63,202,-131,-782,192,102,118,86,123,-333,422,-144,-341,-13
37221,-103,185,-6,-260,238,334,-300,225,104,-85,129,-803,-70,0,272,204,-255,-324,63,201,-156,-828,166,98,123,71,91,-264,425,-165,-419,-145
37222,-33,163,42,-275,261,396,-299,277,101,-57,153,-770,-54,2,255,183,-270,-329,51,198,-153,-855,110,71,93,68,173,-459,318,-223,-425,-59
37223,-17,156,118,-292,260,366,-356,27,109,-69,94,-590,-61,1,250,26,-258,-302,55,188,-154,-963,122,57,78,66,210,-508,305,-221,-423,-39
37224,-50,194,138,-256,258,256,-427,19,106,-75,70,-525,-33,-15,244,-4,-265,-252,59,199,-174,-804,440,107,92,62,74,-240,428,-156,-389,-81
37225,-112,192,59,-194,265,346,-477,172,115,-60,94,-569,-8,-10,228,73,-515,-243,67,192,-176,-640,399,99,70,68,41,-351,392,-187,-420,-151
37226,-69,228,12,-151,270,423,-333,205,154,-34,138,-584,-9,0,250,174,-336,-303,56,185,-162,-711,-27,74,68,55,49,-499,310,-235,-451,-214
37227,-65,117,-5,-174,255,421,-338,271,143,-46,133,-670,-10,1,243,187,-258,-321,62,199,-191,-811,-57,60,76,26,-9,-389,352,-197,-416,-111
37228,-114,42,6,-185,221,517,-447,293,137,-74,107,-714,-10,-17,210,108,-296,-307,31,166,-242,-866,22,51,55,9,6,-413,331,-247,-462,-65
37229,-101,64,70,-180,235,665,-396,357,157,-20,179,-622,40,0,271,109,-190,-249,76,202,-172,-788,113,98,80,74,111,-400,385,-142,-341,100
37230,-190,14,-20,-210,207,651,-414,435,127,-42,161,-653,16,-3,245,45,-321,-243,63,177,-181,-695,64,84,67,79,125,-254,398,-133,-372,56
37231,-200,23,-65,-204,223,471,-411,349,118,-63,148,-617,-23,-15,213,31,-451,-268,32,162,-225,-962,86,71,45,30,21,-194,393,-196,-487,-301
37232,-173,122,2,-205,217,455,-342,285,115,-78,120,-600,-31,-29,205,104,-410,-301,16,141,-241,-796,85,66,31,0,-11,-391,327,-261,-485,-284
37233,-236,309,-84,-236,232,486,-239,431,125,-67,170,-601,-11,-36,219,153,-374,-264,19,144,-204,-737,60,80,46,49,77,-446,353,-204,-411,-64
37234,-126,438,-121,-275,243,484,-222,556,138,-36,195,-518,-18,-38,238,166,-284,-292,24,165,-139,-869,138,64,64,78,179,-307,361,-175,-356,53
37235,-91,305,-90,-293,246,542,-260,437,152,-38,196,-568,-15,-41,245,180,-292,-307,31,165,-137,-837,259,90,68,90,208,-235,389,-152,-305,120
37236,-152,50,68,-186,261,522,-330,448,145,-56,92,-526,0,-47,224,187,-243,-256,24,158,-160,-723,228,114,55,75,98,-368,391,-187,-400,-86
37237,-98,57,116,-29,254,583,-411,419,142,-52,94,-623,-16,-27,220,157,-284,-250,26,146,-167,-629,99,104,62,59,96,-442,362,-203,-438,-181
37238,-143,106,25,-95,266,672,-413,415,130,-40,200,-670,-7,-48,245,122,-471,-235,33,163,-124,-641,111,109,82,120,222,-369,426,-86,-293,87
37239,-115,110,40,-143,263,630,-414,260,112,-51,291,-578,-11,-64,238,146,-292,-238,16,129,-160,-804,169,68,40,29,37,-418,345,-201,-414,-171
37240,-7,230,119,-96,264,354,-288,154,107,-45,228,-455,-29,-58,229,182,-138,-212,33,149,-182,-996,284,98,49,-5,-27,-328,335,-294,-551,-496
37241,57,336,114,-88,279,189,-202,266,126,-36,215,-427,5,-19,280,238,-231,-176,62,195,-116,-604,229,141,109,95,119,-257,425,-133,-384,-150
37242,16,259,75,-89,266,261,-317,263,111,-53,135,-512,-1,-28,242,313,-428,-231,35,191,-125,-449,145,109,77,77,91,-309,399,-159,-391,-157
37243,-134,280,70,-122,265,54,-320,244,136,-54,180,-592,-13,-27,252,325,-325,-252,39,186,-108,-627,147,133,77,79,129,-341,378,-206,-434,-155
37244,-170,318,67,-183,271,117,-227,176,140,-54,162,-677,-1,-30,277,274,-207,-246,58,200,-77,-679,240,149,94,115,228,-279,462,-142,-349,-25
37245,-49,321,160,-207,268,286,-220,175,145,-52,116,-623,2,-25,277,30,-265,-206,73,207,-90,-815,202,139,86,104,218,-237,451,-133,-360,-100
37246,51,277,147,-242,267,283,-216,214,158,-53,109,-510,1,-4,267,-8,-283,-203,74,202,-92,-697,157,143,120,110,143,-301,429,-132,-319,-65
37247,-19,170,-9,-272,267,414,-190,184,101,-89,73,-486,-33,-27,233,127,-289,-194,49,180,-141,-663,271,122,84,72,67,-248,419,-154,-397,-121
37248,-26,139,20,-250,281,442,-243,217,110,-61,101,-522,-23,-21,245,195,-279,-165,63,205,-134,-788,584,167,95,71,69,-297,435,-160,-423,-252
37249,-73,224,29,-222,274,447,-222,286,116,-44,196,-427,-13,-16,277,234,-366,-209,64,238,-88,-798,269,168,105,108,155,-366,439,-111,-352,-59
37250,-80,262,52,-312,280,565,-232,316,115,-55,180,-356,-6,-25,264,303,-334,-222,53,198,-143,-716,31,144,92,69,107,-257,453,-113,-376,-119
37251,-35,285,81,-288,276,551,-227,358,121,-59,206,-587,-15,-29,268,255,-227,-242,48,203,-128,-804,64,135,105,84,164,-142,508,-61,-326,-106
37252,14,356,100,-156,282,540,-165,444,126,-51,271,-631,-1,-7,300,211,-198,-208,77,219,-92,-796,222,164,135,143,226,-96,562,-18,-235,0
37253,45,326,62,-164,297,575,-144,483,148,-54,283,-559,9,1,285,250,-150,-185,87,199,-105,-562,217,167,129,113,128,-179,530,-37,-286,8
37254,34,237,22,-198,283,536,-213,438,137,-44,303,-537,-5,-18,278,286,-205,-262,73,212,-115,-602,204,150,124,119,166,-234,494,-81,-304,26
37255,-31,158,90,-164,286,744,-325,293,159,-28,214,-514,-6,4,276,229,-242,-224,81,214,-131,-800,267,178,129,123,171,-168,536,-63,-303,-61
37256,-90,118,115,-109,278,693,-343,240,165,-21,144,-570,-15,-12,289,228,-192,-180,86,202,-95,-873,262,192,124,126,172,-174,540,-40,-297,-76
37257,-82,173,131,-80,284,658,-322,269,185,-3,197,-592,17,10,328,309,-139,-140,132,243,-32,-694,291,218,155,182,275,-127,592,6,-225,64
37258,-36,255,172,-132,282,622,-289,272,145,-22,203,-581,26,-1,323,337,-220,-174,109,235,-13,-621,301,205,140,179,314,-105,594,16,-201,132
37259,38,319,182,-226,270,558,-197,316,116,-22,288,-538,3,-1,345,380,-239,-218,82,236,-6,-500,285,199,129,163,291,-92,575,-7,-234,98
37260,16,375,128,-203,261,455,-116,306,126,-29,295,-448,7,15,346,365,-185,-194,87,231,7,-357,280,207,124,179,302,-149,559,4,-234,116
37261,-38,269,130,-197,272,423,-181,241,130,-55,316,-397,6,0,352,379,-289,-197,94,240,54,-660,287,184,131,223,448,-204,545,9,-204,148
37262,4,87,184,-187,258,374,-245,290,137,-62,336,-476,8,-12,317,274,-434,-149,106,212,-51,-632,373,190,114,143,174,16,594,-12,-282,-90
37263,-57,140,135,-82,277,372,-251,449,154,-31,296,-543,24,-7,280,235,-104,-154,89,193,-106,-857,296,186,97,85,54,-38,568,-53,-350,-141
