,Fp1,Fp2,F7,F3,Fz,F4,F8,FC5,FC1,FC2,FC6,T7,C3,Cz,C4,T8,TP9,CP5,CP1,CP2,CP6,TP10,P7,P3,Pz,P4,P8,PO9,O1,Oz,O2,PO10
237901,-181,-196,-279,-359,-160,-297,-393,11,-169,-244,-328,-386,38,-472,-30,-240,-334,-313,-108,-31,-524,-136,-179,-208,62,-307,-41,-434,-321,-619,-349,-369
237902,-151,-100,-247,-340,-141,-293,-329,-30,-173,-234,-347,-400,22,-473,-35,-265,-353,-326,-105,-24,-540,-118,-242,-228,72,-299,-97,-477,-333,-586,-358,-421
237903,-149,-77,-220,-345,-174,-327,-227,-49,-187,-251,-319,-393,16,-481,-45,-245,-327,-390,-116,-9,-532,-158,-287,-244,86,-285,-49,-495,-321,-601,-391,-453
237904,-140,-91,-190,-317,-163,-347,-170,-51,-158,-237,-287,-372,40,-454,-18,-209,-297,-372,-102,7,-530,-34,-254,-204,98,-277,-37,-435,-272,-565,-307,-354
237905,-123,-125,-125,-309,-144,-308,-224,-32,-164,-229,-263,-363,48,-458,-10,-192,-320,-340,-91,15,-539,-15,-228,-188,97,-273,-2,-422,-286,-549,-301,-331
237906,-137,-108,-64,-308,-147,-319,-231,-55,-162,-221,-261,-345,64,-460,-7,-234,-364,-316,-63,16,-532,32,-229,-177,100,-275,-42,-436,-299,-561,-325,-371
237907,-133,-61,-36,-330,-145,-322,-204,-71,-159,-214,-246,-349,63,-445,16,-209,-320,-309,-37,41,-507,30,-209,-146,153,-244,-38,-420,-272,-515,-284,-320
237908,-117,-58,-31,-331,-146,-329,-225,-72,-159,-216,-255,-517,69,-424,11,-204,-311,-304,-27,49,-517,74,-202,-129,154,-222,-32,-399,-263,-510,-265,-287
237909,-130,-101,-58,-316,-163,-358,-229,-117,-164,-229,-269,-531,58,-435,5,-140,-310,-327,-54,43,-507,41,-210,-149,140,-246,-42,-432,-278,-525,-298,-369
237910,-129,-127,-38,-316,-156,-366,-246,-109,-165,-225,-275,-308,61,-444,20,-134,-306,-338,-53,37,-488,1,-207,-159,143,-252,-42,-468,-318,-545,-320,-397
237911,-159,-154,-99,-366,-169,-371,-283,-108,-169,-240,-295,-310,44,-436,2,-180,-319,-321,-59,27,-480,-37,-246,-173,128,-255,-18,-457,-318,-574,-333,-418
237912,-222,-201,-282,-350,-161,-365,-323,-92,-162,-257,-344,-340,55,-455,-42,-372,-356,-313,-71,20,-515,-72,-251,-181,107,-285,-78,-476,-331,-606,-375,-440
237913,-228,-225,-262,-338,-153,-360,-352,-85,-182,-259,-359,-385,43,-494,-55,-478,-348,-355,-83,-18,-538,-73,-289,-204,90,-314,-101,-492,-379,-624,-395,-486
237914,-172,-170,-145,-321,-119,-324,-300,-54,-167,-232,-319,-423,48,-483,-31,-293,-324,-385,-83,-6,-527,-64,-321,-209,92,-317,-87,-540,-390,-631,-383,-454
237915,-188,-186,-145,-293,-140,-322,-305,-39,-166,-229,-325,-409,15,-481,-47,-258,-329,-370,-102,-26,-550,-108,-296,-218,84,-324,-124,-530,-374,-638,-373,-432
237916,-170,-158,-141,-278,-160,-332,-333,-33,-151,-233,-342,-418,9,-492,-59,-298,-354,-359,-124,-59,-557,-133,-283,-227,50,-363,-141,-531,-382,-651,-413,-480
237917,-174,-107,-187,-291,-142,-345,-302,-44,-151,-236,-343,-406,19,-492,-58,-279,-366,-349,-131,-50,-537,-218,-276,-211,46,-379,-127,-549,-346,-632,-422,-470
237918,-183,-41,-194,-284,-146,-383,-297,-55,-153,-249,-348,-427,6,-501,-75,-270,-376,-357,-145,-63,-530,-228,-315,-224,29,-371,-69,-563,-385,-688,-463,-493
237919,-166,-35,-197,-268,-148,-270,-316,-53,-158,-256,-356,-397,-11,-506,-75,-305,-370,-391,-164,-72,-554,-179,-350,-255,16,-365,-64,-574,-400,-693,-483,-575
237920,-86,-115,-151,-269,-117,-226,-293,-20,-142,-240,-337,-389,13,-495,-35,-283,-302,-344,-129,-40,-537,-101,-306,-210,40,-325,-138,-573,-343,-625,-432,-494
237921,-80,-167,-121,-311,-125,-243,-314,-50,-149,-235,-308,-351,20,-483,-41,-245,-308,-310,-117,-35,-521,-165,-265,-199,42,-340,-185,-535,-324,-634,-450,-464
237922,-62,-171,-110,-305,-121,-240,-354,-81,-156,-239,-314,-320,1,-499,-39,-264,-301,-339,-136,-49,-536,-106,-213,-181,38,-349,-180,-488,-298,-614,-446,-486
237923,-74,-227,-65,-301,-131,-276,-380,-87,-170,-257,-353,-302,0,-530,-46,-270,-303,-314,-123,-73,-551,-176,-175,-175,29,-352,-204,-460,-270,-598,-429,-481
237924,-82,-232,6,-294,-107,-259,-376,-66,-163,-227,-339,-278,25,-531,-51,-264,-251,-281,-118,-56,-560,-149,-139,-170,38,-357,-255,-392,-253,-593,-420,-447
237925,-87,-194,-32,-304,-130,-260,-392,-54,-164,-248,-305,-271,2,-542,-61,-275,-222,-294,-142,-64,-578,-112,-158,-182,27,-364,-255,-362,-263,-577,-422,-409
237926,-105,-158,-48,-330,-130,-254,-359,-256,-163,-255,-313,-238,-4,-524,-66,-316,-191,-276,-133,-84,-613,-143,-114,-176,15,-383,-279,-357,-263,-581,-422,-418
237927,-112,-253,-103,-312,-116,-212,-325,-95,-156,-253,-310,-294,0,-529,-89,-352,-193,-302,-146,-83,-631,-144,-132,-215,10,-380,-261,-439,-291,-613,-438,-457
237928,-94,-212,-158,-300,-115,-252,-283,157,-166,-257,-283,-369,12,-536,-69,-332,-257,-284,-128,-69,-628,-139,-166,-201,23,-363,-192,-446,-293,-621,-432,-400
237929,-66,-125,-101,-285,-95,-318,-253,114,-153,-261,-296,-302,28,-529,-58,-303,-220,-241,-117,-51,-601,-161,-110,-165,41,-344,-155,-391,-263,-609,-414,-396
237930,-51,-55,-15,-274,-75,-400,-195,82,-144,-244,-281,-252,55,-511,-42,-203,-155,-215,-100,-14,-541,-164,-71,-147,83,-289,-63,-421,-242,-578,-357,-422
237931,-57,-64,52,-271,-86,-394,-227,24,-164,-235,-308,-230,34,-529,-37,-168,-88,-254,-88,-14,-495,-49,-69,-159,63,-269,23,-423,-277,-574,-342,-430
237932,-85,-59,10,-284,-88,-367,-232,-2,-158,-240,-287,-226,50,-508,-3,-194,-126,-248,-86,3,-467,46,-70,-143,76,-252,67,-370,-266,-526,-298,-305
237933,-102,-5,-48,-275,-88,-338,-221,-5,-156,-244,-259,-241,60,-506,3,-192,-229,-232,-94,5,-472,-20,-94,-135,87,-257,40,-369,-251,-528,-302,-318
237934,-101,-9,6,-311,-100,-308,-264,-5,-166,-245,-243,-206,74,-488,7,-152,-213,-228,-94,28,-428,21,-71,-124,93,-212,70,-349,-227,-520,-302,-353
237935,-82,-40,0,-326,-91,-282,-235,-23,-155,-227,-218,-202,67,-491,15,-161,-264,-244,-72,29,-402,66,-98,-126,128,-214,82,-341,-224,-508,-262,-343
237936,-105,-85,5,-264,-99,-271,-224,-1,-149,-202,-233,-259,60,-504,34,-98,-311,-251,-68,30,-403,51,-176,-126,129,-207,51,-331,-231,-500,-257,-321
237937,-106,-169,-8,-229,-74,-253,-230,64,-129,-200,-198,-286,79,-495,53,-13,-241,-245,-67,50,-384,41,-148,-98,127,-174,51,-283,-187,-486,-219,-313
237938,-171,-191,-55,-199,-68,-239,-156,34,-137,-202,-237,-325,53,-505,41,-71,-133,-272,-69,56,-405,82,-130,-112,118,-200,17,-313,-171,-490,-234,-224
237939,-219,-111,-93,-221,-69,-222,-161,-36,-153,-206,-234,-370,44,-529,41,-157,-217,-288,-89,37,-420,-48,-156,-138,117,-221,-1,-414,-214,-503,-278,-307
237940,-180,0,-124,-266,-93,-206,-193,-26,-172,-210,-207,-317,20,-552,31,-301,-274,-311,-97,14,-457,-190,-188,-165,85,-242,-81,-432,-267,-561,-329,-381
237941,-120,4,-102,-251,-54,-213,-204,13,-162,-174,-197,-280,28,-530,23,-257,-240,-315,-100,12,-483,-138,-215,-161,68,-248,-80,-380,-287,-560,-341,-409
237942,-94,-50,-92,-265,-80,-235,-265,16,-185,-188,-213,-246,37,-535,13,-154,-241,-306,-108,-2,-481,-8,-208,-190,91,-269,-67,-385,-279,-559,-315,-360
237943,-118,-104,-109,-291,-92,-222,-264,3,-184,-206,-224,-234,45,-538,13,-192,-218,-288,-92,9,-481,52,-148,-157,68,-269,-31,-356,-279,-560,-331,-328
237944,-117,-94,-131,-280,-65,-213,-215,30,-165,-167,-227,-220,83,-507,20,-231,-184,-244,-72,23,-473,90,-131,-127,76,-282,-5,-361,-283,-576,-354,-409
237945,-91,-64,-120,-282,-86,-229,-229,49,-166,-174,-241,-245,75,-516,5,-226,-164,-232,-80,7,-514,4,-138,-130,72,-307,-56,-320,-266,-569,-354,-401
237946,-87,-22,-79,-301,-106,-265,-242,33,-176,-207,-288,-299,61,-538,-15,-217,-144,-290,-103,-8,-515,-23,-181,-162,57,-316,-64,-364,-293,-587,-369,-381
237947,-113,55,-40,-296,-95,-268,-223,-4,-163,-212,-275,-296,54,-513,0,-212,-167,-266,-82,-15,-508,11,-160,-172,78,-305,-46,-374,-284,-573,-353,-387
237948,-83,64,18,-291,-94,-249,-253,-7,-157,-191,-315,-287,47,-499,1,-226,-235,-253,-86,-14,-534,-6,-175,-170,61,-347,-101,-366,-299,-612,-397,-421
237949,-59,-58,38,-315,-84,-254,-216,-12,-152,-170,-348,-232,41,-503,2,-223,-226,-282,-102,-18,-530,-15,-213,-192,41,-362,-155,-388,-343,-666,-437,-448
237950,-100,-234,0,-351,-123,-279,-194,-60,-193,-210,-301,-294,3,-521,-31,-269,-273,-301,-133,-62,-589,-89,-267,-246,-3,-402,-188,-430,-407,-680,-474,-495
237951,-92,-298,3,-343,-100,-259,-299,-76,-192,-231,-282,-324,-11,-517,-46,-284,-308,-314,-147,-62,-622,-99,-292,-266,-24,-419,-199,-441,-426,-690,-504,-531
237952,-132,-233,-18,-350,-105,-257,-345,-90,-188,-215,-304,-358,-8,-527,-47,-306,-324,-335,-157,-85,-631,-114,-324,-273,-34,-442,-239,-477,-453,-723,-539,-534
237953,-159,-197,-31,-347,-114,-284,-277,-86,-189,-213,-317,-399,-17,-532,-45,-309,-297,-372,-169,-83,-631,-96,-345,-282,-42,-444,-245,-479,-454,-731,-561,-528
237954,-152,-188,-30,-345,-125,-306,-241,-141,-184,-226,-306,-372,-24,-513,-51,-316,-307,-339,-144,-66,-625,-103,-294,-270,-31,-455,-256,-501,-481,-749,-570,-542
237955,-160,-174,-89,-364,-122,-294,-282,-302,-202,-207,-305,-287,-12,-514,-54,-322,-354,-309,-141,-69,-614,-134,-216,-250,-11,-446,-223,-527,-460,-703,-527,-521
237956,-192,-187,-102,-318,-122,-289,-264,-52,-175,-205,-277,-279,20,-498,-31,-291,-302,-316,-114,-64,-595,-151,-209,-249,9,-419,-208,-455,-400,-654,-517,-481
237957,-207,-136,-139,-260,-128,-279,-282,106,-154,-208,-273,-296,28,-477,3,-255,-167,-327,-87,-29,-566,-163,-233,-229,49,-358,-125,-374,-343,-601,-477,-425
237958,-182,-56,-188,-251,-117,-261,-253,39,-174,-182,-243,-318,20,-485,17,-230,-187,-370,-111,-2,-507,-95,-276,-225,41,-317,6,-399,-356,-591,-465,-449
237959,-145,4,-154,-256,-120,-277,-202,34,-154,-189,-196,-294,47,-480,43,-190,-189,-361,-94,37,-443,-79,-231,-212,71,-282,47,-394,-352,-591,-404,-452
237960,-102,10,-45,-268,-115,-345,-214,-3,-167,-212,-212,-286,61,-465,48,-187,-295,-330,-84,15,-431,-77,-224,-199,75,-272,5,-452,-383,-609,-370,-342
237961,-64,-56,-39,-309,-125,-288,-227,-38,-188,-197,-226,-318,40,-477,44,-124,-281,-342,-94,28,-428,-80,-240,-224,71,-258,-48,-445,-387,-589,-367,-364
237962,-35,-54,0,-338,-129,-242,-198,-48,-184,-185,-186,-323,29,-464,52,-91,-256,-358,-92,26,-416,-120,-258,-221,58,-265,-65,-454,-382,-614,-399,-449
237963,-56,-52,-33,-344,-125,-217,-211,-58,-190,-202,-187,-313,32,-465,44,-110,-247,-349,-82,36,-391,-161,-233,-211,66,-262,-37,-428,-353,-594,-355,-425
237964,-99,-65,-52,-334,-131,-218,-264,-68,-197,-199,-219,-298,23,-468,22,-231,-262,-342,-86,20,-413,-91,-222,-196,72,-272,-78,-403,-327,-576,-342,-438
237965,-134,-94,-102,-345,-144,-261,-300,-31,-200,-237,-253,-308,27,-472,-12,-338,-280,-335,-114,-10,-480,-68,-241,-202,44,-306,-198,-442,-339,-599,-359,-419
237966,-143,-154,-147,-354,-140,-265,-240,-15,-187,-235,-254,-304,52,-479,-20,-233,-275,-338,-103,-21,-508,-154,-203,-178,56,-319,-228,-461,-315,-615,-375,-457
237967,-146,-164,-128,-286,-125,-280,-186,12,-174,-207,-215,-292,51,-481,-6,-152,-279,-310,-86,-20,-498,-127,-185,-185,46,-316,-184,-471,-331,-596,-363,-389
237968,-136,-139,-123,-318,-151,-275,-181,-1,-184,-220,-194,-333,34,-477,6,-139,-303,-331,-107,-27,-486,-93,-221,-209,44,-295,-140,-451,-326,-597,-366,-383
237969,-146,-66,-86,-325,-145,-260,-173,-44,-193,-182,-185,-321,27,-447,52,-155,-269,-322,-95,0,-449,-25,-216,-205,65,-263,-87,-412,-312,-562,-352,-398
237970,-133,54,1,-317,-150,-268,-169,-11,-196,-185,-197,-365,33,-467,42,-169,-273,-309,-109,-5,-473,-61,-219,-195,58,-292,-110,-468,-342,-587,-371,-451
237971,-67,111,105,-327,-133,-236,-175,-6,-182,-172,-248,-311,33,-456,8,-179,-222,-269,-69,11,-481,-87,-168,-173,91,-262,-83,-430,-320,-590,-355,-473
237972,-82,62,100,-342,-135,-215,-191,-5,-188,-192,-307,-388,39,-470,25,-167,-181,-294,-73,19,-464,-68,-194,-162,84,-253,-57,-405,-291,-564,-316,-394
237973,-75,-40,67,-324,-128,-206,-84,1,-169,-157,-222,-400,71,-446,73,-123,-191,-287,-33,48,-434,-17,-170,-149,121,-225,-26,-390,-269,-521,-297,-364
237974,-74,-131,13,-292,-143,-252,-97,11,-160,-182,-201,-320,101,-428,48,-88,-216,-225,-17,64,-418,-14,-72,-102,153,-213,-11,-389,-227,-503,-269,-384
237975,-122,-235,-54,-275,-150,-234,-152,75,-142,-177,-184,-250,145,-425,69,-84,-167,-196,7,77,-445,31,-8,-76,179,-222,-27,-429,-218,-514,-260,-287
237976,-164,-251,-96,-295,-167,-226,-163,114,-159,-189,-194,-176,138,-405,60,-111,-170,-198,3,78,-432,10,-9,-92,173,-213,-19,-424,-250,-535,-302,-319
237977,-89,-134,-21,-310,-160,-211,-124,84,-172,-170,-168,-162,129,-392,80,-107,-223,-207,1,113,-419,-11,-61,-118,172,-217,6,-407,-303,-598,-343,-447
237978,-66,-62,13,-320,-162,-241,-126,3,-181,-161,-170,-230,96,-402,70,-119,-255,-229,-14,95,-424,2,-94,-126,145,-202,34,-393,-315,-592,-338,-448
237979,-75,-55,36,-345,-172,-265,-130,-30,-176,-158,-199,-322,80,-419,55,-132,-255,-225,-29,78,-414,-9,-113,-133,139,-215,-6,-427,-326,-579,-323,-405
237980,-75,-23,-16,-346,-178,-237,-169,47,-153,-181,-189,-493,88,-418,72,-104,-240,-243,-28,75,-395,-116,-152,-141,159,-220,-19,-447,-344,-604,-330,-371
237981,-136,-1,-130,-344,-171,-214,-206,13,-186,-196,-162,-388,37,-444,64,-72,-232,-316,-53,67,-413,-98,-185,-166,147,-208,-34,-475,-350,-623,-329,-382
237982,-143,11,-156,-316,-177,-206,-145,-32,-183,-169,-171,-213,63,-455,76,-76,-237,-263,-45,61,-454,-81,-159,-157,130,-223,-23,-462,-348,-632,-368,-463
237983,-150,-5,-99,-289,-166,-181,-147,-185,-175,-171,-163,-216,69,-423,81,-107,-176,-226,-28,76,-431,-23,-178,-133,135,-204,31,-345,-317,-596,-319,-365
237984,-136,-28,-99,-253,-160,-182,-124,70,-165,-173,-171,-321,40,-439,57,-134,-196,-333,-71,55,-456,-37,-237,-193,103,-231,-1,-408,-397,-643,-370,-414
237985,-107,-41,-98,-235,-164,-205,-136,128,-159,-169,-175,-283,44,-447,64,-135,-279,-328,-84,38,-475,-43,-213,-208,99,-250,-16,-435,-431,-666,-386,-443
237986,-79,-64,-14,-284,-155,-255,-165,2,-159,-185,-195,-252,35,-438,48,-107,-344,-311,-82,37,-474,-61,-217,-212,93,-267,-24,-450,-425,-663,-393,-458
237987,-163,-138,-45,-329,-185,-286,-206,-74,-195,-231,-240,-306,10,-460,16,-162,-339,-338,-88,12,-499,-108,-235,-249,74,-288,-42,-446,-450,-677,-415,-512
237988,-198,-150,-93,-354,-202,-292,-231,-58,-169,-234,-257,-326,14,-451,24,-212,-332,-346,-98,19,-494,-133,-251,-237,60,-268,-66,-455,-435,-660,-406,-427
237989,-202,-187,-85,-395,-194,-257,-258,-75,-178,-215,-305,-355,1,-452,25,-355,-303,-379,-107,23,-492,-187,-305,-240,55,-265,-101,-490,-429,-659,-413,-438
237990,-127,-164,-67,-373,-171,-245,-253,-93,-189,-207,-353,-367,13,-449,15,-427,-259,-365,-100,13,-511,-86,-299,-218,91,-267,-110,-459,-381,-636,-392,-426
237991,-87,-153,20,-341,-168,-288,-265,-68,-193,-222,-350,-321,33,-444,-11,-284,-314,-312,-95,1,-550,-40,-245,-184,98,-261,-109,-404,-349,-603,-373,-403
237992,-93,-121,-7,-380,-202,-300,-298,-73,-181,-253,-309,-303,30,-463,-11,-261,-352,-299,-81,9,-535,-67,-209,-186,92,-271,-70,-368,-333,-593,-374,-456
237993,-95,-71,-72,-392,-179,-285,-252,-74,-181,-248,-284,-332,13,-446,4,-261,-277,-347,-90,6,-496,-99,-242,-208,82,-298,-37,-343,-321,-594,-394,-409
237994,-46,-76,-12,-377,-165,-289,-211,-35,-172,-231,-253,-350,58,-435,-5,-247,-246,-325,-72,21,-501,-51,-190,-192,93,-289,-14,-313,-291,-596,-368,-433
237995,-97,-149,5,-371,-164,-308,-236,-21,-162,-232,-260,-324,78,-450,-9,-249,-211,-305,-56,8,-502,-24,-151,-160,91,-290,18,-306,-246,-547,-317,-390
237996,-123,-239,7,-340,-167,-297,-269,-10,-164,-219,-276,-327,70,-452,0,-249,-222,-273,-58,15,-499,-50,-134,-160,102,-280,-2,-354,-256,-547,-322,-359
237997,-108,-273,2,-328,-142,-258,-231,1,-166,-210,-251,-273,53,-469,5,-234,-227,-273,-89,8,-492,-150,-147,-167,96,-272,-31,-391,-275,-559,-332,-377
237998,-71,-224,-29,-325,-145,-210,-269,58,-178,-211,-218,-285,41,-497,16,-224,-233,-308,-103,-8,-498,-115,-181,-198,72,-283,-39,-406,-259,-543,-348,-456
237999,-35,-163,-37,-306,-141,-203,-280,144,-167,-193,-206,-306,44,-488,17,-251,-205,-301,-106,-10,-500,-65,-165,-198,74,-300,-63,-382,-257,-539,-324,-463
238000,-78,-66,-78,-314,-151,-231,-196,29,-173,-200,-201,-276,32,-483,23,-264,-262,-247,-110,-1,-511,-111,-121,-177,72,-294,-129,-381,-249,-543,-331,-379
238001,-87,37,-73,-309,-157,-261,-165,0,-173,-205,-243,-328,48,-482,2,-260,-309,-247,-102,-20,-548,-101,-128,-182,70,-315,-228,-406,-280,-584,-371,-396
238002,-84,126,-64,-294,-137,-270,-191,29,-164,-179,-267,-286,65,-468,14,-222,-301,-265,-88,-15,-547,-51,-111,-171,65,-311,-174,-399,-260,-568,-361,-373
238003,-180,86,-131,-273,-149,-268,-234,-32,-172,-221,-255,-283,29,-500,-7,-226,-330,-301,-104,-17,-566,-94,-121,-168,53,-341,-169,-408,-265,-625,-413,-445
238004,-275,28,-106,-243,-142,-246,-246,0,-173,-204,-267,-277,57,-495,-8,-268,-289,-270,-82,-11,-553,-121,-141,-138,64,-329,-169,-425,-302,-667,-471,-556
238005,-288,-4,-58,-243,-154,-249,-184,10,-161,-211,-254,-296,43,-478,-4,-262,-319,-264,-90,-11,-531,-161,-161,-146,100,-298,-166,-451,-306,-625,-436,-545
238006,-162,-34,-104,-235,-150,-271,-117,70,-161,-209,-213,-282,62,-472,21,-224,-235,-268,-66,2,-513,-194,-145,-139,121,-296,-189,-370,-272,-556,-364,-404
238007,-78,20,-91,-231,-135,-353,-59,91,-160,-218,-187,-260,67,-456,25,-148,-176,-305,-60,46,-485,-110,-135,-133,112,-271,-141,-266,-243,-557,-338,-346
238008,-74,84,-72,-274,-129,-329,-123,62,-159,-207,-176,-288,53,-454,41,-59,-252,-291,-57,52,-453,-98,-152,-137,143,-259,-103,-318,-281,-596,-365,-393
238009,-79,65,-74,-315,-133,-286,-209,-19,-173,-202,-195,-305,27,-469,28,-68,-233,-324,-74,29,-463,-199,-205,-169,115,-284,-158,-399,-344,-641,-434,-510
238010,-59,-29,-89,-321,-135,-282,-208,-62,-183,-228,-213,-311,-7,-460,36,-165,-204,-374,-92,33,-473,-196,-230,-197,84,-272,-198,-426,-376,-667,-480,-521
238011,-44,-104,-100,-388,-150,-256,-179,-337,-197,-216,-229,-284,-30,-482,16,-362,-281,-352,-108,27,-487,-119,-210,-220,69,-291,-201,-419,-400,-710,-484,-450
238012,-16,-123,-23,-347,-130,-237,-161,-177,-185,-191,-264,-284,-9,-499,-1,-402,-280,-344,-115,19,-509,-90,-216,-223,58,-309,-167,-406,-403,-707,-482,-462
238013,16,-95,-3,-330,-133,-249,-169,41,-196,-196,-278,-317,-3,-504,5,-245,-261,-361,-117,0,-512,-68,-207,-249,50,-310,-100,-439,-445,-706,-466,-469
238014,-45,-88,-22,-365,-133,-241,-212,-25,-206,-191,-283,-317,-2,-503,25,-230,-266,-364,-136,-4,-484,-57,-215,-244,43,-273,-95,-446,-455,-694,-433,-433
238015,-85,-99,-1,-319,-102,-239,-128,15,-172,-180,-248,-326,12,-481,42,-218,-252,-368,-136,36,-487,-33,-222,-240,67,-258,-74,-416,-436,-654,-373,-378
238016,-56,-100,-45,-279,-125,-254,-141,30,-174,-185,-225,-394,4,-489,14,-228,-248,-384,-122,18,-503,-86,-239,-252,65,-280,-104,-461,-452,-667,-387,-418
238017,-14,-87,-33,-280,-133,-216,-190,-56,-187,-152,-236,-329,-21,-499,30,-238,-241,-357,-123,22,-502,-77,-183,-261,63,-277,-96,-429,-430,-642,-391,-448
238018,-28,-64,-45,-292,-98,-172,-253,-5,-173,-145,-240,-321,20,-485,49,-238,-259,-299,-106,36,-507,-47,-142,-233,66,-255,-53,-385,-376,-605,-344,-405
238019,-9,-68,-43,-282,-117,-162,-305,29,-171,-180,-198,-251,32,-491,28,-238,-258,-316,-122,19,-514,-90,-210,-247,55,-279,-95,-421,-398,-631,-373,-383
238020,0,-61,-17,-251,-127,-140,-273,31,-161,-171,-203,-201,51,-477,22,-242,-215,-291,-102,23,-521,-90,-232,-223,66,-281,-72,-389,-381,-619,-368,-350
238021,-31,-125,3,-262,-127,-165,-244,19,-155,-192,-227,-219,39,-494,4,-237,-200,-343,-109,6,-542,-151,-276,-234,30,-293,-89,-432,-407,-653,-382,-360
238022,-35,-77,39,-297,-130,-195,-201,11,-159,-184,-240,-256,28,-465,31,-202,-204,-379,-117,19,-526,-263,-306,-250,43,-284,-132,-446,-400,-634,-398,-355
238023,-62,4,76,-288,-120,-223,-168,4,-139,-171,-226,-221,43,-451,40,-207,-207,-319,-82,42,-501,-160,-237,-210,92,-270,-110,-348,-328,-584,-344,-324
238024,-95,18,40,-279,-124,-240,-167,20,-146,-205,-237,-266,42,-471,15,-226,-209,-300,-104,27,-509,-153,-233,-210,59,-295,-138,-378,-337,-620,-381,-403
238025,-54,-4,10,-263,-113,-226,-156,60,-151,-207,-234,-272,52,-473,29,-221,-228,-303,-112,16,-516,-118,-240,-202,52,-291,-127,-434,-356,-628,-380,-446
238026,-2,-3,-11,-270,-127,-234,-132,108,-160,-192,-229,-290,45,-471,17,-202,-189,-337,-91,22,-524,-121,-214,-203,60,-288,-108,-457,-348,-622,-380,-435
238027,28,50,58,-268,-101,-194,-85,82,-141,-171,-200,-225,78,-445,35,-186,-199,-303,-75,51,-490,-69,-163,-178,92,-275,-160,-382,-323,-617,-387,-424
238028,1,9,67,-292,-119,-195,-94,14,-173,-164,-190,-210,66,-450,45,-209,-271,-289,-78,31,-521,-110,-153,-178,83,-286,-232,-416,-341,-626,-400,-462
238029,-29,-69,49,-300,-96,-184,-104,23,-172,-157,-179,-230,48,-460,50,-238,-218,-339,-82,46,-488,-70,-212,-197,83,-279,-220,-410,-357,-626,-385,-474
238030,-51,-65,43,-282,-100,-183,-101,26,-166,-182,-191,-245,43,-466,53,-284,-228,-341,-105,37,-511,3,-229,-201,81,-272,-195,-419,-379,-639,-394,-403
238031,-36,-16,23,-303,-104,-191,-87,-9,-176,-170,-191,-290,18,-485,45,-265,-296,-389,-116,24,-523,7,-278,-242,62,-282,-119,-448,-390,-652,-393,-346
238032,-5,68,8,-321,-103,-178,-94,-28,-186,-150,-171,-303,27,-482,66,-198,-259,-372,-100,47,-499,25,-281,-250,72,-277,-64,-431,-373,-631,-365,-246
238033,-30,137,-81,-313,-105,-168,-78,-13,-175,-165,-181,-410,-6,-492,60,-144,-246,-400,-125,24,-480,6,-285,-241,52,-254,-45,-442,-383,-638,-349,-270
238034,-32,132,-70,-330,-99,-173,-91,-53,-184,-178,-179,-420,-22,-494,63,-110,-269,-405,-124,26,-525,-13,-288,-232,50,-273,-86,-450,-386,-630,-357,-308
238035,-33,33,-49,-336,-122,-178,-141,-32,-195,-188,-209,-477,-2,-504,42,-111,-275,-369,-139,2,-558,-64,-280,-247,23,-317,-177,-454,-391,-649,-392,-380
238036,-45,18,-43,-316,-102,-142,-156,22,-179,-181,-220,-558,24,-470,55,-138,-221,-368,-103,17,-528,-7,-260,-200,58,-291,-155,-444,-337,-619,-350,-364
238037,-97,95,-79,-320,-99,-141,-107,-12,-180,-163,-176,-344,2,-458,66,-224,-143,-380,-85,43,-474,28,-244,-187,77,-249,-100,-394,-314,-584,-318,-343
238038,-94,141,-34,-266,-106,-168,-94,1,-168,-163,-165,-136,18,-463,70,-336,-187,-324,-88,56,-484,40,-181,-179,85,-244,-62,-429,-305,-574,-310,-322
238039,-7,91,60,-245,-89,-150,-102,40,-158,-162,-174,-124,38,-467,66,-211,-234,-286,-74,53,-467,46,-162,-163,85,-250,-78,-431,-303,-586,-308,-313
238040,46,64,103,-226,-86,-164,-78,34,-175,-180,-162,-152,35,-458,76,-107,-207,-298,-77,52,-462,31,-180,-167,92,-243,-46,-379,-306,-571,-305,-312
238041,42,23,93,-274,-100,-179,-103,9,-197,-196,-168,-217,14,-470,69,-151,-240,-338,-95,46,-460,-3,-207,-187,87,-257,-21,-411,-331,-586,-312,-318
238042,2,-28,73,-240,-95,-186,-107,10,-177,-163,-158,-269,14,-472,74,-118,-223,-328,-94,59,-414,-89,-213,-201,103,-231,16,-411,-319,-599,-336,-315
238043,-28,-42,-12,-262,-90,-167,-90,41,-161,-164,-188,-313,18,-464,86,-93,-207,-346,-117,41,-406,-142,-227,-233,84,-221,78,-425,-336,-612,-338,-420
238044,21,-23,-25,-303,-93,-166,-89,19,-171,-178,-137,-311,0,-464,56,-111,-243,-388,-121,31,-424,-62,-260,-228,70,-255,24,-446,-340,-632,-350,-448
238045,19,3,-10,-285,-95,-164,-92,-137,-183,-164,-125,-260,2,-481,53,-124,-301,-360,-121,22,-444,-69,-229,-220,66,-262,-108,-421,-335,-646,-372,-425
238046,20,71,37,-260,-85,-141,-104,-243,-188,-170,-125,-198,-5,-487,79,-119,-300,-353,-123,28,-431,-84,-225,-226,65,-245,-181,-459,-373,-641,-374,-420
238047,80,70,134,-214,-90,-160,-105,88,-173,-171,-127,-217,1,-485,68,-140,-276,-386,-148,19,-461,-95,-263,-260,61,-264,-172,-450,-387,-643,-368,-403
238048,106,11,181,-209,-84,-170,-106,116,-151,-162,-161,-207,23,-494,58,-175,-232,-348,-137,26,-488,-66,-242,-259,56,-289,-171,-404,-357,-606,-340,-327
238049,23,13,197,-200,-68,-153,-150,80,-159,-171,-154,-261,7,-490,57,-153,-202,-393,-144,4,-498,-88,-211,-255,39,-290,-166,-453,-358,-605,-331,-315
238050,-13,41,131,-274,-90,-149,-222,80,-169,-184,-169,-312,-2,-509,40,-166,-235,-386,-144,-4,-505,-83,-186,-246,48,-286,-160,-475,-353,-614,-355,-396
