,Fp1,Fp2,F7,F3,Fz,F4,F8,FC5,FC1,FC2,FC6,T7,C3,Cz,C4,T8,TP9,CP5,CP1,CP2,CP6,TP10,P7,P3,Pz,P4,P8,PO9,O1,Oz,O2,PO10
161213,617,528,562,551,5,647,524,617,126,32,442,77,217,111,486,433,574,236,128,194,107,835,529,131,80,245,406,441,356,469,257,210
161214,619,505,554,548,5,633,513,614,110,46,410,64,197,111,502,405,584,235,119,180,72,820,541,130,65,205,380,439,371,441,252,208
161215,654,518,566,568,-2,642,506,627,108,51,420,66,165,98,531,392,549,199,83,159,64,805,489,86,7,189,373,389,331,383,214,171
161216,667,537,610,549,5,661,525,626,122,43,464,61,165,102,502,418,543,161,68,138,86,818,457,40,-10,182,395,359,273,360,193,129
161217,697,577,619,599,9,656,575,653,138,27,488,81,180,88,437,461,601,172,66,113,98,867,488,40,-25,182,421,360,267,366,188,135
161218,701,587,556,578,9,665,540,629,120,42,508,57,166,79,495,484,606,148,69,123,81,868,493,20,-41,193,407,385,275,353,157,147
161219,680,568,543,576,17,651,580,620,135,22,470,35,191,80,463,495,576,145,87,130,56,866,496,30,-33,191,398,406,322,433,194,161
161220,649,537,540,573,-22,610,544,651,132,4,399,53,209,66,455,456,558,187,99,136,61,835,509,82,-37,197,388,459,400,494,228,153
161221,654,564,544,567,9,633,545,647,153,17,421,51,220,95,474,506,584,210,129,151,89,891,530,125,18,222,433,479,416,494,250,194
161222,624,549,525,547,-5,617,540,604,138,31,434,19,206,93,451,466,565,199,120,146,83,867,515,83,4,184,402,474,365,412,159,178
161223,616,532,501,541,-14,624,543,636,138,36,421,39,208,112,501,427,550,194,142,158,107,880,515,104,5,202,419,467,358,418,195,194
161224,630,522,547,536,-20,622,476,653,141,20,421,69,220,117,490,429,583,195,138,139,109,868,462,108,-13,187,440,324,248,372,216,216
161225,613,517,520,533,-40,617,457,633,142,25,484,59,211,115,503,438,584,176,131,131,116,865,434,85,1,189,443,266,189,320,162,216
161226,627,505,538,528,-54,587,486,618,122,3,428,57,193,83,463,361,582,170,110,114,80,854,445,67,-16,170,394,215,148,289,117,176
161227,644,536,592,542,-30,603,546,574,145,11,380,81,199,81,449,375,601,157,115,127,81,880,440,71,-30,166,401,236,168,292,84,130
161228,612,507,592,529,-46,603,519,598,128,10,407,75,213,101,461,445,599,158,117,148,107,900,457,73,-13,186,446,313,247,362,160,156
161229,596,481,522,528,-35,594,516,613,130,4,413,47,203,111,462,470,578,133,123,159,121,873,506,75,10,211,470,370,317,468,239,209
161230,572,455,518,505,-55,572,513,591,112,4,412,40,188,98,472,482,558,158,122,141,129,863,488,65,13,226,457,369,328,424,210,217
161231,586,461,555,542,-24,585,521,640,149,27,407,79,216,115,506,521,598,193,146,159,161,916,495,116,20,242,477,447,355,394,179,204
161232,598,461,533,545,-46,589,504,649,146,17,379,89,233,119,519,509,601,195,150,158,142,922,509,117,-5,212,470,414,338,385,164,191
161233,577,468,530,507,-59,595,516,623,119,29,407,46,206,127,533,483,569,166,142,153,99,884,466,85,14,211,466,265,248,366,134,157
161234,588,480,546,481,-51,602,571,606,107,39,480,35,201,124,497,517,609,172,154,179,124,881,490,93,21,222,466,246,195,343,175,196
161235,591,501,561,509,-47,612,605,623,127,21,483,74,233,148,474,535,665,215,197,193,168,925,512,130,66,255,505,368,286,428,231,273
161236,618,519,609,541,-37,598,545,636,142,21,434,106,246,156,521,471,634,224,219,196,154,915,507,164,58,279,496,391,339,461,243,259
161237,639,537,600,553,-22,621,563,671,159,30,458,104,271,157,535,486,610,244,234,202,156,943,556,199,79,285,510,414,357,481,253,273
161238,602,505,542,507,-42,608,524,655,145,14,428,110,279,150,501,455,662,267,226,199,160,905,578,215,81,270,488,465,388,491,241,239
161239,579,457,536,518,-37,578,460,636,138,6,421,114,276,148,491,405,662,269,216,174,142,881,549,185,54,230,436,429,358,442,196,168
161240,567,459,553,532,-53,545,465,625,140,11,398,88,274,135,493,388,628,230,193,170,126,900,522,153,38,212,459,390,322,425,212,188
161241,565,457,542,518,-60,539,471,633,147,-2,399,72,258,131,488,397,626,227,191,173,135,872,508,146,51,223,473,389,327,434,235,208
161242,568,445,561,509,-76,543,434,641,146,7,437,62,251,108,466,409,637,234,193,167,114,830,517,153,53,226,448,412,337,474,258,256
161243,583,498,584,546,-50,568,474,658,168,9,371,103,286,127,461,457,666,246,198,188,128,879,589,175,71,262,440,446,365,488,288,275
161244,608,512,569,546,-37,566,524,643,148,14,365,103,251,123,490,478,654,226,201,203,153,902,549,176,78,290,499,429,360,480,302,279
161245,605,491,567,535,-48,585,474,640,130,13,386,62,236,129,525,426,615,227,202,185,142,885,498,154,73,251,476,375,326,478,264,245
161246,599,479,568,513,-59,584,468,639,137,22,457,59,251,122,529,403,638,236,192,203,155,863,531,176,111,276,491,440,405,557,342,302
161247,611,501,599,540,-45,587,501,645,141,6,455,72,271,141,464,430,682,227,228,216,192,895,602,218,142,337,548,511,466,630,408,347
161248,623,509,632,566,-47,550,491,674,160,9,364,77,277,148,459,350,688,227,237,230,149,876,612,225,166,328,549,506,486,625,427,335
161249,607,483,599,526,-64,545,463,645,133,11,391,52,259,141,479,359,690,242,218,237,148,841,597,206,153,331,517,488,472,584,400,301
161250,638,493,597,519,-62,575,495,669,134,4,415,64,229,153,483,419,695,204,208,232,144,855,566,210,128,316,488,475,437,547,345,232
161251,623,485,569,537,-75,562,463,703,127,2,391,47,227,148,489,453,677,207,198,233,127,879,539,189,122,339,508,453,434,552,345,284
161252,619,486,597,549,-64,580,469,704,137,18,379,77,252,151,498,397,705,260,228,258,153,897,606,223,152,397,560,568,540,691,439,383
161253,659,490,612,540,-56,586,449,677,146,26,399,79,244,144,517,388,688,271,232,260,167,911,650,235,169,391,548,562,570,724,449,357
161254,671,507,634,558,-56,583,452,632,132,18,408,109,243,129,521,419,701,262,204,250,179,919,609,217,150,388,559,464,470,655,440,328
161255,617,468,581,531,-69,558,434,599,101,9,407,100,207,118,514,458,707,251,194,247,177,853,587,197,145,380,554,467,457,646,425,347
161256,622,477,558,525,-68,601,477,605,93,22,508,110,206,148,533,459,725,236,203,284,166,846,622,194,156,372,527,496,486,623,363,272
161257,618,462,569,528,-76,565,405,614,89,1,410,129,197,147,500,408,717,230,196,249,120,868,630,193,135,334,503,498,472,579,307,212
161258,610,464,568,524,-62,536,418,629,121,-4,302,115,228,152,473,381,742,232,216,245,121,839,639,218,168,336,511,527,483,608,350,250
161259,593,455,552,528,-72,550,441,625,125,-10,351,117,241,144,473,329,741,244,232,259,118,816,627,213,158,344,508,520,427,583,353,302
161260,621,453,613,572,-70,530,435,628,147,-15,361,141,251,155,483,336,710,251,237,262,133,848,629,202,148,340,530,466,396,573,355,335
161261,611,445,610,583,-57,517,430,635,140,3,354,157,258,156,488,336,681,271,245,281,143,865,645,201,149,356,527,488,454,597,377,345
161262,611,435,583,557,-77,518,423,647,151,17,317,141,255,149,492,316,688,253,247,261,136,850,653,189,155,349,516,510,469,595,368,324
161263,581,424,569,540,-64,508,391,631,142,0,311,122,230,142,501,308,714,202,195,230,107,853,635,157,119,307,503,433,421,545,320,302
161264,574,442,564,540,-70,520,434,627,136,-18,411,89,198,130,426,381,705,190,164,207,115,889,590,136,113,283,524,391,384,524,311,303
161265,587,464,593,563,-62,524,458,640,138,-13,423,124,204,113,428,408,705,220,154,204,126,920,595,148,101,292,517,468,425,555,313,322
161266,641,497,638,567,-40,555,456,661,153,-3,472,135,221,103,483,431,725,196,156,186,121,952,606,152,78,275,494,437,399,508,268,273
161267,633,490,608,556,-68,555,455,661,146,1,402,104,222,88,450,385,694,232,164,161,83,902,574,144,67,269,462,416,355,486,254,246
161268,615,487,572,550,-74,531,383,605,137,-45,316,113,230,77,427,343,653,239,167,152,45,887,601,158,50,260,451,429,380,484,269,260
161269,581,498,541,550,-54,551,426,539,161,-17,380,110,242,109,443,345,633,239,181,168,89,871,588,161,83,266,476,449,415,530,295,262
161270,572,456,514,542,-86,535,424,615,161,-15,358,88,256,116,430,341,621,251,157,164,95,845,595,175,51,265,447,499,465,602,357,311
161271,595,489,523,515,-76,579,447,671,120,-20,367,103,219,81,425,356,651,252,142,160,110,870,600,175,41,270,463,496,497,638,366,339
161272,619,494,556,522,-57,597,481,648,125,-16,371,120,166,58,437,341,663,221,121,134,73,833,558,149,23,219,438,474,405,525,241,223
161273,619,503,535,515,-56,610,484,611,119,-9,392,83,158,73,467,296,652,195,113,117,55,817,555,107,9,189,379,451,334,425,135,138
161274,576,487,489,479,-72,575,416,535,82,14,387,57,139,65,482,280,597,152,122,125,79,842,559,86,11,209,411,397,321,462,189,208
161275,599,498,538,511,-61,601,467,596,113,9,455,46,181,92,427,405,598,173,139,153,91,855,572,121,59,223,463,418,376,558,285,262
161276,555,495,480,527,-58,591,489,621,119,0,440,27,192,97,410,389,612,180,144,154,58,867,507,123,65,211,423,409,370,551,297,283
161277,572,526,474,533,-47,576,499,607,127,10,375,46,186,79,431,365,598,154,142,139,41,874,504,117,51,204,423,372,308,452,225,226
161278,559,485,481,521,-66,566,477,632,128,-2,394,41,188,59,406,372,549,147,87,107,34,846,490,52,8,167,370,269,212,326,108,123
161279,531,465,481,514,-69,579,452,664,129,-29,413,45,209,59,414,378,545,197,96,116,61,834,476,58,-2,171,358,286,216,317,98,95
161280,545,515,501,540,-30,593,467,643,111,-30,420,-8,191,51,454,392,553,146,93,124,94,857,435,49,8,191,395,309,234,364,134,131
161281,538,492,492,515,-53,593,454,585,117,-14,430,-11,169,66,455,418,601,119,103,126,105,829,405,53,4,226,413,311,248,400,171,146
161282,555,513,486,517,-32,616,471,560,129,7,467,15,168,71,475,411,607,107,116,152,138,842,411,59,41,254,413,317,270,411,188,148
161283,568,528,519,538,-24,613,513,586,129,8,476,60,197,67,480,431,560,168,133,145,127,871,523,103,63,252,426,374,333,470,226,192
161284,580,504,548,576,-22,612,527,602,139,10,476,104,230,79,457,424,565,218,145,160,119,844,553,142,60,268,457,405,390,496,258,216
161285,588,512,528,557,-16,614,488,610,137,21,474,115,224,82,484,476,547,235,158,168,155,869,535,145,58,295,492,392,380,501,285,216
161286,584,516,476,552,-21,606,498,597,120,11,474,114,213,89,508,416,573,234,152,168,150,881,531,124,52,304,491,382,352,505,273,249
161287,579,502,486,557,-15,624,467,588,113,41,562,81,206,94,569,432,568,201,145,182,160,893,518,97,34,284,471,319,287,428,232,206
161288,568,528,483,549,-22,622,464,579,93,49,504,27,199,81,574,473,542,217,151,177,173,899,477,99,26,277,493,304,275,401,200,193
161289,574,532,462,552,-45,591,535,566,93,30,385,18,213,102,522,488,574,222,156,198,200,927,528,131,47,304,502,375,335,438,233,243
161290,575,503,492,565,-29,577,558,583,124,29,473,19,221,106,469,523,559,214,193,213,212,955,512,132,69,318,516,401,388,494,256,275
161291,568,484,501,560,-16,574,532,588,132,32,463,11,217,100,525,491,530,192,169,215,183,912,482,122,53,283,465,395,373,447,200,204
161292,556,499,481,533,-56,591,544,565,103,11,429,10,199,113,521,432,492,188,132,180,134,880,468,88,0,219,387,325,284,357,85,44
161293,538,484,474,535,-50,610,515,576,115,25,480,24,198,100,538,432,495,179,136,187,137,882,430,72,3,199,393,275,181,278,64,57
161294,547,475,444,507,-54,588,515,553,121,1,494,-12,191,97,468,499,490,148,145,153,145,904,420,74,21,190,418,277,199,262,61,109
161295,525,469,432,497,-53,575,494,547,111,23,477,-9,196,102,503,478,476,151,148,157,136,837,453,97,31,190,413,328,248,304,82,95
161296,495,463,441,499,-39,569,412,553,104,30,465,-20,195,101,526,468,473,172,162,168,130,818,477,92,54,202,393,364,275,352,100,78
161297,500,465,469,510,-61,583,388,558,102,46,451,-11,209,104,500,419,515,180,177,169,108,804,467,121,75,203,402,342,309,376,134,74
161298,513,512,533,529,-51,581,465,592,115,55,478,30,227,106,495,453,546,189,180,193,124,827,445,126,95,233,407,272,255,349,146,140
161299,564,496,561,572,-34,574,483,602,146,37,497,31,217,110,507,452,539,170,188,205,135,799,451,114,92,234,438,279,212,352,157,185
161300,563,469,562,545,-51,583,455,610,125,30,523,30,233,110,514,453,557,193,184,195,143,818,468,105,98,230,446,294,206,337,165,184
161301,559,474,530,550,-46,581,430,607,130,15,481,38,259,112,501,424,577,207,203,189,132,807,494,124,96,217,425,287,236,366,179,189
161302,556,473,487,550,-44,571,441,594,143,27,460,15,245,105,482,377,543,198,182,166,106,738,478,96,62,194,374,267,222,355,143,163
161303,555,467,509,559,-26,536,412,640,148,42,417,21,239,100,459,388,540,183,164,159,72,710,438,77,29,186,359,249,205,342,157,147
161304,549,447,526,586,-22,554,423,613,152,44,385,-41,199,74,439,338,539,129,138,133,57,745,407,65,9,184,371,246,209,348,146,109
161305,550,439,521,593,-39,549,431,606,138,14,358,-87,178,78,439,246,518,74,125,127,66,741,399,39,9,187,351,309,289,399,167,29
161306,532,438,482,583,-27,542,409,615,134,11,381,-97,179,95,459,231,473,91,135,165,92,730,456,78,50,230,371,366,361,472,243,78
161307,541,446,494,576,-26,541,379,596,140,8,339,-53,200,112,458,327,472,159,165,194,102,714,510,117,103,262,399,414,409,526,274,106
161308,557,434,505,589,-37,532,376,595,133,-1,340,-34,209,87,455,395,509,154,185,206,111,728,446,93,107,256,405,405,372,438,223,73
161309,571,442,504,592,-39,561,389,606,160,9,413,-3,216,116,468,332,532,156,202,224,102,777,465,115,130,263,366,378,323,425,209,126
161310,551,429,518,603,-54,584,385,622,163,13,398,32,232,121,494,338,564,158,227,249,118,813,485,126,163,285,389,344,327,462,231,180
161311,557,410,514,583,-55,534,422,649,161,0,297,61,275,127,506,420,569,211,247,253,112,822,450,142,181,321,421,306,312,461,261,189
161312,596,420,568,605,-53,537,413,643,161,14,312,86,311,147,498,405,601,250,278,266,115,791,507,165,183,351,445,335,311,474,265,211
161313,583,435,565,608,-60,543,380,583,170,2,390,107,322,176,489,410,641,245,276,278,157,819,565,177,205,347,461,342,323,498,297,231
161314,561,470,548,606,-68,539,456,655,185,8,407,132,332,173,450,427,613,268,287,292,140,828,566,181,186,350,454,329,351,499,299,219
161315,550,462,530,588,-72,545,438,756,160,20,461,124,303,187,509,436,610,273,295,312,165,850,588,221,225,375,476,394,435,535,312,230
161316,562,453,542,561,-73,584,457,711,161,35,456,131,295,195,522,429,637,287,302,312,168,851,604,227,222,358,464,388,424,527,301,198
161317,521,432,486,551,-73,542,447,646,174,20,308,75,287,158,501,374,626,262,281,283,118,839,585,200,182,321,442,330,318,461,263,234
161318,495,412,511,541,-61,528,401,605,171,9,335,68,286,163,494,355,652,269,282,271,136,841,571,215,177,312,458,331,338,485,263,202
161319,513,419,507,550,-71,529,437,619,158,-24,363,58,282,148,420,388,633,252,262,242,107,834,538,192,136,278,423,365,323,440,205,148
161320,504,423,482,543,-71,555,440,600,163,-16,366,49,260,139,433,361,595,220,248,219,97,816,542,193,126,267,392,393,333,407,173,138
161321,504,431,509,541,-61,563,414,605,163,-15,378,57,265,148,453,400,594,245,260,248,137,838,571,224,167,334,455,404,402,512,264,208
161322,485,419,497,532,-89,545,428,590,131,-1,397,46,242,156,474,419,631,226,256,268,166,846,581,216,167,340,484,422,414,537,289,246
161323,481,420,521,522,-85,546,423,602,123,10,378,46,272,156,484,442,667,231,263,287,166,909,621,247,190,336,508,400,414,527,292,245
161324,493,420,521,524,-78,556,421,596,115,-4,384,78,290,160,491,462,699,310,271,302,188,936,656,287,195,349,515,450,440,539,312,251
161325,486,434,480,507,-71,554,427,612,138,10,423,104,296,164,505,474,722,318,287,298,224,964,674,288,194,358,527,483,454,561,314,264
161326,500,417,504,512,-85,545,448,650,150,1,403,102,321,162,495,476,756,298,293,280,192,986,667,293,170,345,526,497,486,566,300,285
161327,488,392,492,512,-88,534,426,666,138,-28,374,104,308,146,472,372,762,310,285,266,173,945,681,282,162,322,511,544,493,584,327,278
161328,490,402,497,519,-79,522,402,654,150,-24,397,113,301,156,495,356,763,328,283,258,198,962,674,280,156,323,505,537,492,590,311,271
161329,508,382,525,540,-83,503,375,651,149,-36,367,133,294,140,474,359,753,328,285,252,178,923,670,286,150,305,486,525,505,571,281,285
161330,521,394,558,567,-52,510,373,666,163,-14,380,167,307,152,498,405,786,311,270,258,175,897,680,284,170,289,475,575,491,534,244,279
161331,509,391,545,557,-61,518,360,672,146,-6,368,165,301,137,498,444,688,306,252,255,168,912,645,247,150,293,460,509,456,504,228,273
161332,518,387,551,537,-62,546,347,645,149,5,442,140,278,139,508,447,695,299,251,261,135,886,642,223,123,288,455,469,431,480,209,232
161333,434,341,498,503,-80,529,380,612,149,-4,427,103,264,146,500,428,691,248,238,262,120,873,608,215,126,283,447,465,438,508,237,282
161334,419,331,474,483,-112,496,399,582,108,-36,313,79,238,125,474,405,654,232,207,229,100,839,588,174,91,264,423,448,412,465,214,245
161335,453,360,497,494,-99,496,356,583,108,-25,307,89,227,126,451,393,681,280,195,203,88,819,604,163,72,238,415,432,396,410,180,182
161336,482,380,518,521,-78,527,362,601,131,-22,362,112,240,129,475,385,664,289,194,221,98,841,602,161,76,262,422,466,405,435,200,174
161337,479,388,474,502,-106,509,354,600,116,-32,363,94,234,116,491,331,643,266,190,241,113,842,623,178,88,287,441,480,449,479,245,182
161338,490,398,458,500,-67,513,360,615,137,-10,396,76,245,144,507,381,647,265,203,251,154,871,574,186,122,304,498,461,475,506,251,230
161339,490,387,503,534,-57,507,380,625,129,-16,362,66,237,139,499,361,600,235,191,245,152,897,516,148,141,288,496,365,373,452,242,252
161340,484,401,514,535,-57,532,415,631,141,1,387,93,234,156,521,391,619,225,201,258,176,887,523,155,152,315,515,338,313,413,249,278
161341,482,416,490,521,-71,558,419,631,122,10,362,86,243,170,520,409,618,243,212,223,147,841,531,165,137,297,496,344,325,439,225,230
161342,497,437,504,536,-60,578,405,652,139,31,343,102,240,177,566,414,608,252,211,262,164,800,558,174,158,314,516,361,361,466,254,218
161343,506,425,514,531,-52,603,418,642,131,41,400,91,251,163,551,446,607,230,187,258,145,841,526,157,150,310,470,328,347,440,221,216
161344,520,434,499,546,-61,563,483,667,123,4,454,93,254,169,475,462,595,236,204,247,164,849,548,171,127,333,468,367,386,450,233,246
161345,499,445,491,542,-56,548,408,644,115,23,387,111,253,172,488,428,588,263,213,257,160,843,557,162,128,336,475,377,414,454,253,218
161346,508,441,532,549,-62,562,398,625,128,-3,363,123,247,142,497,423,597,241,197,231,150,843,525,146,122,300,463,362,357,430,216,180
161347,538,428,556,558,-59,565,384,650,144,-11,383,123,240,123,531,397,583,248,181,228,147,771,517,144,75,270,443,345,327,403,194,163
161348,535,465,598,584,-27,571,459,671,159,-19,442,158,249,116,478,473,612,298,179,205,166,826,560,169,88,278,488,330,346,438,236,203
161349,551,495,568,582,-23,600,495,683,165,-9,470,153,231,108,487,496,625,260,171,195,175,896,514,161,106,291,508,289,312,430,253,238
161350,575,496,550,578,20,627,512,654,151,14,490,127,225,100,510,503,603,241,162,187,163,884,502,145,86,276,491,293,299,419,220,212
161351,558,485,525,578,22,627,485,651,162,16,481,107,226,116,511,498,584,209,163,206,161,817,536,144,92,280,471,334,347,466,264,178
161352,547,466,546,583,-4,577,403,679,152,-12,411,66,220,106,490,467,591,216,170,195,133,820,525,147,81,287,465,354,365,501,282,200
161353,543,476,558,597,-2,626,439,692,152,13,518,70,243,112,515,490,592,252,190,207,167,838,527,175,109,307,471,355,363,508,307,215
161354,526,435,538,556,-30,563,444,687,132,-19,466,84,222,104,508,464,591,242,187,202,136,811,525,157,116,290,449,370,359,499,273,163
161355,522,440,536,569,-46,577,446,669,127,-25,442,102,236,141,536,497,613,262,200,230,166,824,559,189,148,301,485,411,418,497,284,194
161356,516,482,535,544,-35,609,469,659,139,9,479,125,251,159,561,475,648,290,231,275,183,832,607,251,216,354,505,476,493,596,376,265
161357,548,474,568,534,-22,591,526,664,125,14,420,134,249,159,539,473,672,303,244,258,194,899,607,259,242,377,528,500,545,645,411,279
161358,541,478,556,545,-36,610,535,646,132,21,448,145,245,163,558,414,618,296,270,259,197,924,630,255,224,371,523,520,554,649,398,285
161359,528,464,525,531,-47,584,482,646,146,11,436,133,258,152,541,409,623,279,278,275,169,867,636,254,221,351,487,528,565,638,405,258
161360,526,453,497,543,-51,567,456,649,144,15,472,99,277,165,544,487,596,286,290,309,181,865,587,267,238,377,534,459,511,639,417,360
161361,546,472,506,549,-44,582,499,619,132,16,496,107,262,162,549,522,609,250,272,291,201,889,572,247,209,356,561,440,454,600,390,347
161362,571,515,557,572,-23,569,468,661,141,2,429,149,268,151,536,473,651,254,274,251,159,947,624,223,187,325,524,381,380,489,294,193
