,Fp1,Fp2,F7,F3,Fz,F4,F8,FC5,FC1,FC2,FC6,T7,C3,Cz,C4,T8,TP9,CP5,CP1,CP2,CP6,TP10,P7,P3,Pz,P4,P8,PO9,O1,Oz,O2,PO10
11456,-845,-225,101,-534,-193,332,-195,281,-34,-146,30,-179,-237,-257,86,-367,135,-188,-43,-9,-292,-895,222,-32,120,-221,216,126,-262,-190,85,-278
11457,-840,-164,228,-643,-189,262,-174,371,-29,-180,-23,-365,-229,-289,51,-361,74,-175,-66,-46,-346,-942,180,-80,46,-319,61,-11,-363,-366,-142,-439
11458,-832,-168,151,-687,-183,313,-92,343,-37,-159,-12,-398,-232,-288,56,-255,52,-186,-56,-24,-303,-913,259,-53,74,-239,229,11,-328,-295,-17,-336
11459,-702,-162,76,-718,-198,284,27,213,-75,-167,-26,-262,-247,-285,71,-250,135,-204,-41,10,-296,-830,280,-32,112,-170,277,46,-244,-204,90,-238
11460,-605,-146,-37,-782,-212,298,55,110,-78,-155,-6,-130,-282,-283,84,-250,131,-200,-20,5,-302,-912,286,0,136,-181,233,56,-230,-177,135,-173
11461,-647,-106,68,-661,-175,324,76,288,-49,-147,1,-192,-236,-282,99,-209,185,-143,-5,10,-251,-981,307,8,129,-192,190,0,-297,-245,38,-343
11462,-756,-117,26,-577,-153,254,115,386,-33,-156,11,-159,-179,-265,116,-98,250,-139,8,61,-173,-953,376,84,165,-93,300,-1,-228,-168,168,-101
11463,-775,-157,42,-565,-141,214,52,412,22,-138,10,-135,-105,-222,145,-141,226,2,72,108,-114,-856,479,150,250,-20,441,219,-58,54,439,359
11464,-785,-165,143,-572,-152,255,-4,355,4,-150,-45,-91,-110,-251,102,-184,217,83,78,86,-165,-918,597,189,234,-78,302,348,-74,14,304,147
11465,-841,-228,122,-574,-155,342,-47,317,-18,-138,43,-37,-160,-249,102,-168,202,38,76,58,-227,-940,588,176,207,-84,255,102,-73,-24,204,-229
11466,-916,-349,47,-529,-179,307,73,359,-16,-137,8,-70,-194,-257,90,-191,166,-16,-3,40,-267,-907,442,85,168,-152,174,105,-191,-173,-17,-529
11467,-793,-333,134,-512,-188,290,179,407,-9,-148,-5,-22,-186,-247,91,-157,-55,104,13,35,-246,-1010,344,77,144,-135,153,-164,-332,-283,-25,-437
11468,-712,-329,174,-517,-134,390,121,373,-32,-146,48,-119,-170,-253,79,-252,-66,97,48,47,-257,-1117,535,142,179,-95,270,-130,-202,-104,283,-18
11469,-690,-427,109,-561,-145,463,95,289,-48,-139,16,-216,-246,-270,88,-234,113,-104,5,33,-223,-1073,705,159,176,-110,335,-30,-168,-64,321,82
11470,-628,-318,134,-559,-175,337,58,227,-63,-182,-88,-47,-288,-300,20,-187,55,-69,-49,-46,-270,-972,720,109,83,-285,128,-128,-354,-412,-254,-723
11471,-698,-185,123,-525,-197,454,-12,329,-67,-171,-68,-206,-214,-305,24,-150,15,-57,-50,-63,-292,-998,493,33,68,-279,6,-87,-372,-421,-315,-775
11472,-731,-113,116,-463,-166,466,0,370,-34,-137,-11,-378,-157,-261,100,28,62,-64,11,19,-224,-1006,266,89,157,-126,179,-31,-268,-227,-24,-385
11473,-784,-59,18,-490,-153,255,-53,320,-14,-128,54,-418,-130,-255,130,-208,-183,7,27,31,-223,-789,232,104,148,-151,297,-67,-248,-205,-7,-388
11474,-861,-97,-94,-549,-157,335,-50,191,-32,-118,114,-362,-184,-263,170,-458,55,-80,-20,31,-179,-945,174,30,136,-119,425,145,-227,-173,99,-179
11475,-812,-62,0,-596,-161,390,30,258,-30,-118,151,-460,-186,-268,177,-241,350,-185,-47,25,-119,-1275,243,31,122,-130,403,55,-236,-173,103,-146
11476,-629,-77,145,-661,-114,446,98,388,-3,-93,163,-311,-172,-233,193,-232,320,-129,11,70,-149,-930,368,113,172,-123,315,189,-126,-65,190,-132
11477,-629,-229,111,-748,-145,418,73,293,-51,-135,164,-193,-262,-271,145,-287,59,-137,-50,25,-195,-725,370,83,153,-141,229,376,-106,-66,157,-120
11478,-720,-258,231,-680,-172,372,72,173,-34,-121,87,-54,-224,-271,134,-292,174,-79,-55,3,-239,-730,479,126,144,-177,116,482,-73,-96,41,-321
11479,-804,-249,256,-603,-146,442,65,205,-21,-118,27,-180,-237,-265,115,-314,501,-112,-54,16,-283,-680,438,146,156,-169,139,494,-40,-22,116,-247
11480,-844,-226,165,-564,-143,438,106,262,-26,-134,57,-154,-234,-272,116,-328,374,-145,-49,22,-259,-647,364,107,155,-130,238,326,-61,-17,170,-148
11481,-829,-183,239,-587,-163,397,123,276,-67,-124,109,-87,-261,-282,148,-275,301,-163,-49,19,-228,-638,324,36,139,-115,300,251,-151,-149,138,-157
11482,-713,-173,313,-578,-185,323,97,270,-68,-118,67,-66,-253,-294,144,-245,361,-137,-26,32,-218,-687,301,20,146,-104,359,82,-210,-161,133,-54
11483,-608,-192,87,-581,-143,387,107,257,-38,-78,131,-62,-235,-245,180,-147,360,-100,-20,72,-171,-686,320,37,166,-90,398,-61,-252,-160,116,-16
11484,-683,-213,99,-653,-175,409,132,204,-73,-110,158,5,-258,-264,172,-149,225,-81,-50,63,-117,-778,407,42,121,-86,433,-106,-281,-182,121,-68
11485,-761,-79,329,-593,-159,377,221,252,-50,-91,179,101,-214,-241,182,-25,101,-23,-13,95,-68,-774,574,91,154,-52,542,-8,-254,-169,124,-57
11486,-727,29,170,-582,-132,338,231,372,-36,-82,192,103,-162,-229,198,35,137,45,0,101,-76,-777,712,118,183,-72,444,-27,-244,-153,123,-67
11487,-711,-8,45,-571,-142,333,107,372,-61,-117,103,-118,-168,-256,167,-78,172,143,1,40,-172,-892,609,110,126,-149,224,60,-252,-178,65,-195
11488,-763,-142,10,-577,-160,344,51,361,-51,-133,117,-187,-197,-265,151,-131,318,37,-30,41,-203,-927,493,89,118,-146,151,318,-164,-127,115,-119
11489,-743,-228,44,-639,-146,459,152,356,-61,-99,148,-208,-186,-260,160,-73,424,-116,-30,72,-155,-1209,503,112,159,-96,248,601,-28,1,229,16
11490,-646,-163,45,-670,-163,341,251,327,-55,-83,145,-119,-144,-233,221,-104,400,-30,8,103,-72,-846,500,122,193,14,489,467,-12,85,391,377
11491,-816,-143,24,-536,-161,335,159,280,-44,-94,98,-159,-181,-269,198,-161,203,-100,-32,73,-91,-490,370,48,173,6,572,75,-148,38,446,645
11492,-975,-288,73,-437,-177,295,75,287,-39,-109,15,-158,-212,-284,175,-164,4,-76,-54,50,-132,-693,230,0,143,-35,497,-323,-285,-63,380,382
11493,-798,-368,127,-458,-169,325,15,407,-22,-101,-1,-138,-166,-284,174,-120,-4,14,-74,27,-143,-864,231,19,99,-115,368,-192,-294,-157,200,-17
11494,-570,-255,139,-494,-110,410,36,423,-11,-105,83,-207,-162,-266,186,-143,-13,-52,-84,32,-175,-824,168,-1,88,-206,218,-33,-299,-205,60,-361
11495,-524,-165,110,-581,-145,443,139,318,-62,-116,63,-129,-224,-294,133,-208,125,-63,-113,-19,-262,-827,220,-76,39,-264,99,24,-413,-398,-190,-709
11496,-553,-70,109,-617,-149,439,180,255,-50,-100,46,-160,-205,-282,162,-133,236,-33,-70,0,-180,-902,361,-11,97,-150,303,82,-292,-224,51,-375
11497,-532,-11,129,-550,-121,457,123,264,-48,-107,68,-296,-195,-292,174,-149,154,-59,-54,9,-141,-913,384,21,115,-161,377,151,-270,-168,65,-339
11498,-578,-79,119,-509,-127,475,120,356,-46,-83,119,-140,-218,-300,174,-263,-95,-54,-99,-2,-135,-830,320,-14,70,-195,322,66,-338,-266,-31,-400
11499,-619,-151,87,-548,-118,415,114,316,-43,-87,96,-6,-246,-306,164,-274,116,-83,-102,-6,-161,-733,311,-3,72,-180,275,-39,-361,-276,-9,-270
11500,-645,-124,63,-579,-119,433,107,221,-41,-82,63,-95,-274,-326,135,-216,87,-97,-100,-6,-202,-685,382,6,78,-163,330,-13,-304,-170,95,-141
11501,-632,-116,194,-564,-118,466,108,222,-51,-60,142,-81,-244,-305,163,-232,-169,-71,-77,51,-81,-788,437,17,102,-91,555,-251,-285,-177,108,-264
11502,-617,-77,179,-635,-141,446,140,112,-108,-97,164,-73,-314,-337,156,-175,155,-140,-107,11,-102,-842,393,-11,82,-150,467,-71,-266,-189,108,-338
11503,-617,7,168,-604,-110,580,95,140,-67,-49,74,-123,-290,-302,154,-95,215,-165,-105,6,-195,-742,215,-42,75,-181,204,75,-210,-129,158,-176
11504,-753,-124,214,-539,-107,530,80,289,-49,-70,-4,-284,-223,-327,109,-116,42,-185,-137,-1,-193,-802,133,-71,56,-193,153,56,-247,-163,142,-156
11505,-808,-201,258,-527,-128,365,149,309,-38,-94,-11,-496,-189,-315,121,-128,53,-185,-135,-7,-185,-749,105,-71,55,-210,174,62,-312,-195,150,-96
11506,-794,-170,186,-464,-119,426,176,307,-3,-83,17,-585,-170,-302,138,-114,106,-186,-120,11,-192,-778,114,-63,67,-182,265,68,-269,-139,250,75
11507,-746,-96,94,-433,-83,478,125,326,7,-64,21,-438,-92,-296,144,-155,-2,-136,-90,1,-187,-699,190,-58,77,-151,326,-72,-253,-67,342,336
11508,-675,-64,8,-519,-91,427,76,254,-12,-106,-4,-416,-117,-314,114,-177,-33,-149,-104,-35,-199,-760,246,-62,63,-172,310,-108,-276,-109,256,162
11509,-563,-53,2,-554,-124,370,115,237,-46,-99,62,-411,-221,-344,138,-118,-104,-153,-131,-31,-200,-1023,290,-67,21,-203,237,-162,-359,-222,74,-162
11510,-527,-8,173,-544,-115,401,70,379,-38,-79,116,-389,-235,-324,149,-76,-80,-132,-94,-4,-164,-969,292,-50,48,-190,223,0,-293,-250,23,-241
11511,-591,-40,144,-529,-109,356,6,292,-37,-109,23,-342,-219,-330,117,-154,-117,-140,-106,-3,-215,-757,262,-94,38,-233,163,95,-321,-342,-150,-523
11512,-648,-106,127,-559,-114,376,-2,216,-32,-112,32,-134,-211,-329,134,-129,-110,-106,-92,1,-182,-901,310,-75,54,-203,242,-44,-339,-265,-92,-452
11513,-699,-100,104,-525,-141,450,22,124,-51,-97,60,-88,-221,-314,178,31,44,-168,-123,10,-84,-1126,210,-68,44,-168,343,-279,-396,-248,-10,-342
11514,-768,-150,-11,-512,-178,415,-20,59,-67,-110,10,-79,-222,-332,164,-39,36,-47,-112,-23,-73,-1029,197,-110,10,-174,440,-266,-413,-306,13,-241
11515,-681,-54,-129,-467,-152,416,46,233,-45,-93,-26,50,-214,-339,152,-95,-109,-121,-118,-35,-142,-1032,326,-113,-13,-251,433,-68,-427,-445,-193,-323
11516,-620,-70,4,-442,-129,528,55,435,-54,-86,-43,-89,-239,-347,140,-172,-83,-223,-110,-22,-123,-802,279,-110,18,-237,444,-41,-393,-377,-154,-408
11517,-666,-33,53,-434,-90,471,3,410,-50,-97,-9,-244,-207,-360,104,-329,32,-204,-131,-44,-188,-951,118,-129,0,-300,178,-54,-409,-393,-192,-535
11518,-669,-75,59,-477,-108,482,7,301,-48,-102,73,-209,-216,-383,107,-394,-115,-234,-162,-40,-272,-968,-32,-169,-8,-295,143,-104,-411,-340,-43,-196
11519,-588,-30,183,-507,-109,458,41,275,-31,-77,131,-39,-204,-342,131,-371,69,-205,-112,-3,-259,-734,42,-124,41,-229,162,1,-343,-206,112,112
11520,-610,-57,153,-584,-130,505,51,189,-51,-76,102,-117,-251,-341,137,-330,241,-190,-112,2,-248,-850,43,-139,28,-252,120,-2,-391,-258,-4,-59
11521,-579,-80,129,-586,-112,505,79,192,-60,-79,98,-191,-252,-341,153,-238,202,-214,-140,-15,-238,-916,85,-172,-2,-280,177,-62,-476,-403,-190,-320
11522,-632,-101,61,-623,-106,400,58,112,-78,-86,68,-39,-309,-322,131,-196,178,-238,-143,-18,-225,-865,133,-150,15,-250,258,-138,-421,-349,-106,-290
11523,-681,-105,20,-696,-104,518,-4,169,-69,-65,63,7,-272,-312,128,-193,122,-229,-128,7,-220,-866,157,-85,46,-227,285,-46,-330,-223,24,-215
11524,-716,-185,-28,-577,-108,563,-9,231,-63,-91,37,-175,-233,-323,106,-231,1,-210,-134,-29,-243,-907,215,-71,43,-227,235,119,-237,-181,45,-217
11525,-701,-176,-22,-553,-158,384,52,238,-63,-126,-45,-227,-217,-320,75,-213,-24,-148,-126,-26,-254,-886,310,-35,38,-250,196,283,-230,-171,41,-171
11526,-604,-104,24,-717,-124,383,44,238,-58,-108,-11,-213,-222,-296,91,-243,-56,-117,-122,-30,-261,-915,362,-37,31,-271,112,149,-338,-264,-76,-340
11527,-655,-194,-9,-648,-126,413,26,216,-46,-87,-8,-313,-213,-308,109,-328,8,-149,-130,-39,-253,-953,332,-93,13,-292,147,-241,-463,-374,-113,-420
11528,-695,-279,-45,-582,-149,360,64,162,-57,-88,62,-264,-199,-336,100,-432,-249,-155,-149,-35,-251,-959,284,-135,-8,-295,128,-261,-457,-341,-57,-389
11529,-803,-350,-84,-632,-155,444,-39,180,-69,-138,-31,-98,-200,-369,36,-298,-478,-154,-177,-88,-285,-1031,204,-131,-32,-346,85,-141,-401,-326,-85,-373
11530,-1043,-318,-99,-625,-133,470,-88,227,-42,-139,-58,-49,-161,-337,18,-59,-120,-101,-141,-98,-273,-1082,215,-94,-17,-318,124,-36,-384,-319,-61,-295
11531,-1135,-504,-49,-589,-161,538,-116,171,-65,-124,-90,-204,-216,-362,17,-45,-4,-235,-199,-116,-315,-1132,83,-151,-66,-333,30,-156,-472,-384,-118,-352
11532,-1108,-531,-61,-606,-171,567,-218,59,-102,-112,-122,-199,-328,-372,43,-5,-27,-334,-230,-84,-268,-980,-104,-251,-64,-322,112,-194,-472,-368,-98,-339
11533,-937,-194,-95,-639,-180,515,-218,84,-73,-105,4,-250,-269,-349,97,-54,8,-320,-189,-68,-193,-1074,-61,-200,-32,-283,213,-160,-423,-305,-25,-263
11534,-820,-95,-130,-650,-202,381,-103,161,-73,-117,76,-359,-228,-350,107,-192,26,-330,-188,-57,-162,-1249,2,-217,-21,-285,271,-78,-424,-304,7,-274
11535,-784,-20,-99,-623,-157,252,-60,140,-57,-108,41,-250,-213,-336,94,-396,25,-277,-175,-41,-218,-864,111,-191,-4,-278,312,-25,-412,-297,7,-260
11536,-662,95,6,-609,-135,251,41,227,-44,-119,-12,-108,-161,-311,71,-431,46,-225,-156,-59,-280,-763,104,-173,2,-285,231,-136,-433,-376,-75,-317
11537,-595,19,-14,-602,-147,224,121,195,-59,-133,-14,-147,-177,-347,65,-287,56,-200,-157,-51,-268,-904,83,-157,-10,-309,201,-326,-469,-399,-99,-194
11538,-585,-34,98,-595,-132,287,128,204,-46,-114,10,-251,-154,-311,74,-140,-64,-160,-107,-28,-202,-973,132,-120,33,-270,235,-132,-332,-280,-7,-235
11539,-633,-25,76,-587,-154,338,68,190,-53,-124,-81,-218,-180,-314,67,-142,-80,-183,-137,-69,-248,-1018,90,-146,11,-295,170,-11,-349,-328,-64,-442
11540,-658,-47,21,-624,-173,320,69,113,-92,-127,-17,-130,-225,-324,75,-223,-31,-181,-129,-65,-272,-951,115,-157,-7,-322,190,-250,-422,-353,-52,-284
11541,-609,-85,14,-580,-176,325,-6,140,-73,-145,4,-280,-180,-308,68,-225,-175,-209,-124,-60,-280,-986,77,-165,-35,-310,225,-362,-478,-395,-51,-292
11542,-662,-103,-40,-626,-183,362,-41,150,-44,-136,9,-253,-137,-287,77,-242,-164,-178,-111,-46,-251,-902,186,-131,19,-270,221,-238,-404,-291,104,-64
11543,-690,-168,-121,-645,-173,447,-9,169,-26,-102,56,-95,-118,-270,126,-215,-37,-136,-81,-17,-203,-826,206,-72,74,-211,353,-213,-372,-230,178,76
11544,-719,-280,-44,-628,-168,426,-9,240,-20,-102,39,-240,-103,-272,115,-236,31,-130,-70,-3,-223,-861,175,-65,65,-216,384,-286,-399,-255,109,-22
11545,-779,-340,-8,-588,-181,363,-28,211,-31,-122,7,-147,-123,-268,77,-226,22,-123,-47,-40,-254,-959,316,-75,39,-255,376,-222,-447,-379,-132,-421
11546,-806,-241,-72,-576,-167,227,-59,276,-1,-136,-4,60,-96,-252,88,-241,-53,-45,-46,-29,-248,-1009,404,-64,28,-291,309,-243,-408,-381,-115,-500
11547,-813,-102,-30,-576,-134,254,10,276,6,-131,9,44,-71,-259,88,-295,-133,58,-43,-25,-250,-979,242,-82,33,-292,176,-204,-397,-341,-69,-439
11548,-871,-111,4,-612,-188,280,2,258,-18,-162,-55,-204,-83,-279,68,-310,-66,-178,-70,-32,-246,-949,249,-125,22,-296,150,-74,-383,-322,-37,-328
11549,-894,-240,-17,-629,-201,285,-13,218,-42,-186,-47,-316,-103,-318,52,-325,-28,-280,-100,-60,-285,-912,230,-151,15,-290,144,-160,-407,-370,-60,-310
11550,-884,-219,83,-569,-195,397,-92,200,-38,-137,-5,-68,-127,-283,88,-181,-130,-205,-79,-33,-255,-990,174,-133,33,-273,155,-69,-348,-278,21,-153
11551,-891,-115,118,-511,-193,429,-57,260,-50,-126,-10,123,-148,-258,98,-71,-442,-117,-52,-2,-235,-969,245,-74,50,-266,187,-80,-317,-237,75,-109
11552,-949,-162,22,-544,-212,491,-7,233,-21,-140,-16,132,-99,-269,69,-105,-440,-54,-55,17,-210,-846,308,-16,85,-231,224,-227,-308,-224,45,-204
11553,-1010,-210,-110,-572,-225,460,-4,252,-23,-133,-61,60,-82,-255,50,-103,-276,-55,-50,11,-213,-845,301,-33,80,-205,221,100,-242,-198,79,-233
11554,-1076,-210,-143,-597,-191,344,-72,236,-26,-123,-5,-103,-103,-251,67,-77,5,-152,-53,25,-200,-938,229,-78,67,-180,334,94,-257,-181,146,-84
11555,-905,-227,-48,-744,-182,316,-50,239,-23,-152,29,-112,-151,-274,81,-119,246,-243,-83,21,-226,-916,41,-155,18,-248,280,-113,-374,-341,-76,-195
11556,-902,-208,-11,-528,-192,276,-9,176,-22,-158,-43,86,-198,-280,58,-46,303,-228,-119,-6,-200,-854,65,-174,27,-269,281,88,-339,-353,-49,-174
11557,-907,-96,75,-421,-191,311,31,106,-42,-147,44,201,-238,-266,96,-109,268,-207,-108,7,-157,-869,155,-136,68,-202,339,197,-223,-169,156,11
11558,-777,-49,161,-550,-176,360,18,173,-43,-145,41,10,-178,-275,92,-58,156,-189,-84,-14,-150,-867,194,-119,56,-171,381,47,-245,-177,184,55
11559,-696,-141,167,-628,-176,392,-27,261,-59,-159,2,-251,-152,-309,31,-36,115,-158,-113,-62,-211,-1016,334,-109,16,-242,299,-40,-328,-315,-22,-135
11560,-630,-351,210,-522,-165,337,-33,273,-67,-156,54,-245,-146,-327,44,-319,0,-109,-150,-62,-244,-1187,380,-104,-7,-276,184,-129,-379,-381,-75,-277
11561,-520,-307,281,-532,-159,326,72,274,-49,-130,137,-131,-146,-329,82,-592,-62,-75,-119,-71,-280,-954,224,-163,-32,-322,131,-251,-490,-479,-205,-626
11562,-490,-218,269,-560,-165,328,130,269,-38,-128,198,-205,-148,-309,100,-367,-4,-141,-117,-36,-187,-1009,108,-166,1,-271,297,-177,-423,-361,-86,-483
11563,-493,-247,223,-531,-170,365,130,248,-35,-107,172,-97,-136,-287,140,-226,-177,-117,-92,-5,-107,-1040,231,-78,40,-221,463,-100,-332,-287,15,-266
11564,-704,-252,189,-550,-204,375,20,179,-47,-135,109,144,-133,-292,109,-235,-82,-101,-93,-29,-156,-942,445,-43,20,-278,399,-54,-347,-287,42,-256
11565,-778,-134,188,-518,-158,393,10,295,-8,-118,113,32,-108,-257,107,-156,135,-124,-56,-21,-171,-997,379,-82,53,-244,370,-92,-347,-262,107,-172
11566,-692,-50,187,-540,-166,370,50,307,-11,-108,95,-79,-111,-246,98,-115,2,-186,-51,0,-173,-834,172,-109,54,-228,403,-120,-351,-219,188,45
11567,-620,-62,200,-594,-176,354,46,354,-36,-134,94,-224,-108,-261,88,-137,65,-138,-59,6,-134,-732,182,-74,76,-197,466,46,-259,-136,265,229
11568,-692,-85,148,-592,-179,239,36,316,-40,-139,68,-282,-90,-270,58,-143,-110,-88,-43,-12,-164,-793,276,-31,76,-200,437,34,-256,-175,131,-4
11569,-757,-72,119,-560,-170,284,-97,334,-20,-141,-44,-168,-51,-267,52,-151,-149,-3,-28,5,-187,-811,498,-6,96,-215,403,29,-236,-161,151,-53
11570,-807,-57,7,-567,-190,384,-82,367,-17,-156,-30,-17,-61,-292,56,-172,19,-63,-62,-27,-190,-976,440,-66,63,-236,359,107,-295,-194,111,-60
11571,-845,-101,-45,-470,-206,367,-8,416,-14,-172,-5,68,-62,-292,23,-148,-2,-2,-52,-41,-193,-954,243,-134,30,-269,370,153,-371,-325,-100,-453
11572,-904,-174,33,-430,-207,228,-88,387,-27,-187,-24,234,-94,-308,20,-284,44,14,-46,-46,-246,-805,294,-78,17,-290,286,30,-376,-351,-143,-616
11573,-883,-192,112,-424,-176,293,-51,328,-11,-152,19,41,-118,-274,53,-331,150,-240,-88,-28,-272,-757,286,-63,49,-252,219,174,-261,-248,-53,-490
11574,-885,-245,108,-447,-175,242,-47,238,-5,-149,31,31,-118,-284,60,-265,-23,-154,-38,-21,-274,-735,396,-29,92,-262,226,187,-237,-209,9,-343
11575,-925,-275,106,-546,-182,250,-67,289,-6,-152,91,0,-98,-282,83,-201,22,-70,-22,-14,-275,-870,535,-24,90,-270,132,-102,-343,-262,4,-266
11576,-958,-247,142,-538,-180,316,-35,244,-20,-154,96,-140,-84,-271,85,-226,155,-117,-51,0,-256,-732,355,-84,55,-256,142,-319,-458,-380,-104,-227
11577,-929,-104,286,-447,-177,362,-46,250,-20,-139,108,-50,-77,-275,83,-224,146,-107,-33,6,-265,-617,239,-75,50,-238,181,-79,-427,-359,-67,-251
11578,-956,-61,212,-417,-213,412,-95,251,-47,-133,103,-48,-106,-293,99,-233,-62,-125,-23,10,-222,-724,179,-73,89,-189,258,93,-301,-194,106,-80
11579,-946,-50,235,-427,-221,454,-194,237,-62,-140,66,-18,-137,-270,78,-286,-143,-156,-35,2,-194,-758,148,-69,93,-157,386,-53,-279,-139,199,12
11580,-863,-43,215,-502,-220,350,-90,156,-73,-153,80,99,-132,-299,62,-223,188,-137,-42,13,-168,-747,294,-20,104,-171,459,188,-228,-120,172,-9
11581,-819,-112,177,-486,-219,306,29,269,-70,-168,85,76,-77,-308,59,-212,288,-110,-40,4,-216,-840,354,-33,97,-220,346,236,-229,-212,8,-145
11582,-714,-184,72,-701,-192,407,-7,345,-49,-145,29,102,-60,-284,103,-296,205,-58,-4,59,-147,-801,409,6,156,-156,488,344,-148,-72,278,189
11583,-674,-257,22,-570,-190,424,-25,271,-29,-102,89,242,-89,-262,160,-175,69,-12,10,101,-85,-786,501,73,191,-77,542,153,-166,-30,394,336
11584,-635,-248,137,-442,-169,338,8,433,-2,-103,91,252,-32,-250,135,-103,-65,28,27,56,-152,-786,510,68,158,-139,392,44,-209,-167,171,14
11585,-655,-139,151,-482,-173,389,24,592,2,-123,144,-10,0,-274,106,-230,-39,-25,-2,-14,-203,-792,407,-4,90,-238,268,-85,-384,-357,-147,-487
11586,-657,-134,169,-455,-191,345,34,350,-16,-122,168,24,-44,-298,110,-225,-74,-8,-32,6,-167,-648,393,-7,101,-207,384,-227,-415,-344,-76,-324
11587,-596,-159,294,-462,-172,324,22,276,-16,-110,146,-167,2,-267,111,-196,40,8,3,30,-129,-716,444,22,122,-189,435,-391,-392,-285,21,-220
11588,-613,-112,345,-485,-173,347,95,314,-19,-110,184,58,-11,-247,151,-150,159,39,22,27,-123,-746,559,48,149,-185,403,-217,-332,-248,33,-271
11589,-682,-162,372,-491,-193,340,113,291,-23,-136,128,-73,-8,-252,88,30,-1,64,13,5,-162,-754,400,0,118,-200,288,150,-306,-262,1,-374
11590,-633,-220,371,-478,-184,329,40,325,-24,-127,138,-323,-9,-268,115,-8,-180,9,10,34,-135,-870,168,8,105,-200,402,103,-308,-248,55,-228
11591,-603,-90,251,-526,-174,327,90,329,-43,-133,187,-242,-25,-294,150,83,-51,-104,-18,19,-96,-1084,226,10,112,-174,422,12,-293,-239,86,-162
11592,-596,84,244,-429,-151,370,109,375,-9,-92,237,-106,20,-244,214,39,149,-53,14,49,-40,-858,417,69,153,-115,466,49,-250,-169,162,-147
11593,-654,143,148,-398,-180,382,53,364,15,-90,264,-42,32,-260,186,-270,270,25,20,60,-111,-650,438,56,151,-137,413,297,-219,-154,159,-82
11594,-672,184,128,-438,-195,383,72,264,-45,-115,284,3,-37,-296,155,-241,297,-110,-10,34,-135,-807,440,23,116,-164,343,161,-199,-159,117,-174
11595,-639,117,201,-495,-187,399,12,250,-53,-90,325,237,-101,-263,194,-118,296,-102,-6,43,-92,-765,443,38,127,-157,383,121,-180,-176,78,-311
11596,-713,-49,201,-391,-167,444,-86,258,-26,-99,228,252,-69,-261,183,-77,248,-57,-3,29,-132,-607,343,9,130,-179,352,248,-181,-132,125,-129
11597,-861,-153,99,-350,-159,302,-168,96,-14,-109,173,234,-14,-265,145,-105,180,73,19,25,-205,-612,410,25,125,-219,294,169,-201,-157,100,-149
11598,-806,-359,94,-340,-189,353,-197,249,-5,-133,174,85,-20,-268,129,-165,190,-44,-2,13,-205,-658,448,51,123,-207,378,56,-213,-145,98,-54
11599,-734,-387,230,-321,-150,447,-136,301,-19,-99,172,-59,-41,-261,132,-135,207,-177,-30,24,-147,-741,399,3,96,-200,339,6,-285,-245,-17,-142
11600,-703,-222,363,-335,-126,441,-85,288,-44,-115,150,-42,-83,-276,102,-135,159,-162,-75,-25,-238,-642,255,-108,35,-300,108,127,-363,-372,-182,-360
11601,-752,-64,354,-350,-155,375,-56,346,-45,-134,184,-7,-66,-286,113,-58,180,-103,-46,-23,-239,-602,310,-58,68,-286,147,216,-262,-221,16,-141
11602,-836,94,242,-327,-199,237,25,387,-12,-140,181,-34,-1,-268,122,-51,259,-68,15,3,-207,-680,443,23,107,-241,192,348,-170,-154,61,-125
11603,-809,121,232,-365,-197,271,81,387,1,-115,181,99,-14,-249,164,-92,263,-41,30,24,-188,-672,513,75,138,-195,253,384,-144,-142,90,-120
11604,-675,128,232,-420,-188,321,54,347,-8,-116,213,205,-64,-234,163,-56,229,-33,11,46,-181,-671,462,47,128,-229,277,155,-264,-237,2,-136
11605,-584,41,225,-424,-194,370,-39,481,-24,-133,170,44,-28,-258,111,-54,-213,-57,-30,-7,-210,-767,377,-37,76,-268,235,-9,-356,-350,-25,-118
