,Fp1,Fp2,F7,F3,Fz,F4,F8,FC5,FC1,FC2,FC6,T7,C3,Cz,C4,T8,TP9,CP5,CP1,CP2,CP6,TP10,P7,P3,Pz,P4,P8,PO9,O1,Oz,O2,PO10
192485,-49,158,346,-118,-44,3,-375,7,233,-268,-142,-156,399,69,45,6,-73,19,125,-222,-241,-73,116,142,255,125,75,-238,116,209,77,160
192486,-45,101,361,-100,-42,11,-378,58,250,-244,-109,-119,397,59,47,-27,-30,42,109,-225,-252,-62,132,156,246,96,62,-187,113,166,48,98
192487,-49,17,352,-156,-41,13,-320,9,262,-233,-100,-84,398,69,52,-24,-41,45,129,-215,-246,-63,125,161,268,104,55,-133,93,165,14,54
192488,-98,-99,325,-181,-59,0,-364,-47,235,-248,-142,-134,362,61,32,-56,-169,17,98,-219,-279,-150,66,143,242,73,15,-206,38,141,-28,-12
192489,-239,-192,288,-163,-74,102,-448,-9,247,-229,-158,-170,363,61,7,-136,-156,8,107,-225,-316,-150,56,136,240,62,-26,-228,13,110,-51,-70
192490,-320,-224,249,-115,-86,89,-501,-5,249,-237,-182,-197,356,57,-12,-169,-195,-9,77,-263,-335,-188,26,97,203,31,-35,-302,-21,77,-64,-70
192491,-244,-172,241,-100,-79,77,-415,27,262,-251,-186,-216,350,47,-10,-88,-226,-25,96,-262,-314,-132,18,91,182,36,12,-324,-17,82,-66,-3
192492,-184,-68,255,-118,-72,25,-324,36,253,-267,-191,-172,351,30,-7,-53,-201,-35,91,-274,-334,-98,28,102,184,29,-2,-267,-2,70,-44,-83
192493,-27,22,313,-73,-46,92,-221,44,271,-253,-148,-147,370,41,-10,-15,-183,-17,87,-285,-325,-137,53,97,187,2,-31,-239,15,61,-35,-144
192494,69,25,271,-113,-67,73,-173,30,270,-270,-154,-172,366,43,-19,-26,-161,-48,74,-285,-315,-132,26,89,175,8,-31,-181,29,81,-33,-142
192495,73,30,235,-155,-71,38,-180,5,268,-278,-169,-188,373,65,-11,-44,-131,-27,92,-270,-304,-114,34,111,209,33,-5,-123,69,128,20,-98
192496,35,-23,233,-176,-75,22,-191,-7,252,-274,-177,-199,359,70,-20,-59,-162,-9,98,-271,-304,-126,26,133,238,47,21,-152,53,121,15,-65
192497,-8,-32,233,-198,-95,-9,-219,-50,253,-287,-171,-188,340,75,-9,-53,-215,-25,95,-253,-291,-112,9,130,228,59,39,-201,34,148,18,-30
192498,-30,-20,237,-189,-89,-11,-207,-42,254,-292,-141,-166,353,79,-8,-19,-213,-18,108,-255,-280,-94,10,114,223,59,68,-222,64,172,52,33
192499,-41,21,267,-161,-86,-20,-163,0,264,-277,-108,-89,376,63,-2,-24,-257,10,98,-249,-284,-117,27,112,226,52,58,-209,61,144,-1,-30
192500,-42,-7,295,-133,-73,26,-275,34,264,-252,-48,31,399,72,-3,-32,-242,61,100,-252,-294,-145,80,136,204,52,29,-127,92,174,10,-66
192501,-49,6,295,-122,-80,57,-342,37,243,-237,-25,-2,383,56,-5,-36,-260,37,80,-259,-294,-139,27,116,204,35,31,-274,42,134,-7,-53
192502,-81,-38,223,-130,-92,37,-294,57,259,-255,-36,-126,377,56,8,-49,-259,0,88,-231,-284,-145,34,129,239,70,65,-271,71,158,14,31
192503,-139,-114,161,-80,-80,27,-295,164,289,-269,-148,-160,414,58,-12,-54,-145,36,114,-241,-302,-131,104,156,237,62,68,-149,111,184,-1,5
192504,-171,-99,147,-57,-62,38,-265,180,288,-266,-174,-175,417,58,-21,-44,-111,26,115,-263,-306,-117,109,155,222,50,71,-190,95,172,8,-29
192505,-184,-143,83,-66,-85,41,-281,117,282,-273,-186,-170,388,47,-35,-55,-120,5,91,-260,-310,-128,111,122,214,46,44,-174,87,165,8,-1
192506,-184,-150,130,-65,-95,36,-300,114,285,-266,-185,-114,390,32,-27,-67,-72,9,84,-272,-320,-132,83,104,207,30,34,-235,67,118,-59,-41
192507,-183,-202,187,-73,-88,56,-322,74,261,-259,-144,-94,393,32,-22,-107,-145,16,78,-270,-328,-103,52,95,185,44,40,-273,47,85,-76,-95
192508,-234,-351,193,-69,-80,86,-350,75,263,-248,-128,-97,378,46,-4,-27,-235,-7,73,-257,-315,-90,51,108,188,41,40,-196,70,84,-96,-146
192509,-241,-428,194,-95,-80,101,-371,84,254,-260,-135,-107,375,31,-1,6,-207,-24,66,-260,-311,-109,57,100,197,25,31,-157,89,94,-52,-173
192510,-251,-296,185,-113,-64,182,-335,76,248,-210,-43,-142,375,31,19,-4,-189,-43,52,-263,-316,-154,24,85,205,27,36,-251,34,82,-76,-132
192511,-201,-154,159,-155,-75,203,-270,-9,239,-199,-21,-200,334,37,12,-16,-151,-66,44,-283,-307,-197,-11,58,200,38,23,-296,-23,66,-107,-105
192512,-105,-130,92,-164,-83,227,-371,3,219,-196,-58,-181,330,41,3,-4,-109,-46,39,-282,-285,-119,13,73,198,45,55,-234,18,97,-69,-58
192513,-33,-63,68,-152,-63,162,-334,53,240,-206,-26,-146,363,57,25,43,-109,-37,70,-257,-260,-53,29,88,214,79,118,-203,44,112,-26,18
192514,-48,-38,193,-166,-67,76,-285,8,244,-231,-37,-136,381,48,16,38,-102,-24,88,-271,-263,-63,59,105,246,77,136,-184,85,140,-7,-106
192515,-107,-34,288,-153,-64,41,-291,15,223,-237,-37,-113,371,51,22,16,-85,-7,69,-263,-272,-33,65,101,228,68,132,-181,77,139,-38,-173
192516,-81,19,334,-134,-54,45,-220,72,241,-254,-74,-45,399,56,10,21,-48,18,86,-254,-300,-30,73,84,211,39,73,-265,18,73,-132,-124
192517,-112,-28,324,-88,-62,70,-268,79,253,-257,-95,-57,383,39,5,21,-91,19,91,-261,-305,-19,91,87,211,11,16,-281,21,62,-105,-54
192518,-82,-94,314,-81,-62,93,-288,79,243,-233,-99,-71,373,56,-1,40,-76,24,97,-262,-301,-13,132,119,224,16,17,-200,73,82,-58,-24
192519,-113,-89,296,-113,-66,160,-268,94,234,-207,-25,-83,376,54,20,27,-118,0,96,-277,-309,-68,92,112,198,23,23,-224,51,68,-62,-2
192520,-151,-36,282,-84,-71,167,-247,85,249,-238,-14,-83,374,53,22,54,-144,-10,77,-269,-289,-128,66,92,210,19,17,-259,21,65,-87,-37
192521,-124,-54,287,-84,-60,140,-229,91,250,-238,-14,-66,359,46,24,97,-197,15,75,-254,-267,-102,127,100,211,22,2,-220,42,73,-103,-76
192522,-123,-90,282,-93,-37,165,-200,108,249,-225,-8,-43,387,37,40,125,-147,29,82,-261,-231,-91,123,110,234,47,52,-226,43,96,-68,-56
192523,-115,-57,288,-75,-64,111,-174,87,235,-230,-22,-45,383,34,26,103,-78,-9,75,-249,-229,-101,70,90,226,58,88,-262,32,99,-78,-13
192524,-104,-29,324,-108,-32,113,-162,42,237,-217,-37,-64,353,26,22,25,-104,-33,64,-265,-239,-104,48,67,205,59,95,-277,17,76,-71,-19
192525,-95,-3,356,-76,-26,101,-134,40,250,-209,-80,-60,368,36,44,19,-86,-11,88,-247,-214,-56,105,104,221,70,158,-213,45,105,-33,-41
192526,-69,9,294,-82,-47,87,-181,56,237,-215,-95,-114,342,34,29,-3,-63,-17,71,-260,-224,-73,142,101,210,68,187,-164,64,117,-23,-59
192527,-53,74,238,-93,-21,44,-239,79,248,-225,-56,-101,348,47,20,12,-79,-1,70,-256,-188,-53,147,112,227,100,211,-95,86,180,22,110
192528,-94,66,245,-107,-35,58,-301,64,219,-231,-19,-87,340,32,10,0,-34,34,57,-260,-230,-57,177,95,206,72,96,-100,105,173,0,109
192529,-27,80,250,-113,-41,138,-235,41,216,-220,54,-86,342,15,24,-10,-76,5,34,-288,-263,-158,153,90,189,33,5,-272,40,85,-83,-44
192530,-69,92,260,-72,-30,170,-181,66,234,-194,51,-35,368,29,44,-1,-101,21,75,-262,-220,-97,179,126,205,72,85,-285,64,132,-18,37
192531,-246,39,282,-19,-30,56,-188,144,259,-227,-37,37,408,34,15,11,-122,72,109,-247,-235,-32,212,174,243,109,111,-109,155,222,75,90
192532,-168,-143,266,-42,-28,75,-191,174,252,-241,-97,74,413,48,12,5,-94,73,126,-228,-227,12,227,180,261,115,90,-60,148,222,74,89
192533,-41,-193,271,-94,-34,166,-172,111,245,-222,-109,83,382,63,30,30,-142,69,112,-226,-216,32,178,149,255,102,112,-126,88,197,62,136
192534,50,1,318,-99,-23,121,-162,124,233,-244,-128,45,359,40,23,-17,-111,54,97,-240,-228,57,120,142,243,90,110,-155,89,184,31,132
192535,67,94,360,-91,-12,94,-167,107,223,-232,-113,-97,329,28,30,31,-66,21,82,-244,-203,113,93,123,267,97,155,-129,99,207,41,162
192536,85,-21,347,-109,-30,69,-176,20,213,-213,-44,-127,345,27,57,107,-46,8,73,-228,-193,51,89,123,259,112,189,-132,95,199,49,166
192537,27,-50,260,-111,-54,61,-213,119,205,-239,-37,-98,353,14,27,69,-39,18,79,-257,-224,23,83,103,226,92,121,-138,53,157,-4,34
192538,-47,8,187,-83,-35,129,-217,227,241,-229,-6,-99,368,20,42,89,4,49,85,-245,-216,26,142,140,255,122,173,-9,103,216,84,104
192539,-66,-69,161,-100,-62,235,-230,169,217,-219,26,-128,342,24,63,102,-66,-6,63,-258,-225,-20,83,111,225,112,166,-113,60,179,61,117
192540,-77,-95,179,-71,-43,235,-169,101,226,-221,14,-144,343,36,64,113,-232,-43,65,-240,-183,68,-14,72,219,138,203,-344,8,172,45,136
192541,-180,-210,147,-55,-41,263,-258,154,228,-207,22,-147,366,34,52,83,-242,-13,57,-225,-180,45,13,88,222,128,207,-230,48,221,105,136
192542,-286,-257,243,-59,-26,250,-315,160,235,-213,83,-134,337,20,38,54,-199,-12,53,-248,-218,-2,41,98,205,108,195,-188,53,198,48,102
192543,-114,-62,336,-37,-20,191,-221,156,251,-209,5,-127,351,40,37,84,-190,6,68,-249,-223,-11,54,101,225,121,161,-258,60,194,50,-20
192544,8,48,365,-64,-30,168,-213,99,238,-224,-49,-137,373,47,29,44,-177,17,89,-240,-249,-59,96,125,245,93,116,-251,73,181,40,-71
192545,-4,85,411,-133,-38,154,-247,-13,227,-228,-19,-126,342,43,39,5,-166,9,89,-231,-232,-61,98,110,243,103,126,-266,78,217,52,22
192546,7,59,426,-123,-52,146,-206,-7,249,-223,-57,-94,370,57,62,31,-151,26,128,-228,-204,3,78,138,264,133,145,-217,118,245,95,-32
192547,20,48,412,-107,-56,86,-120,33,250,-223,-22,-36,395,67,49,44,-130,49,121,-213,-208,10,93,179,277,148,195,-183,113,242,97,-86
192548,19,95,414,-121,-37,55,-74,45,256,-223,-14,-20,391,51,46,32,-98,68,117,-196,-196,-49,140,187,281,157,179,-116,149,255,83,13
192549,-41,98,410,-115,-42,-3,-158,35,241,-224,-49,-78,373,57,39,42,-134,62,119,-193,-180,3,142,200,301,174,169,-99,178,300,126,103
192550,-84,76,381,-132,-49,51,-183,14,245,-226,-10,-119,341,52,33,27,-144,22,91,-195,-185,13,121,179,298,162,169,-178,143,286,143,139
192551,-69,-30,356,-134,-76,58,-213,10,232,-243,-36,-135,352,58,21,-8,-168,28,80,-208,-210,-50,147,175,296,149,153,-165,160,283,142,150
192552,-141,-93,272,-142,-88,43,-196,23,208,-247,-65,-171,351,56,28,59,-170,19,84,-230,-190,-51,189,190,281,124,95,-105,180,256,109,63
192553,-285,-70,203,-149,-52,83,-315,44,225,-224,-53,-152,344,70,42,67,-130,33,102,-216,-174,-6,182,194,277,131,161,-106,167,228,99,-21
192554,-348,-136,186,-105,-68,127,-318,67,215,-234,-91,-111,333,47,11,31,-202,-1,75,-232,-196,-39,73,111,229,111,195,-310,40,163,24,92
192555,-215,-72,223,-89,-52,167,-210,126,231,-215,-36,-75,381,54,14,-43,-195,36,57,-251,-261,-143,90,112,202,63,72,-230,35,101,-51,-12
192556,-142,-32,213,-57,-38,51,-227,132,247,-232,-48,-58,380,53,-2,-23,-196,43,78,-246,-267,-126,81,100,195,28,-3,-185,27,69,-95,-77
192557,-134,-127,205,-72,-47,43,-243,136,262,-239,-60,-71,383,57,4,14,-155,26,78,-244,-266,-62,62,98,175,23,3,-177,22,61,-114,-87
192558,-129,-235,200,-118,-65,161,-225,127,244,-237,-54,-98,359,47,-27,-19,-129,-13,49,-278,-287,-79,33,53,165,-11,-16,-217,-45,-2,-160,-126
192559,-84,-167,230,-105,-40,121,-237,88,248,-228,-55,-138,338,29,1,-11,-212,-63,23,-278,-275,-43,-34,21,148,-9,3,-299,-70,-13,-166,-98
192560,-156,-144,189,-108,-57,79,-231,107,243,-221,-72,-136,344,33,-9,12,-201,-44,26,-275,-278,-65,0,36,142,-11,-5,-256,-39,1,-169,-98
192561,-194,-92,182,-126,-61,27,-212,103,258,-245,-114,-97,355,38,-24,-47,-113,-7,57,-276,-317,-129,60,82,165,-25,-45,-131,31,25,-136,-115
192562,-148,-49,212,-160,-64,53,-172,57,231,-247,-77,-102,346,50,5,20,-92,6,59,-258,-270,-137,91,94,181,12,-22,-96,51,54,-111,-62
192563,-241,-19,186,-159,-94,72,-110,44,214,-239,-43,-132,314,33,1,66,-144,-11,52,-268,-267,-75,91,76,182,0,-1,-219,9,40,-121,-43
192564,-268,-32,215,-146,-68,177,-64,47,230,-215,-6,-132,304,43,12,0,-211,-29,44,-260,-276,-1,55,56,187,-14,46,-357,-33,2,-145,7
192565,-251,-79,179,-133,-65,140,-228,109,220,-241,-60,-152,301,34,-18,-27,-220,-50,27,-271,-291,-35,15,24,159,-40,23,-381,-72,-51,-193,-42
192566,-153,-154,158,-115,-42,165,-317,124,229,-221,-16,-144,325,39,18,15,-188,-20,44,-272,-280,-44,90,74,170,-25,7,-266,-2,0,-168,-60
192567,-21,-269,204,-156,-70,304,-344,38,215,-210,44,-159,302,33,30,9,-200,-17,25,-268,-287,-25,72,51,151,-12,39,-228,-1,7,-178,9
192568,-24,-300,217,-130,-56,273,-322,26,229,-207,34,-101,302,35,16,16,-181,-15,30,-277,-252,-13,52,41,156,-9,69,-288,-5,-15,-160,-22
192569,-57,-118,311,-113,-59,112,-244,67,234,-233,39,-58,314,33,11,23,-203,-13,31,-283,-251,-26,35,39,153,-28,100,-303,-39,-40,-180,-119
192570,-31,42,426,-107,-60,25,-168,36,244,-238,-14,-28,321,27,-8,29,-187,-27,44,-280,-248,-81,51,38,149,-16,93,-208,-25,-13,-179,-192
192571,6,105,446,-126,-36,14,-106,5,229,-252,-50,3,328,26,11,90,-107,-11,52,-265,-210,-64,99,74,161,23,123,-148,40,29,-117,-74
192572,22,196,428,-121,-46,-11,-74,58,236,-261,-87,29,328,25,16,132,-73,2,44,-263,-213,-4,118,97,151,41,149,-104,55,52,-86,30
192573,14,229,434,-107,-60,4,-42,76,245,-250,-72,-1,361,44,19,136,-3,24,77,-238,-216,56,166,120,195,59,120,-22,106,116,-45,167
192574,49,209,477,-85,-35,5,-33,101,248,-254,-58,25,382,43,26,133,58,87,91,-226,-205,74,238,151,227,83,138,-14,156,161,2,199
192575,57,214,496,-88,-25,24,-8,110,240,-233,-15,35,396,36,30,174,36,102,108,-226,-175,68,258,168,238,90,160,-14,176,161,10,179
192576,44,192,483,-74,-37,66,29,132,239,-214,21,17,393,28,45,167,54,85,89,-238,-175,83,254,156,215,73,135,-73,127,132,-9,135
192577,-11,110,455,-26,-53,61,23,178,246,-238,34,-24,387,28,36,158,26,55,80,-260,-187,73,227,128,183,45,123,-100,114,96,-57,92
192578,-133,-67,328,8,-60,94,-140,213,250,-231,87,-22,391,38,46,128,-1,76,58,-248,-188,109,215,120,169,58,153,41,143,137,-29,207
192579,-227,-209,192,-5,-60,226,-249,147,238,-166,181,-21,379,31,56,91,-20,44,40,-260,-207,133,190,106,154,49,157,46,92,153,-11,219
192580,-265,-154,182,-18,-49,241,-249,118,236,-192,115,-105,343,-13,30,44,-85,-22,-4,-315,-266,91,88,42,102,-20,69,-128,-5,31,-126,44
192581,-114,-52,192,-100,-10,252,-108,106,234,-206,82,-113,322,-11,16,77,-113,-28,-1,-315,-259,27,53,27,86,-20,57,-199,-27,18,-119,49
192582,-126,22,224,-100,-36,235,-16,92,217,-218,89,-97,314,-9,9,84,-177,-62,-18,-320,-272,-35,-18,-4,71,-61,34,-276,-115,-38,-201,5
192583,-99,71,323,-103,-26,252,-100,159,222,-205,45,-40,341,3,21,145,-116,-21,1,-300,-233,75,19,11,112,-39,100,-263,-99,-49,-210,20
192584,-109,39,298,-85,-28,252,-155,202,232,-220,16,-13,347,-18,7,102,-114,-26,12,-322,-263,18,32,-18,86,-35,65,-248,-99,-47,-212,-49
192585,-65,-13,235,-60,-34,275,-185,254,213,-230,4,-38,336,-9,0,136,-137,-21,1,-313,-261,25,44,-2,98,-25,81,-229,-80,-27,-177,-13
192586,17,62,270,-22,-29,304,-117,286,231,-202,53,-45,327,5,34,151,-118,-8,9,-283,-211,94,47,24,108,6,129,-193,-49,22,-103,98
192587,65,145,269,-19,-21,255,-95,269,239,-203,33,-75,357,8,49,144,-88,-25,21,-302,-221,50,55,23,113,12,103,-192,-52,26,-123,81
192588,75,170,337,-76,0,153,-55,127,227,-212,32,-55,353,18,53,154,-84,-21,29,-279,-215,65,82,19,138,11,126,-184,-30,33,-108,68
192589,55,218,479,-55,0,103,-17,10,220,-213,65,-12,342,3,62,169,-34,-7,23,-280,-209,118,84,17,151,19,152,-201,-41,35,-106,95
192590,102,222,521,-54,-9,79,-73,32,209,-231,54,-10,343,-13,37,148,-49,-3,11,-292,-223,82,58,15,127,4,134,-244,-71,7,-134,38
192591,138,122,565,-83,-13,116,-54,42,231,-225,70,3,352,-5,45,133,-73,-4,20,-279,-217,65,60,29,132,18,116,-255,-55,27,-117,-14
192592,168,140,528,-86,-4,137,16,56,237,-201,48,29,380,12,55,146,-11,43,51,-271,-194,105,114,63,163,41,158,-194,-13,59,-85,-34
192593,157,146,488,-78,17,116,-5,81,241,-208,38,30,381,19,46,147,37,70,59,-262,-182,156,184,95,191,82,229,-115,34,96,-31,24
192594,138,165,479,-95,-18,90,-51,77,228,-250,-28,4,365,0,13,104,24,55,49,-282,-229,51,190,88,161,53,165,-125,19,65,-74,42
192595,84,168,475,-117,-13,126,-64,82,217,-243,-36,0,371,-3,17,96,-73,35,55,-269,-227,39,133,76,163,29,134,-160,8,71,-74,91
192596,-36,129,461,-99,-6,126,-116,77,238,-241,18,3,369,24,34,79,-40,42,56,-266,-244,-43,165,94,165,42,99,-132,33,62,-68,45
192597,-306,78,405,-96,1,104,-124,66,242,-244,-23,-48,369,42,21,58,-102,31,66,-282,-272,-99,144,71,159,11,63,-218,15,37,-108,-34
192598,-297,24,356,-92,-21,83,-138,61,220,-250,-85,-84,373,16,8,19,-169,3,63,-290,-291,-154,99,60,166,2,52,-217,13,37,-100,-25
192599,-53,21,348,-90,-26,127,-94,99,224,-258,-15,-84,361,9,20,-21,-184,-7,57,-284,-309,-264,73,56,150,-14,8,-203,2,31,-120,-105
192600,56,32,305,-61,-23,129,-164,134,259,-237,20,-48,379,44,24,10,-216,-6,67,-266,-275,-201,47,61,162,-10,46,-256,-2,22,-127,-74
192601,35,48,190,-93,-47,86,-154,141,239,-252,-40,14,391,34,-4,53,-280,63,67,-277,-270,-110,141,85,156,9,89,-219,-1,25,-117,-73
192602,0,50,185,-89,-47,65,-181,195,246,-267,-55,49,408,38,-10,85,-251,88,66,-283,-278,-110,119,91,145,-21,81,-251,-2,6,-141,-72
192603,-23,59,198,-90,-29,136,-230,178,259,-222,-16,33,416,41,21,87,-182,73,80,-259,-282,-117,86,93,162,-11,80,-215,6,29,-107,-19
192604,-71,53,208,-42,-29,146,-288,156,256,-216,-10,27,393,43,-1,-6,-116,40,83,-274,-289,-77,110,101,163,-11,93,-102,37,44,-59,57
192605,-81,46,301,-33,-8,164,-356,166,268,-217,9,14,400,31,1,-17,-96,39,76,-295,-313,-132,82,80,139,-46,34,-140,-1,-1,-133,-75
192606,-67,43,306,-16,-5,192,-338,145,255,-231,6,-68,379,30,5,44,-93,0,78,-300,-294,-83,60,52,136,-21,53,-160,14,23,-116,-68
192607,-97,11,275,-25,-16,251,-284,150,247,-196,22,-127,374,39,38,50,-108,24,89,-251,-262,-6,102,93,184,30,144,-252,24,58,-77,15
192608,-125,-155,235,-60,-35,185,-317,160,235,-209,-28,-125,391,49,27,29,-129,24,92,-258,-276,-10,142,121,185,32,110,-291,33,68,-85,8
192609,-90,-172,257,-98,-17,143,-218,112,229,-227,-46,-108,396,47,22,14,-82,61,106,-246,-266,-26,170,128,198,42,96,-270,51,97,-61,-73
192610,-62,-148,333,-114,-21,190,-211,73,231,-222,-38,-75,368,45,19,3,-93,60,97,-257,-252,-47,195,127,215,61,163,-285,70,104,-42,-33
192611,-71,-161,358,-90,-20,104,-274,91,240,-237,-83,-43,375,51,8,-3,-176,48,88,-257,-248,-148,188,135,216,56,171,-333,65,101,-50,9
192612,-43,-94,319,-113,-30,115,-204,72,236,-240,-97,-51,385,41,-8,11,-249,35,91,-256,-248,-133,138,112,198,33,137,-396,1,45,-114,26
192613,-8,-19,282,-142,-39,56,-183,59,238,-254,-133,-81,381,43,-22,-34,-214,50,94,-263,-275,-99,171,123,207,17,77,-325,19,46,-100,-8
192614,-16,27,279,-102,-30,39,-146,106,247,-249,-117,-143,393,67,1,2,-208,26,100,-241,-253,-50,120,110,209,27,108,-253,9,48,-96,-91
192615,-65,91,322,-70,-35,23,-111,138,272,-266,-85,-157,406,63,18,18,-144,12,101,-230,-230,-36,89,121,209,59,174,-198,4,68,-68,-117
192616,-111,145,327,-117,-17,27,-94,164,256,-260,-81,-126,403,51,14,29,-102,15,90,-255,-219,-25,45,116,208,70,158,-178,5,75,-74,2
192617,-123,169,296,-34,-17,35,-97,227,264,-246,-68,-93,416,56,27,30,-83,27,112,-250,-237,3,67,111,216,69,105,-129,25,94,-47,116
192618,-29,102,206,-33,-13,101,-91,187,261,-236,-34,-70,419,51,39,48,-95,33,118,-245,-257,-59,74,122,214,55,66,-142,44,79,-73,-45
192619,-62,74,255,-68,-24,81,-94,94,246,-229,-17,-73,395,58,43,59,-84,44,109,-220,-219,-65,70,138,208,70,105,-125,38,87,-63,-47
192620,-91,97,361,-31,-32,128,-103,84,258,-242,-7,-50,394,50,30,15,-89,61,111,-225,-217,-74,79,120,199,66,134,-111,23,77,-69,-96
192621,-40,100,426,-32,-18,155,-107,112,254,-234,-5,-38,397,61,58,86,-91,69,107,-208,-176,-4,98,146,218,104,179,-111,52,114,-23,1
192622,-91,72,406,-92,-35,141,-161,83,226,-239,-10,-34,401,70,53,111,-67,77,127,-212,-186,-33,107,153,239,92,150,-83,73,117,-33,-45
192623,-120,-55,350,-124,-46,135,-180,31,207,-249,-59,-66,377,61,39,62,-82,58,117,-216,-225,-40,101,161,252,83,147,-64,80,110,-35,-53
192624,-145,-215,278,-128,-36,200,-213,24,224,-234,-26,-75,388,56,58,13,-131,46,90,-202,-240,-87,111,140,253,82,151,-71,81,138,-32,-17
192625,-187,-243,253,-117,-38,226,-364,54,239,-207,74,-21,379,54,50,-80,-163,47,93,-218,-268,-211,96,142,236,61,68,-100,73,103,-30,-52
192626,-255,-273,293,-81,-40,266,-338,118,246,-217,-2,-15,376,47,29,-57,-151,32,80,-236,-271,-164,49,116,209,34,28,-192,2,22,-120,-38
192627,-318,-163,303,-20,-1,207,-227,148,234,-234,-67,-29,384,31,39,19,-170,19,69,-258,-271,-159,52,79,174,15,50,-238,-49,-28,-200,-24
192628,-173,64,334,22,3,126,-161,197,261,-236,19,32,382,41,46,85,-203,31,65,-262,-245,-147,64,64,152,15,48,-244,-39,-32,-187,-42
192629,79,166,401,-24,-5,158,-149,203,266,-220,85,74,413,52,53,107,-124,89,81,-243,-227,-83,137,108,185,17,63,-167,-17,-7,-155,-40
192630,153,237,409,-75,-5,118,-95,83,245,-223,56,29,394,34,53,104,-20,97,80,-240,-244,-82,187,114,219,33,53,-175,8,49,-127,-15
192631,126,212,385,-95,-14,105,-76,47,240,-239,13,-1,388,54,62,105,69,99,106,-225,-235,-66,235,159,242,79,71,-83,93,99,-54,3
192632,42,143,305,-111,-35,116,-61,56,233,-249,-24,-85,376,54,56,97,-37,60,108,-210,-225,-80,174,143,253,76,82,-90,64,61,-67,-31
192633,-5,169,272,-136,-64,30,-48,47,235,-250,-24,-90,378,30,54,83,-184,40,83,-226,-218,-78,123,137,247,79,79,-159,42,35,-84,-15
192634,2,102,278,-134,-40,84,-73,36,227,-226,17,-91,375,51,80,95,-160,59,97,-212,-203,-32,141,140,250,87,123,-157,45,55,-95,4
