,Fp1,Fp2,F7,F3,Fz,F4,F8,FC5,FC1,FC2,FC6,T7,C3,Cz,C4,T8,TP9,CP5,CP1,CP2,CP6,TP10,P7,P3,Pz,P4,P8,PO9,O1,Oz,O2,PO10
223610,62,15,324,221,212,547,186,335,-69,384,520,128,30,134,440,421,133,207,54,333,167,538,472,58,291,399,600,207,222,65,249,164
223611,65,-4,368,178,212,559,152,322,-80,388,481,2,38,121,440,432,62,203,57,337,164,397,474,45,272,387,633,95,157,0,215,11
223612,127,-63,374,28,215,487,147,298,-114,357,432,55,4,95,422,407,60,204,57,301,152,291,552,57,266,361,624,38,139,-22,206,26
223613,45,-103,310,193,202,535,120,362,-89,344,361,143,0,101,387,500,135,216,55,273,99,342,619,88,262,335,584,63,154,4,220,254
223614,-52,-40,243,282,175,577,72,403,-63,345,378,195,42,115,381,535,156,243,69,293,79,338,621,101,258,345,525,167,210,53,240,308
223615,-50,-39,217,266,193,591,80,398,-19,373,419,217,79,156,414,433,150,275,115,333,86,427,554,137,294,389,512,215,271,79,267,261
223616,-64,42,262,298,204,505,68,339,-38,354,468,188,82,155,422,356,176,277,122,339,110,477,528,145,296,385,550,225,278,83,271,160
223617,-151,125,311,242,176,487,104,272,-52,355,507,99,60,156,440,325,183,271,111,345,135,320,544,128,316,405,610,171,248,76,266,154
223618,-253,91,371,200,173,463,152,181,-63,370,503,-57,42,185,450,314,176,245,138,378,160,347,509,130,346,430,628,201,227,79,254,210
223619,-104,43,414,177,190,458,134,196,-72,354,476,-83,45,184,452,262,118,249,136,365,131,363,532,117,324,408,613,211,222,35,247,280
223620,-83,35,398,248,188,468,195,229,-51,382,469,35,63,197,453,302,89,260,121,361,128,408,560,114,330,405,610,181,225,28,278,341
223621,-25,105,407,260,178,441,229,245,-62,392,458,243,52,178,451,364,97,230,117,365,117,403,533,111,344,410,592,150,233,54,285,296
223622,-27,113,433,275,165,470,243,285,-56,398,464,260,72,171,462,414,138,258,120,375,131,412,563,150,341,428,596,196,265,76,278,308
223623,-77,46,437,318,169,489,178,279,-69,392,471,220,66,180,469,373,180,236,127,379,116,385,571,163,355,434,559,227,269,88,287,294
223624,-61,16,419,261,185,563,125,287,-55,419,469,225,53,177,481,412,235,263,117,398,144,413,625,205,375,444,594,274,299,131,315,298
223625,-8,39,455,262,221,688,182,337,-23,440,422,261,80,198,492,533,254,273,171,413,209,459,614,213,426,483,655,314,317,148,357,290
223626,-97,121,409,248,201,556,188,318,-48,415,445,234,66,187,491,550,221,238,150,413,196,420,590,210,433,503,656,352,346,173,377,369
223627,-96,94,367,203,187,515,243,259,-62,409,522,63,65,184,509,524,261,258,157,426,199,359,612,249,443,521,638,378,402,212,404,418
223628,-44,105,363,208,222,554,336,268,-35,442,557,0,115,205,539,533,316,331,194,460,222,366,684,271,476,547,639,427,446,265,455,366
223629,44,136,341,193,216,478,311,317,-36,418,553,144,144,195,541,445,310,354,199,465,224,449,770,294,475,550,687,388,442,270,448,240
223630,0,104,288,241,172,417,268,288,-42,391,515,149,122,163,529,403,219,319,169,431,197,406,791,266,429,539,682,344,411,233,436,232
223631,21,70,277,201,182,528,235,215,-76,404,530,308,76,160,552,377,131,303,149,453,197,400,719,249,436,547,668,361,415,206,424,320
223632,97,163,324,138,177,550,242,174,-97,434,542,376,49,164,554,350,186,289,165,455,221,420,701,263,442,533,663,379,412,232,425,416
223633,84,190,398,88,174,423,209,167,-100,400,513,310,25,143,546,345,256,278,156,441,198,406,691,254,442,529,636,324,417,242,438,472
223634,-95,35,331,40,146,434,161,143,-120,386,512,278,7,143,553,431,196,280,152,449,224,386,719,264,447,555,648,183,395,229,436,393
223635,-161,-59,276,68,177,456,153,159,-96,429,495,322,12,184,559,472,215,272,182,487,239,402,762,278,475,580,695,229,430,267,470,290
223636,-204,-109,203,71,177,433,143,135,-97,435,494,433,2,199,568,412,269,249,179,499,232,421,775,303,481,566,703,368,443,274,455,320
223637,-276,-187,131,59,168,432,173,97,-95,415,478,380,-26,186,551,347,227,232,148,472,190,405,777,274,454,531,642,360,438,240,410,381
223638,-279,-95,131,119,192,449,195,144,-100,393,454,160,-10,176,514,267,213,204,140,439,153,324,709,229,408,499,606,261,404,206,380,350
223639,-207,131,187,135,175,469,199,181,-105,369,406,-31,-12,153,463,146,66,180,106,397,88,269,559,181,346,426,589,215,322,157,342,240
223640,-90,191,246,175,184,516,195,208,-96,370,390,-1,-1,147,443,161,-89,158,75,371,41,223,485,151,321,395,559,194,272,113,282,174
223641,74,211,352,166,215,517,215,242,-78,396,437,77,25,201,496,250,-133,171,115,397,76,298,473,166,363,418,551,178,309,145,334,312
223642,222,152,414,130,219,531,229,246,-95,415,464,109,10,195,519,314,-3,167,132,420,112,340,539,163,403,440,561,250,327,153,359,281
223643,212,106,398,175,199,532,241,253,-72,422,476,79,-16,201,525,317,86,122,131,407,135,357,508,138,382,461,591,285,295,139,340,253
223644,129,91,350,200,191,541,221,140,-82,401,480,34,-6,196,521,270,129,107,107,394,128,345,486,131,366,461,613,286,283,109,299,180
223645,86,147,328,125,193,553,233,-184,-120,409,492,73,-16,186,533,311,161,146,102,413,128,329,545,147,365,461,627,206,314,132,305,204
223646,77,169,316,169,179,553,229,89,-95,403,489,41,3,177,542,360,59,146,80,398,138,333,539,141,337,431,576,137,286,116,296,273
223647,61,199,351,224,185,506,187,216,-81,399,475,206,8,152,539,376,78,174,73,390,103,360,586,127,346,426,555,102,263,116,284,298
223648,71,269,328,261,209,563,189,134,-70,430,488,312,25,175,541,349,215,226,91,410,100,397,669,175,356,424,552,81,260,115,317,340
223649,92,240,253,289,216,568,177,131,-60,419,477,166,13,164,542,306,229,206,84,409,85,331,668,144,344,419,542,152,228,81,305,352
223650,131,222,317,267,217,593,103,308,-70,414,416,82,2,157,538,251,190,182,90,408,115,275,585,117,340,429,560,192,223,69,295,343
223651,38,294,414,317,186,555,25,307,-70,392,420,120,22,141,514,256,160,175,71,378,107,248,573,122,313,415,569,208,242,66,325,352
223652,89,336,480,253,227,571,101,288,-50,408,489,164,42,153,540,323,195,211,95,404,152,306,628,153,365,451,617,297,304,112,340,375
223653,68,151,429,204,212,596,142,276,-60,391,491,201,28,155,511,368,197,216,100,384,134,343,610,166,344,436,620,320,311,133,317,359
223654,120,60,461,220,205,632,157,264,-53,406,453,201,21,162,499,618,205,232,95,397,148,396,611,175,347,434,652,319,334,146,352,346
223655,269,99,554,149,244,620,216,258,-42,424,481,239,36,193,564,536,328,273,139,433,192,482,684,215,385,484,707,372,399,202,395,295
223656,244,63,513,207,220,610,237,279,-41,412,475,218,54,174,551,347,332,225,119,405,168,526,604,167,358,446,644,310,321,167,336,223
223657,176,37,499,224,199,491,216,279,-39,391,486,191,57,166,537,312,275,226,106,393,168,540,588,185,355,440,628,311,317,154,323,253
223658,176,193,473,245,210,490,203,278,-44,395,491,146,68,188,560,377,232,249,135,424,195,414,607,232,382,472,704,377,383,205,365,330
223659,117,277,443,276,216,522,193,291,-23,396,493,136,95,199,546,406,203,252,151,412,202,306,559,209,358,460,669,339,345,174,354,274
223660,67,242,401,233,196,479,201,311,-41,365,487,74,59,139,512,353,172,247,108,361,139,272,567,159,312,410,620,305,314,120,306,228
223661,14,263,335,319,211,451,184,323,-54,361,444,24,55,126,482,410,122,249,81,349,120,323,603,149,312,395,636,300,300,104,280,125
223662,-10,202,279,347,209,486,183,308,-53,367,434,63,41,137,484,421,117,225,71,329,110,291,609,156,287,374,573,219,289,94,266,81
223663,34,154,185,330,221,511,210,282,-71,358,439,70,43,117,476,374,118,204,53,321,58,284,613,140,265,354,513,144,255,72,238,195
223664,131,182,124,331,212,533,257,329,-68,355,462,333,36,119,480,386,157,216,51,314,65,275,715,165,274,353,482,180,284,86,241,307
223665,161,241,248,354,214,556,282,327,-55,390,525,476,34,139,533,416,192,242,76,343,127,319,760,196,307,384,516,268,339,133,298,350
223666,98,280,384,329,232,667,224,282,-67,415,509,400,30,123,551,419,205,225,84,378,146,431,713,166,318,399,555,262,256,95,307,309
223667,64,310,413,283,247,581,194,305,-63,411,466,296,59,134,549,391,187,211,84,385,151,475,733,159,313,420,602,184,250,98,320,276
223668,114,253,373,259,261,617,196,313,-66,418,507,282,51,125,572,378,180,245,73,395,162,459,813,167,330,416,642,49,267,106,315,303
223669,106,303,249,353,269,547,240,357,-38,428,526,281,51,121,562,381,192,216,89,392,182,450,689,156,333,421,647,105,266,107,329,320
223670,79,222,195,324,227,589,196,284,-69,391,506,230,19,105,537,398,112,170,27,362,146,392,586,117,280,403,601,131,216,62,293,286
223671,145,215,285,303,239,586,119,248,-61,401,500,258,27,107,530,414,125,196,48,378,144,353,600,132,284,407,562,177,239,74,293,199
223672,179,275,412,212,247,535,99,238,-73,403,486,357,35,120,526,371,176,221,75,380,132,350,617,171,294,408,530,180,247,76,299,142
223673,230,306,536,218,235,538,92,230,-82,403,496,240,46,125,529,351,169,234,82,382,109,310,587,185,306,400,534,253,277,55,285,182
223674,326,356,584,123,232,537,154,213,-96,383,489,111,39,130,546,320,172,239,77,382,97,245,554,178,317,396,522,321,291,94,277,212
223675,385,385,609,141,237,554,249,216,-81,389,503,176,34,130,533,279,210,209,94,366,105,319,547,180,324,404,525,299,281,108,303,297
223676,346,351,554,137,240,556,267,137,-95,396,489,218,40,138,552,281,180,203,102,391,115,404,547,178,327,423,568,327,298,122,331,281
223677,307,336,488,190,217,550,274,204,-93,408,478,140,32,134,542,337,165,188,99,408,133,402,516,161,328,434,561,336,302,131,322,282
223678,262,352,486,231,247,598,313,258,-73,431,508,135,31,158,565,369,148,198,105,416,155,369,527,168,347,437,564,280,305,118,319,256
223679,155,329,433,235,250,598,276,222,-67,430,488,237,34,154,568,406,80,207,92,403,172,420,563,178,357,412,559,245,294,143,319,258
223680,128,279,359,215,227,550,214,197,-100,387,437,159,6,124,515,428,67,168,71,367,140,389,521,133,325,384,556,208,247,107,282,242
223681,77,249,305,220,206,542,199,209,-99,380,430,65,7,147,517,306,93,140,52,354,106,305,477,94,300,396,530,164,236,94,265,169
223682,78,181,283,239,227,600,177,167,-80,397,416,159,-1,160,533,288,141,178,74,372,137,351,561,148,333,424,575,226,293,131,297,160
223683,146,172,218,217,213,550,142,-93,-108,393,378,267,-25,142,531,282,165,204,70,372,145,347,617,133,327,430,602,193,274,112,286,176
223684,32,130,220,218,204,552,145,4,-106,403,433,185,5,137,533,266,86,159,62,403,143,311,577,102,320,426,587,113,245,92,314,208
223685,-36,39,221,218,195,567,130,239,-105,407,473,166,-34,149,549,304,36,143,67,413,163,372,518,109,341,447,571,184,237,127,328,332
223686,-93,15,126,255,180,605,-8,176,-129,405,484,221,-46,151,566,332,63,162,57,414,156,480,481,118,348,450,548,160,241,124,310,326
223687,12,143,172,260,180,588,-27,186,-117,403,494,107,-10,134,570,337,72,180,59,430,164,309,499,137,360,465,589,99,228,107,313,321
223688,136,189,179,256,180,556,47,195,-93,402,489,-257,15,141,571,336,45,169,94,436,172,286,535,149,381,479,592,95,243,119,336,230
223689,95,172,219,310,207,474,143,234,-87,397,450,-273,37,171,533,319,-9,179,92,431,127,344,543,151,397,471,556,40,247,120,346,218
223690,58,111,270,238,187,463,194,216,-85,391,387,-100,64,159,523,384,-3,241,108,420,106,358,652,182,413,449,551,63,298,152,355,284
223691,89,158,272,182,201,473,192,174,-77,382,417,66,86,151,517,429,7,289,137,419,139,221,766,223,412,458,582,60,321,159,372,287
223692,96,220,239,212,217,472,180,188,-62,381,439,247,101,152,516,306,-14,315,125,425,141,272,757,240,398,453,582,95,305,158,370,273
223693,79,166,195,166,198,492,146,180,-79,380,444,261,58,144,540,226,-11,264,95,401,148,274,681,207,386,445,572,214,328,163,361,270
223694,-24,192,196,153,204,507,138,136,-86,372,462,215,23,122,552,339,9,222,90,405,169,257,591,154,372,462,590,272,350,175,410,287
223695,-74,195,296,193,216,597,101,139,-75,408,534,265,50,170,594,423,78,236,124,458,199,301,631,198,383,477,622,290,351,194,425,302
223696,72,231,344,182,212,541,51,161,-76,420,533,99,66,189,625,387,109,231,128,452,223,336,661,207,391,497,648,270,340,222,424,222
223697,138,158,345,168,185,523,-32,162,-86,401,456,-147,26,172,601,364,125,186,111,433,223,293,566,180,382,494,699,336,384,222,433,109
223698,103,29,334,158,169,560,-13,165,-91,394,498,-107,10,170,592,314,132,150,92,437,199,317,456,177,378,510,734,397,394,236,433,182
223699,93,-13,297,127,202,630,-5,204,-86,409,482,38,40,184,591,303,111,171,111,449,187,393,491,192,379,512,696,346,395,235,450,288
223700,8,26,225,200,201,603,1,181,-78,399,436,126,42,176,578,306,87,178,101,424,162,358,509,176,375,486,640,306,420,237,447,355
223701,-61,112,222,178,193,532,60,117,-95,377,434,134,61,171,564,270,98,175,101,423,134,307,540,170,351,461,593,220,360,199,433,347
223702,-16,229,280,179,201,469,140,107,-74,391,452,165,61,200,572,289,162,220,118,447,167,341,627,192,376,487,591,227,369,217,446,432
223703,26,277,304,209,231,448,189,165,-58,406,447,267,80,205,587,382,242,277,146,472,192,391,780,234,407,515,649,253,406,257,451,461
223704,22,153,288,169,208,553,126,199,-97,384,437,322,47,179,570,427,174,215,87,461,211,397,731,175,361,501,635,153,352,201,432,323
223705,12,167,336,228,218,532,8,204,-62,400,411,246,72,197,608,464,169,210,117,483,251,445,670,172,363,517,689,224,373,231,441,234
223706,34,222,324,220,219,592,-12,16,-55,399,441,204,66,197,600,407,221,208,125,471,223,524,624,191,382,540,722,359,412,259,429,119
223707,134,275,231,229,226,540,-46,165,-40,404,494,205,101,185,607,418,203,216,113,465,257,368,575,199,390,532,735,401,421,249,426,200
223708,208,303,295,212,225,408,-44,267,-24,379,530,253,115,169,589,349,160,271,142,442,245,357,631,202,379,502,726,401,420,233,412,359
223709,297,231,365,171,221,532,113,294,-30,379,508,245,116,170,589,278,109,285,119,411,184,385,618,199,356,444,639,280,346,173,335,435
223710,290,239,352,236,210,511,253,343,-39,373,508,262,131,150,568,280,125,283,114,378,145,373,644,201,335,418,583,208,288,119,299,401
223711,235,212,297,239,202,579,258,302,-28,358,503,357,124,135,564,418,240,323,123,404,150,488,751,246,354,435,598,261,360,187,313,242
223712,157,170,308,249,199,507,242,267,-49,372,467,485,87,164,562,653,206,334,140,419,187,532,734,249,370,463,643,214,364,196,353,225
223713,142,156,317,259,206,508,265,226,-44,389,522,563,102,178,596,582,262,344,159,464,221,502,719,247,409,500,656,257,365,224,383,397
223714,180,172,349,146,215,542,335,-24,-68,396,541,500,93,168,597,375,282,326,172,468,204,483,707,292,415,498,610,410,431,255,422,490
223715,121,215,286,256,219,432,313,136,-38,385,532,365,114,161,566,260,134,306,155,457,146,380,679,275,408,483,533,384,433,238,374,421
223716,39,273,265,290,202,479,206,273,-42,379,505,318,114,172,569,235,96,288,136,448,127,339,690,260,399,468,527,331,434,243,378,369
223717,134,278,301,312,188,431,43,291,-70,374,465,302,84,180,558,253,82,280,142,460,131,365,719,256,407,463,558,262,372,204,362,350
223718,131,172,304,284,204,492,-87,344,-78,401,535,221,48,176,589,268,48,248,122,450,149,421,721,236,379,457,561,66,318,158,315,337
223719,155,134,335,245,226,528,-12,305,-82,401,524,174,36,171,595,352,150,271,134,449,171,418,775,243,387,445,553,19,312,141,309,295
223720,280,213,397,227,220,503,135,240,-106,383,517,110,38,168,574,388,180,250,103,444,162,423,708,231,400,442,558,140,350,157,310,272
223721,226,293,417,229,200,450,224,241,-109,359,473,156,26,162,552,377,141,228,93,442,130,414,545,204,372,424,570,213,315,143,298,262
223722,155,285,414,236,208,437,326,234,-90,347,472,189,16,164,545,477,128,212,103,434,143,406,458,179,352,437,598,199,270,120,302,254
223723,141,241,440,254,205,441,351,222,-84,362,497,-11,28,158,555,458,176,204,93,420,159,388,448,160,346,429,633,266,303,160,310,239
223724,93,238,473,289,193,454,322,260,-82,346,480,-27,21,147,540,366,205,216,91,407,152,386,502,170,336,419,631,270,345,149,289,122
223725,73,284,445,340,224,508,298,277,-67,379,485,132,30,147,556,337,247,222,97,404,160,450,554,178,339,413,621,259,340,142,284,103
223726,84,214,390,342,245,530,268,349,-61,382,508,127,66,148,553,294,199,243,82,393,142,442,587,186,317,388,582,255,300,104,246,115
223727,16,133,386,308,228,606,234,336,-65,389,527,126,62,130,573,297,94,253,87,391,133,420,633,181,298,381,547,257,304,101,257,210
223728,2,213,406,284,222,575,228,206,-85,401,515,231,71,158,580,383,148,288,108,417,156,456,684,189,317,393,574,192,324,117,278,300
223729,-59,244,380,324,197,509,174,223,-51,381,448,262,71,141,550,415,159,286,100,392,129,443,714,170,286,383,566,107,260,61,236,203
223730,-126,253,363,227,209,533,205,237,-84,361,451,165,47,119,543,375,171,258,71,354,100,439,697,159,254,330,490,122,226,39,216,161
223731,-1,276,380,212,224,563,180,239,-84,388,478,81,42,138,554,375,197,295,82,369,96,502,665,167,259,320,466,32,225,39,224,219
223732,96,261,389,304,226,561,208,279,-53,380,477,22,91,158,549,389,170,299,86,383,112,360,700,188,277,358,519,66,230,33,220,128
223733,61,257,350,310,197,468,175,332,-78,349,459,22,89,130,539,375,135,215,66,350,87,332,596,149,230,328,500,201,229,19,181,-25
223734,96,159,290,245,181,477,119,378,-78,355,464,127,33,108,525,364,102,174,48,344,71,317,461,106,211,307,473,180,173,-41,135,18
223735,148,88,314,185,210,511,109,268,-72,368,479,365,23,131,539,295,70,194,58,349,48,277,496,130,244,331,464,158,197,-2,175,156
223736,165,157,351,256,223,512,122,198,-53,383,463,443,38,169,535,260,118,228,92,371,31,255,535,167,272,335,445,179,236,43,207,237
223737,224,148,364,211,206,595,152,180,-99,404,479,404,29,147,554,230,154,221,78,381,44,315,581,173,298,340,444,167,248,64,240,221
223738,251,208,364,232,233,509,200,212,-95,400,434,335,16,137,569,227,184,192,60,400,53,306,579,166,305,359,453,236,256,74,229,185
223739,214,186,329,201,236,514,223,224,-100,399,457,279,21,136,585,248,181,213,70,423,83,254,583,175,311,389,477,268,275,95,298,141
223740,181,95,312,151,222,615,157,218,-110,422,496,278,15,143,595,317,145,183,70,416,114,222,524,159,301,406,517,189,250,84,275,176
223741,122,90,314,120,180,577,14,146,-142,389,491,232,-4,118,578,309,5,181,36,385,100,207,476,130,266,378,502,126,207,52,223,135
223742,95,126,317,149,181,531,13,192,-131,391,470,222,22,130,558,262,25,214,42,393,83,283,546,143,273,371,502,67,259,71,259,206
223743,135,132,308,149,175,538,52,226,-108,371,355,250,33,138,522,444,96,219,75,392,72,341,640,194,293,377,548,-42,252,71,249,172
223744,98,187,197,167,161,480,47,206,-110,357,350,319,30,144,526,334,157,253,99,403,61,296,717,209,292,379,520,27,242,60,239,123
223745,-5,174,257,217,191,479,134,216,-94,367,461,337,50,159,561,159,139,292,119,403,49,336,714,233,315,399,483,189,272,85,247,140
223746,-88,129,336,220,209,510,189,236,-81,382,485,312,43,145,577,157,128,301,136,411,85,289,669,222,350,404,491,244,291,113,294,254
223747,-136,182,363,255,201,513,149,274,-91,373,478,286,31,169,574,235,151,246,122,420,116,224,625,217,365,420,521,215,339,140,326,269
223748,-123,223,359,298,209,475,93,272,-64,393,529,349,33,188,603,324,159,254,122,448,160,386,666,211,381,465,617,155,337,153,341,238
223749,27,268,256,296,216,498,14,238,-67,394,549,333,22,171,601,333,126,254,127,458,184,396,699,206,367,492,676,80,294,158,353,186
223750,72,204,160,215,192,489,43,229,-102,379,530,161,5,152,567,319,132,216,74,420,162,363,629,165,351,472,640,155,282,140,351,201
223751,109,175,120,278,198,480,193,-24,-121,386,537,180,-17,169,572,315,109,188,59,424,148,401,545,141,347,469,569,235,297,166,357,301
223752,40,117,177,318,210,500,217,0,-100,389,513,162,-2,173,567,272,90,170,75,437,142,429,470,129,351,458,577,209,291,167,396,385
223753,-3,108,282,273,201,500,185,102,-102,379,502,148,-7,168,562,285,114,157,72,431,138,404,510,126,364,456,586,220,307,154,403,428
223754,30,164,394,214,219,589,190,128,-104,393,509,154,-5,177,588,295,135,154,66,451,149,438,532,141,355,483,617,326,346,185,410,464
223755,80,248,410,174,231,580,176,187,-99,401,534,181,32,182,593,356,166,183,82,460,187,473,535,157,375,511,647,327,334,205,427,438
223756,57,297,430,159,224,528,219,215,-101,383,528,193,27,178,592,364,150,198,91,463,189,470,555,175,375,488,658,253,298,167,396,304
223757,104,219,394,88,187,497,144,215,-121,344,465,151,1,146,561,340,114,168,59,430,166,478,564,150,364,477,653,254,269,110,364,201
223758,140,177,346,95,199,482,80,261,-104,344,405,95,24,147,562,415,187,177,63,448,214,612,571,181,369,497,662,257,283,115,359,262
223759,172,85,322,139,197,515,142,288,-95,363,455,96,34,162,591,447,231,200,107,452,246,514,562,211,380,521,721,303,312,152,378,340
