,Fp1,Fp2,F7,F3,Fz,F4,F8,FC5,FC1,FC2,FC6,T7,C3,Cz,C4,T8,TP9,CP5,CP1,CP2,CP6,TP10,P7,P3,Pz,P4,P8,PO9,O1,Oz,O2,PO10
209992,-198,-5,465,139,-88,230,-90,264,118,-38,22,-29,257,-23,-29,-21,14,-206,2,-85,-270,45,168,143,152,115,-19,-195,109,-105,-233,2
209993,-206,-10,462,134,-68,219,-107,246,120,-27,1,-46,253,-28,-16,-27,-22,-201,8,-77,-246,39,153,150,152,136,-4,-207,130,-81,-199,40
209994,-205,-19,450,142,-58,221,-125,254,127,-43,-6,-39,268,-19,-19,-13,-37,-177,16,-69,-238,68,201,191,165,151,10,-100,190,-29,-161,73
209995,-235,-11,421,129,-71,214,-150,227,128,-35,-26,-49,260,-35,-22,-25,-39,-188,8,-65,-243,20,231,202,169,136,15,-21,247,0,-129,132
209996,-251,-17,402,97,-69,217,-154,232,135,-28,-28,-57,257,-23,-28,-59,-32,-171,24,-69,-225,1,249,214,191,153,36,81,309,60,-72,234
209997,-237,-37,405,120,-73,225,-152,240,124,-20,-11,-43,259,-4,-15,-42,-32,-182,43,-45,-212,31,255,230,209,182,84,77,333,137,9,368
209998,-259,-47,414,107,-80,227,-148,202,138,-28,-17,-67,241,-13,-7,-25,-70,-198,26,-38,-194,45,174,192,227,219,141,-141,269,139,72,527
209999,-235,-24,431,116,-91,225,-143,198,127,-29,-8,-93,247,-26,0,9,-84,-221,4,-53,-180,67,143,166,184,215,156,-273,171,62,38,524
210000,-219,-13,466,136,-80,255,-107,237,120,1,43,-81,254,-21,39,49,-57,-221,13,-45,-166,124,156,167,189,225,175,-210,146,20,16,521
210001,-208,-25,467,137,-71,263,-101,247,138,-13,49,-56,265,-29,36,67,-10,-185,3,-52,-205,108,190,159,160,172,65,-144,158,-40,-149,182
210002,-189,-3,500,151,-76,261,-85,272,134,-34,26,5,289,-51,-10,43,24,-173,-3,-105,-261,107,202,160,111,87,-57,-148,136,-154,-349,-248
210003,-158,24,516,160,-61,268,-60,286,131,-42,45,41,289,-40,0,23,35,-153,-1,-101,-241,126,210,141,106,80,-53,-120,136,-165,-357,-251
210004,-170,23,492,144,-55,247,-67,288,131,-44,47,40,288,-46,-1,21,61,-142,10,-95,-229,113,196,171,108,94,-26,-54,159,-130,-299,-164
210005,-175,42,503,160,-59,248,-78,289,140,-45,29,43,285,-51,-22,21,67,-154,-9,-107,-239,100,202,149,127,92,-53,-64,148,-137,-297,-264
210006,-156,58,515,166,-63,246,-78,287,113,-47,27,16,248,-54,-12,38,93,-184,-20,-117,-239,129,143,107,101,112,-12,-267,15,-221,-312,-133
210007,-169,53,520,169,-50,259,-69,286,113,-35,35,35,237,-41,-9,49,112,-148,12,-98,-198,141,174,157,121,128,25,-199,87,-128,-208,10
210008,-164,66,533,170,-54,249,-53,304,120,-41,44,74,266,-27,7,53,74,-131,3,-83,-174,156,233,193,147,152,26,-97,183,-30,-160,55
210009,-150,53,512,164,-74,232,-73,309,127,-43,15,87,277,-48,12,42,37,-123,7,-88,-198,124,230,177,153,130,23,-91,168,-48,-178,39
210010,-133,46,515,184,-67,235,-56,306,127,-28,40,99,281,-53,8,16,79,-106,4,-100,-210,118,202,168,156,123,3,-142,136,-90,-215,9
210011,-179,26,504,159,-82,211,-66,307,109,-51,27,83,272,-42,-2,7,98,-139,-5,-106,-231,79,214,156,156,101,-26,-171,105,-124,-262,13
210012,-199,0,496,154,-64,188,-149,309,128,-30,13,94,299,-35,-7,5,80,-115,18,-72,-216,78,257,180,176,130,19,-78,185,-30,-158,60
210013,-194,-3,505,173,-72,204,-142,327,130,-30,11,103,292,-34,8,3,53,-107,35,-72,-209,80,255,203,189,170,43,-76,209,-3,-105,142
210014,-203,-10,506,178,-56,207,-130,325,138,-30,3,89,288,-30,12,-13,60,-131,32,-80,-224,31,203,172,162,136,11,-138,148,-57,-155,99
210015,-214,-36,503,154,-58,198,-152,312,146,-29,9,77,297,-31,6,-7,37,-142,22,-79,-239,18,183,177,161,121,-13,-109,170,-46,-118,109
210016,-215,-32,514,165,-71,193,-139,319,131,-36,-4,65,283,-29,-14,-24,-9,-135,21,-78,-257,4,174,163,160,105,-25,-79,187,-31,-149,29
210017,-183,-25,526,189,-71,193,-144,329,140,-34,-6,68,293,-39,-24,-31,28,-114,18,-84,-276,19,232,177,153,95,-102,40,289,28,-209,-171
210018,-188,-45,541,174,-65,191,-142,328,144,-37,-10,68,292,-32,-33,-18,43,-105,28,-89,-268,8,270,187,172,99,-77,94,330,71,-162,-74
210019,-197,-56,541,162,-71,171,-152,308,147,-57,-13,78,282,-35,-37,-15,-3,-116,34,-87,-257,-12,239,179,172,139,-16,-7,284,88,-93,88
210020,-201,-44,555,184,-72,159,-153,317,146,-45,-4,75,282,-35,-20,-1,7,-149,22,-72,-235,28,188,141,165,140,7,-236,102,-67,-146,142
210021,-189,-28,559,172,-75,167,-139,320,141,-48,15,78,267,-39,-30,-6,17,-190,-11,-88,-256,32,122,78,113,67,-66,-375,-139,-334,-358,-39
210022,-181,-15,553,179,-60,165,-144,333,149,-50,35,91,262,-41,-22,13,6,-206,-42,-114,-285,33,74,42,64,17,-132,-463,-222,-486,-518,-238
210023,-162,-13,561,173,-52,163,-122,338,143,-26,28,97,256,-15,-4,12,23,-205,-29,-87,-244,47,85,52,85,77,-57,-441,-131,-336,-402,-65
210024,-126,17,582,207,-38,202,-92,321,124,-31,33,84,258,-20,2,35,12,-181,-19,-81,-229,64,74,56,100,91,-32,-390,-81,-283,-342,-20
210025,-117,20,598,218,-37,199,-79,329,137,-31,51,91,265,-16,3,51,11,-165,0,-64,-217,79,103,98,120,108,-16,-356,-31,-233,-290,-47
210026,-146,12,572,206,-46,200,-102,361,148,-33,48,86,278,-5,-9,51,48,-162,19,-54,-218,70,135,130,162,120,-11,-264,20,-155,-216,-12
210027,-175,7,549,199,-70,203,-107,355,158,-42,51,74,292,-5,-12,30,66,-166,29,-42,-239,59,152,110,166,107,-54,-209,26,-167,-248,-49
210028,-180,1,544,183,-76,215,-108,330,133,-46,60,70,288,-8,-2,19,50,-149,11,-54,-252,54,119,99,143,69,-72,-284,0,-229,-320,-61
210029,-159,33,542,187,-58,212,-74,339,144,-22,52,81,291,-8,8,23,23,-133,19,-30,-243,58,159,139,184,108,-31,-229,80,-113,-187,69
210030,-144,56,539,185,-43,234,-76,370,158,-14,41,85,306,0,23,18,18,-135,45,-20,-221,65,178,153,186,153,9,-205,96,-60,-95,231
210031,-170,44,551,192,-60,224,-101,380,160,-16,23,83,291,-8,19,15,23,-141,51,-47,-211,58,168,141,165,159,43,-183,107,-42,-48,335
210032,-153,34,551,189,-59,221,-93,363,150,-36,21,89,274,-7,-3,-4,41,-140,27,-53,-224,81,183,150,178,148,32,-156,99,-51,-97,267
210033,-135,49,558,195,-58,230,-74,360,146,-42,6,86,262,-15,-8,-6,3,-167,-6,-77,-266,82,146,106,126,59,-60,-222,-10,-226,-331,-25
210034,-153,41,556,191,-48,230,-98,343,141,-16,15,77,273,-3,5,0,-3,-183,-7,-73,-266,67,132,97,122,60,-61,-228,21,-216,-296,-35
210035,-122,56,566,202,-34,259,-85,351,148,-14,41,97,259,0,3,7,56,-160,-6,-79,-257,80,164,101,122,62,-67,-151,59,-200,-297,-143
210036,-99,54,574,201,-43,253,-70,354,147,-29,55,95,262,-13,-11,25,80,-160,-18,-90,-261,119,167,106,115,51,-97,-106,76,-212,-366,-226
210037,-123,69,581,188,-43,264,-50,336,138,-28,85,96,259,-25,3,49,51,-173,-19,-76,-233,132,144,111,119,74,-61,-135,86,-176,-300,-100
210038,-157,26,578,186,-64,248,-92,352,132,-21,60,99,259,-16,19,38,50,-157,3,-72,-222,121,163,130,154,86,-36,-74,125,-91,-235,-2
210039,-129,31,601,205,-64,261,-75,373,142,-12,70,101,275,-19,26,48,73,-173,0,-62,-218,130,131,125,139,81,-41,-231,59,-159,-261,-16
210040,-123,28,617,225,-38,272,-71,404,148,-1,84,121,278,-4,31,59,95,-159,-8,-49,-201,151,138,114,160,117,1,-279,42,-187,-240,72
210041,-143,9,601,218,-46,243,-79,384,153,2,61,133,282,-8,11,41,50,-147,-4,-56,-209,113,178,136,171,124,1,-227,73,-133,-215,77
210042,-153,-25,553,197,-67,231,-84,357,155,-12,58,125,297,-6,26,52,48,-140,13,-45,-214,131,167,156,186,127,11,-185,121,-77,-183,95
210043,-131,-28,572,218,-59,238,-78,382,172,0,64,118,307,17,29,57,102,-113,29,-26,-203,137,182,184,197,134,30,-127,175,-43,-156,112
210044,-110,-1,602,227,-44,249,-77,388,168,-9,69,99,306,-6,10,42,103,-130,17,-38,-223,160,190,176,183,119,15,-105,173,-43,-161,69
210045,-75,38,633,237,-41,274,-58,402,172,3,86,122,309,-15,20,56,87,-137,9,-62,-221,128,185,161,180,135,14,-89,181,7,-123,137
210046,-84,26,616,223,-54,245,-83,379,146,-7,58,113,272,-24,13,9,44,-158,-18,-71,-216,77,169,130,167,133,33,-157,160,12,-71,319
210047,-70,30,613,229,-42,267,-83,373,155,0,63,97,275,-30,28,19,51,-157,-3,-39,-190,78,185,166,198,185,96,-130,195,55,11,497
210048,-76,56,596,228,-43,291,-68,387,149,11,89,102,280,-2,41,40,45,-160,22,-45,-194,91,192,161,220,179,83,-64,215,50,-33,466
210049,-95,47,582,228,-46,270,-78,392,143,0,56,110,271,-16,5,4,52,-150,-3,-60,-239,77,222,155,194,113,9,-8,175,-48,-210,235
210050,-92,72,597,249,-40,277,-73,404,151,-15,53,132,285,-14,0,-1,84,-131,0,-81,-262,75,255,159,176,90,-65,23,162,-124,-280,-70
210051,-115,85,571,208,-54,298,-66,373,142,-2,77,118,265,-35,11,-10,74,-138,-17,-70,-240,52,230,138,141,95,-86,11,129,-116,-294,-177
210052,-95,78,552,200,-39,314,-55,348,128,1,91,102,230,-57,15,12,67,-193,-54,-94,-237,61,145,74,111,69,-72,-218,19,-201,-329,-113
210053,-69,100,583,210,-40,319,-12,364,118,-1,105,111,231,-45,36,54,94,-195,-48,-91,-226,88,142,67,116,84,-57,-286,14,-212,-318,-94
210054,-62,130,598,229,-14,347,0,375,143,25,129,129,250,-43,64,110,114,-131,-21,-68,-183,135,198,124,143,144,22,-133,113,-95,-211,29
210055,-64,119,602,221,-27,353,-9,344,148,17,120,132,254,-45,54,102,105,-130,-29,-72,-169,135,216,128,154,136,12,-41,155,-79,-218,-19
210056,-104,109,577,206,-40,342,-10,329,141,18,112,110,256,-46,41,65,122,-153,-39,-91,-185,87,212,151,136,124,-23,-5,151,-88,-245,-178
210057,-107,97,589,201,-48,325,1,338,142,13,138,117,259,-29,59,84,91,-146,-29,-85,-169,124,188,153,135,128,-1,-119,116,-94,-220,-154
210058,-110,87,564,204,-28,333,36,361,150,28,156,134,244,-35,97,121,93,-154,-38,-60,-136,153,171,111,134,147,46,-294,42,-121,-208,-36
210059,-131,113,570,192,-30,331,48,353,131,27,165,103,238,-30,84,139,81,-176,-41,-37,-128,181,154,116,144,164,75,-282,44,-111,-180,35
210060,-118,122,552,186,-54,334,45,346,123,8,166,97,234,-41,73,136,73,-167,-19,-51,-117,171,168,126,158,170,81,-227,81,-91,-143,80
210061,-112,147,553,214,-46,346,77,366,152,26,197,107,255,-19,81,162,89,-162,-17,-21,-73,194,181,153,181,196,117,-164,121,-29,-76,127
210062,-103,146,582,193,-50,334,80,356,144,15,183,109,232,-16,81,186,104,-185,-1,-16,-92,195,193,149,170,190,125,-151,127,-22,-84,137
210063,-108,151,595,195,-53,336,70,344,142,5,192,136,227,-12,97,178,126,-160,-7,-30,-79,208,187,139,179,209,130,-121,149,-26,-95,170
210064,-104,149,598,201,-45,343,78,361,120,26,180,148,253,-7,113,189,133,-151,0,-2,-45,243,220,166,197,217,146,-65,190,14,-55,175
210065,-86,146,603,191,-34,343,94,354,115,5,189,144,260,-14,110,193,137,-119,15,-7,-45,253,253,180,210,221,149,-16,222,52,-43,195
210066,-101,137,603,171,-41,342,76,357,131,1,175,148,247,0,132,207,173,-134,21,11,-39,248,253,197,233,267,170,16,261,85,10,284
210067,-107,126,612,178,-44,332,86,348,130,22,193,154,234,9,136,216,167,-134,17,32,5,245,247,209,243,291,218,42,310,153,89,390
210068,-90,141,611,195,-38,362,100,352,124,23,208,147,247,-10,145,199,160,-152,-1,20,-2,248,235,205,231,264,198,46,307,144,60,369
210069,-119,129,587,210,-33,364,108,359,137,15,205,158,249,-29,124,201,172,-149,1,1,-26,258,249,197,220,244,164,57,302,131,17,270
210070,-132,122,586,207,-37,338,38,354,129,-7,159,159,257,-33,86,191,186,-137,-13,-16,-60,234,251,173,186,219,152,100,277,106,-5,260
210071,-97,144,623,209,-14,333,23,396,156,7,162,177,280,-23,74,170,189,-112,0,-17,-71,251,278,179,195,206,141,181,322,133,-22,171
210072,-101,122,628,227,4,340,40,422,157,11,167,201,299,-4,85,182,209,-89,22,-11,-69,272,279,188,210,220,143,171,308,126,21,236
210073,-107,73,619,230,-15,319,10,405,154,13,129,159,279,-1,84,153,170,-103,15,-6,-91,241,225,137,194,221,122,72,220,54,-14,304
210074,-132,50,561,216,-31,305,-6,362,141,11,125,118,273,0,83,136,128,-141,9,-8,-88,232,176,133,209,212,158,-54,208,103,61,406
210075,-102,105,562,214,-19,320,17,370,135,10,134,129,248,-22,78,148,121,-179,-16,-18,-101,217,157,104,186,207,123,-189,162,89,5,351
210076,-60,145,601,229,3,335,30,381,141,-10,138,134,240,-44,71,164,151,-198,-39,-23,-106,212,157,66,157,164,88,-211,91,-42,-105,252
210077,-71,133,584,251,-4,333,20,377,133,2,141,143,262,-23,63,161,154,-176,-23,-37,-132,205,188,87,148,144,54,-125,105,-63,-152,126
210078,-81,113,580,234,-14,337,43,394,146,-1,161,115,257,-30,76,189,140,-200,-21,-23,-122,246,106,58,135,134,68,-318,-19,-188,-254,153
210079,-81,113,601,219,-12,343,36,409,154,21,196,135,264,-25,80,213,153,-188,-23,-21,-100,251,149,76,152,147,70,-220,-8,-195,-243,140
210080,-80,143,631,218,-27,370,58,413,152,30,222,135,261,-21,89,211,144,-162,-17,-44,-109,232,181,95,147,143,40,-146,38,-163,-257,13
210081,-34,159,636,224,-18,368,106,412,157,36,219,137,262,-30,83,221,138,-159,-8,-44,-114,273,166,90,140,131,30,-180,42,-144,-292,-28
210082,-27,162,634,223,-9,373,100,391,152,52,213,135,249,-12,92,223,110,-175,-8,-30,-117,238,155,85,140,158,48,-186,47,-119,-234,46
210083,-77,143,588,203,-33,361,66,356,127,30,203,113,226,-33,86,192,72,-222,-49,-34,-123,217,129,61,126,155,45,-252,0,-160,-195,94
210084,-81,136,582,211,-8,373,63,341,130,43,224,93,244,-17,111,200,82,-211,-21,-8,-94,244,139,88,154,189,98,-204,53,-108,-142,143
210085,-86,103,595,173,-35,363,64,318,121,27,220,76,229,-35,99,186,53,-224,-31,-26,-115,215,111,71,126,172,88,-223,21,-137,-178,105
210086,-92,115,584,161,-38,371,75,325,139,25,218,72,242,-26,97,199,40,-212,-24,-24,-99,226,130,87,129,169,98,-183,40,-117,-157,147
210087,-100,86,590,180,-30,360,57,327,129,30,203,59,242,-29,94,191,29,-230,-32,-28,-112,203,109,57,130,167,78,-287,-27,-191,-225,110
210088,-142,52,550,162,-53,325,16,313,124,19,171,16,222,-41,79,162,-5,-261,-45,-49,-133,178,64,39,119,151,66,-332,-31,-199,-237,146
210089,-149,54,531,150,-60,324,18,327,135,17,168,25,239,-17,83,177,-23,-259,-42,-38,-147,179,85,65,118,142,60,-250,33,-143,-192,95
210090,-130,99,553,183,-27,325,35,331,131,31,178,57,256,-28,75,199,-20,-237,-42,-39,-162,192,108,65,117,145,59,-177,52,-143,-206,26
210091,-112,113,575,199,-38,325,36,350,146,22,176,53,260,-40,82,176,-6,-221,-37,-36,-139,168,125,103,147,180,72,-74,119,-81,-156,88
210092,-110,100,588,205,-40,324,14,379,141,9,166,55,279,-30,60,141,-1,-201,-33,-58,-154,145,129,109,144,168,61,-24,153,-30,-106,110
210093,-130,94,549,187,-42,332,31,352,145,5,168,47,291,-32,63,183,-11,-207,-26,-53,-118,216,96,90,143,180,97,-128,146,-27,-96,145
210094,-86,107,574,209,-29,322,46,394,138,23,171,45,288,-39,77,174,-1,-225,-12,-43,-111,223,56,94,141,155,99,-283,96,-55,-159,139
210095,-89,102,592,223,-16,313,26,389,153,22,165,58,275,-35,43,154,4,-228,-25,-57,-124,177,54,61,113,130,77,-312,35,-97,-182,126
210096,-118,89,582,211,-37,299,-4,369,155,4,125,16,253,-45,27,105,-31,-250,-42,-78,-177,142,54,52,97,118,49,-265,55,-96,-190,96
210097,-91,65,604,219,-43,290,-21,369,136,-17,111,7,248,-58,17,97,-67,-251,-50,-76,-196,131,18,47,96,112,24,-258,82,-71,-166,102
210098,-74,94,610,216,-31,298,-7,351,150,-24,124,6,233,-52,11,120,-70,-267,-54,-83,-193,103,-1,45,111,108,15,-308,67,-102,-192,109
210099,-65,102,605,224,-20,300,8,322,150,-15,145,-6,232,-54,13,118,-91,-266,-48,-92,-170,101,33,50,113,104,14,-243,98,-87,-175,76
210100,-78,87,596,225,-18,311,7,330,144,0,149,-7,228,-42,23,112,-78,-262,-40,-77,-162,119,26,50,96,107,23,-235,96,-82,-195,95
210101,-60,100,578,226,-10,311,4,347,145,-12,150,10,222,-50,21,117,-81,-270,-64,-86,-174,81,0,42,95,96,27,-252,66,-116,-230,86
210102,-56,117,580,233,-34,288,3,355,140,-10,134,6,222,-46,15,103,-63,-286,-72,-92,-200,86,-30,23,85,67,-13,-338,8,-187,-311,35
210103,-71,88,583,213,-48,279,-31,347,149,-13,133,-8,223,-41,17,81,-81,-301,-72,-89,-214,87,-63,1,76,63,-54,-405,-62,-266,-343,-2
210104,-90,89,580,214,-55,285,-48,347,142,-23,135,6,221,-25,20,69,-113,-265,-63,-81,-210,58,-40,10,97,73,-47,-355,-37,-219,-286,36
210105,-117,79,543,196,-51,269,-56,325,143,-19,123,0,234,-21,19,56,-122,-256,-45,-78,-206,38,-21,32,95,72,-25,-297,30,-139,-239,47
210106,-139,42,538,184,-59,251,-74,302,142,-20,84,-20,218,-39,8,39,-152,-265,-51,-81,-242,40,-38,33,113,67,-38,-336,6,-119,-224,82
210107,-132,34,546,207,-54,247,-89,327,157,8,76,0,236,-17,26,50,-95,-248,-18,-51,-230,50,-8,65,128,99,22,-324,52,-61,-133,234
210108,-118,18,550,213,-55,244,-92,320,151,10,77,-8,236,-11,19,49,-81,-251,-17,-64,-208,50,14,66,137,104,23,-322,35,-83,-146,173
210109,-139,23,541,194,-71,268,-87,299,147,11,87,-18,240,-12,27,61,-125,-283,-18,-65,-200,67,-15,39,120,109,7,-368,-20,-145,-180,159
210110,-147,-2,517,172,-64,266,-83,309,152,3,85,-26,247,-17,23,39,-99,-301,-19,-69,-218,77,-39,24,115,81,-5,-380,-43,-182,-241,145
210111,-141,-3,550,180,-54,261,-93,336,155,2,87,-19,272,2,19,37,-79,-272,5,-64,-226,59,-24,39,132,67,-36,-357,-54,-199,-267,122
210112,-146,9,554,182,-65,260,-94,314,157,-1,64,0,280,18,24,33,-106,-271,6,-66,-249,52,-34,50,137,44,-57,-327,-45,-193,-272,108
210113,-162,7,561,191,-67,251,-77,307,160,-8,63,0,289,1,0,7,-109,-261,0,-49,-256,49,-18,38,127,18,-109,-304,-49,-218,-325,-92
210114,-167,-22,536,166,-86,235,-84,305,136,-28,53,-6,273,0,-31,-41,-90,-277,14,-75,-294,19,-3,32,88,3,-167,-263,-46,-244,-389,-242
210115,-174,-33,520,161,-91,234,-124,309,151,-18,54,0,282,10,-10,-33,-81,-268,18,-69,-277,19,14,57,115,40,-117,-190,30,-144,-296,-102
210116,-203,-54,489,151,-96,208,-219,261,150,-27,0,-13,266,1,-11,-55,-117,-273,3,-79,-287,26,7,47,115,39,-83,-118,66,-86,-231,48
210117,-236,-67,473,143,-85,220,-186,240,152,-14,-1,-49,256,4,6,-48,-100,-267,-8,-69,-277,8,39,57,127,37,-95,-65,80,-82,-215,57
210118,-260,-90,458,141,-85,214,-184,250,148,-19,-4,-59,260,2,4,-51,-102,-274,-33,-62,-280,-3,14,38,105,18,-94,-132,18,-133,-256,37
210119,-239,-85,491,154,-108,206,-208,267,159,-5,-7,-36,257,-6,-10,-58,-103,-308,-21,-88,-298,-24,-21,-5,82,6,-133,-318,-101,-247,-333,-97
210120,-225,-84,505,162,-118,199,-189,302,153,-14,2,-26,232,-24,-22,-68,-102,-311,-37,-117,-325,-10,-62,-20,44,-28,-205,-454,-153,-320,-398,-288
210121,-199,-71,509,184,-107,207,-160,323,178,-11,13,-11,265,-5,-20,-30,-74,-279,-18,-91,-280,21,-35,19,85,19,-140,-404,-130,-270,-336,-156
210122,-213,-74,466,162,-95,196,-166,305,177,-14,12,-21,294,22,-3,-26,-102,-256,1,-59,-251,23,-6,32,107,54,-105,-372,-86,-225,-262,-38
210123,-248,-95,435,150,-86,183,-176,281,185,-17,2,-27,275,38,24,-12,-133,-242,21,-31,-228,31,24,76,133,89,-55,-292,-14,-146,-206,78
210124,-252,-117,453,165,-106,199,-203,280,183,-18,-7,-29,273,15,1,-28,-143,-261,-6,-50,-247,20,5,54,98,66,-76,-302,-34,-154,-253,6
210125,-243,-118,434,181,-88,204,-211,300,167,-7,-12,-46,268,-1,0,-44,-146,-267,-19,-73,-265,-1,-53,26,78,47,-114,-416,-96,-243,-315,-92
210126,-232,-101,417,185,-102,233,-176,290,170,-7,16,-46,256,3,15,-9,-156,-279,-19,-58,-247,23,-33,26,83,55,-57,-410,-74,-232,-262,0
210127,-197,-80,442,184,-98,228,-153,294,158,-8,17,-45,251,-25,9,-2,-162,-274,-37,-97,-243,54,-9,27,88,55,-69,-366,-31,-203,-294,-111
210128,-210,-89,453,183,-90,215,-143,298,150,-13,13,-42,248,-14,9,9,-171,-255,-20,-81,-226,67,-9,62,102,60,-39,-351,1,-155,-234,-103
210129,-190,-72,502,212,-62,221,-147,333,174,-7,37,4,288,14,16,26,-135,-197,15,-37,-202,69,64,94,139,98,-17,-239,96,-69,-163,-36
210130,-185,-61,533,215,-60,218,-138,357,179,-16,40,41,315,23,23,21,-86,-181,37,-46,-209,71,103,130,146,101,-25,-160,143,-106,-245,-37
210131,-206,-55,502,206,-75,203,-110,358,169,-29,41,22,316,17,21,32,-85,-166,45,-41,-200,62,109,160,171,102,-7,-140,152,-90,-200,16
210132,-207,-57,530,211,-80,199,-132,353,161,-23,34,11,320,3,4,40,-79,-168,38,-32,-195,63,115,147,169,99,9,-166,133,-73,-201,26
210133,-211,-52,517,210,-71,215,-137,335,168,-15,26,25,311,-10,9,55,-72,-177,32,-50,-207,64,95,118,132,97,1,-241,79,-123,-229,28
210134,-193,-47,524,221,-57,227,-130,360,171,-26,46,48,305,-6,1,48,-66,-170,4,-72,-226,48,46,83,106,50,-51,-369,-22,-239,-350,-170
210135,-178,-33,520,220,-59,240,-124,361,172,-26,49,53,293,0,-7,46,-64,-156,1,-71,-211,48,48,82,102,60,-40,-395,-15,-218,-321,-96
210136,-160,-25,533,225,-46,234,-100,363,185,-9,74,65,312,0,13,54,-96,-146,25,-62,-185,53,62,122,107,92,22,-330,50,-133,-216,46
210137,-177,-27,515,217,-42,251,-82,361,190,-7,77,84,323,-7,13,40,-100,-142,36,-53,-165,53,94,134,128,111,45,-288,84,-87,-153,147
210138,-201,-37,506,203,-58,247,-91,349,175,-18,65,48,309,-5,6,47,-100,-165,26,-62,-165,56,70,122,120,108,56,-342,67,-91,-127,233
210139,-218,-77,523,201,-87,210,-110,358,168,-24,50,39,302,-21,-1,36,-91,-161,21,-80,-189,61,67,104,121,75,28,-359,29,-116,-159,159
210140,-218,-37,534,207,-80,227,-76,349,193,-8,71,81,318,-13,12,59,-44,-145,21,-60,-188,78,120,118,123,69,-17,-248,69,-137,-265,-61
210141,-224,-69,513,195,-76,227,-84,360,183,-22,69,80,319,-7,11,69,7,-129,18,-58,-202,57,152,126,120,48,-30,-153,119,-138,-325,-192
