,Fp1,Fp2,F7,F3,Fz,F4,F8,FC5,FC1,FC2,FC6,T7,C3,Cz,C4,T8,TP9,CP5,CP1,CP2,CP6,TP10,P7,P3,Pz,P4,P8,PO9,O1,Oz,O2,PO10
74734,-183,42,355,278,-57,534,310,839,202,38,576,354,469,20,315,135,539,410,94,18,124,593,607,392,238,272,538,245,684,501,340,358
74735,-225,16,457,302,-53,483,289,728,184,38,476,344,459,0,300,125,580,403,104,5,146,648,650,403,232,286,567,291,696,505,348,334
74736,-189,34,536,277,-52,540,299,734,198,60,520,293,456,25,329,165,565,409,86,20,174,671,663,404,248,292,581,259,717,516,362,338
74737,-235,43,555,254,-56,615,244,663,166,58,562,243,422,17,329,175,586,369,63,4,159,661,647,376,219,271,548,154,656,475,323,375
74738,-224,92,565,236,-43,689,256,592,168,87,552,234,419,3,345,192,551,343,54,17,163,656,598,352,214,276,545,24,588,426,271,339
74739,-168,111,585,215,-44,695,274,578,156,93,630,223,382,-5,365,221,435,319,40,2,161,650,562,331,198,264,537,-23,583,413,268,279
74740,-151,39,602,248,-21,622,263,632,173,92,635,251,408,16,370,240,508,370,66,14,191,683,659,385,216,277,535,107,654,463,328,295
74741,-162,0,619,226,-27,596,232,629,199,83,674,297,433,29,384,207,516,399,80,23,197,692,710,416,228,311,557,102,705,504,370,376
74742,-197,-25,632,217,-37,551,224,589,186,55,587,278,422,16,355,156,546,405,102,8,171,666,756,426,231,309,588,70,729,533,382,379
74743,-195,-14,636,225,-62,556,231,569,162,59,546,257,416,20,355,180,526,415,93,14,171,679,756,432,220,318,613,80,737,546,405,406
74744,-232,-59,566,187,-77,591,264,565,163,66,561,224,411,29,356,168,526,399,85,17,153,684,764,425,247,313,600,141,748,550,390,437
74745,-249,-11,507,206,-79,568,308,600,171,70,561,235,418,41,356,146,493,420,91,32,144,718,777,436,258,306,574,168,752,538,398,412
74746,-208,-1,496,227,-62,516,326,638,175,53,567,259,410,36,376,186,481,424,93,27,174,766,763,429,265,310,580,204,739,535,418,407
74747,-167,-3,522,211,-56,520,365,634,156,61,632,238,399,8,391,237,471,395,84,47,200,717,747,409,259,309,605,193,752,570,434,435
74748,-166,6,535,196,-46,543,299,623,158,72,676,211,386,1,403,288,431,337,66,45,241,761,649,392,249,359,661,107,728,577,420,576
74749,-203,-8,532,210,-37,584,250,619,171,96,720,230,402,16,426,295,536,366,69,48,264,774,715,436,265,391,713,220,776,613,467,621
74750,-194,13,547,175,-47,570,277,628,158,70,664,255,416,15,405,256,602,387,74,54,246,764,738,442,260,370,689,183,740,593,430,562
74751,-206,32,553,185,-44,562,290,629,161,76,569,283,415,12,375,221,577,393,80,51,242,833,714,422,265,373,720,120,702,582,447,648
74752,-239,-64,544,162,-54,570,284,625,163,63,573,305,411,0,381,191,580,413,77,38,212,807,754,437,247,344,712,238,733,530,396,410
74753,-225,-24,576,170,-51,559,314,645,163,63,571,300,403,2,384,160,547,396,76,16,196,765,704,404,221,326,703,134,683,483,340,244
74754,-242,37,483,149,-82,569,299,634,152,57,552,242,392,4,379,210,608,376,37,16,203,718,697,398,206,330,693,23,660,484,339,276
74755,-237,95,418,143,-69,550,339,632,138,44,553,220,396,-10,385,265,600,394,45,13,204,646,738,408,205,300,653,241,682,471,317,365
74756,-262,92,400,178,-63,552,387,645,165,58,591,219,411,-2,387,292,552,375,51,15,206,633,718,391,204,272,613,221,673,461,308,387
74757,-280,81,367,226,-59,564,412,651,160,67,628,279,391,4,400,310,564,366,38,19,249,677,669,381,219,293,680,105,647,481,342,443
74758,-230,60,400,244,-47,516,342,706,158,50,614,380,422,4,402,285,494,381,54,9,260,794,636,367,205,328,711,141,634,504,378,595
74759,-264,-8,367,210,-38,580,285,716,166,69,640,409,399,-4,414,289,434,354,51,11,252,857,549,348,209,335,683,157,612,491,346,625
74760,-351,25,370,194,-39,660,377,674,144,96,681,307,362,-14,408,298,439,308,21,3,255,861,479,335,204,316,643,188,596,442,303,526
74761,-349,43,447,224,-32,658,388,677,160,110,678,195,360,-22,397,307,568,297,-2,-6,252,848,501,303,171,289,618,201,560,393,279,437
74762,-237,74,526,228,-27,632,375,735,173,91,689,183,389,-18,420,309,581,296,26,3,258,864,555,321,185,302,655,224,601,447,309,511
74763,-197,82,551,202,-49,603,380,696,150,74,695,197,391,-13,418,334,577,330,35,11,276,935,616,345,206,338,732,265,647,482,354,561
74764,-249,72,626,183,-46,599,357,575,157,83,683,233,376,-14,411,309,621,374,34,9,263,964,666,370,211,333,711,323,677,507,387,581
74765,-255,81,650,172,-38,617,361,572,147,100,725,267,374,-22,425,322,620,377,45,23,266,894,689,391,230,340,691,307,662,524,373,611
74766,-180,69,639,153,-64,603,412,594,145,93,654,256,379,-9,411,323,563,362,58,2,262,855,632,368,205,300,652,267,625,457,299,520
74767,-157,75,643,138,-47,586,437,515,153,88,622,222,381,0,407,344,564,344,50,12,279,858,606,362,216,330,705,292,635,459,323,539
74768,-199,62,586,124,-56,552,392,450,143,77,642,176,369,4,411,389,515,314,40,35,313,826,559,358,220,377,778,233,642,497,368,472
74769,-242,42,526,116,-60,578,349,502,141,79,652,174,385,12,433,374,533,345,70,62,344,858,627,390,240,387,878,172,687,531,387,452
74770,-250,-7,499,114,-69,641,338,537,145,84,687,192,389,16,445,284,571,369,72,65,316,873,715,405,263,386,821,249,712,533,370,483
74771,-251,-59,517,130,-90,643,331,551,141,84,648,184,362,17,433,264,564,345,63,38,263,763,687,383,245,338,696,211,673,490,336,491
74772,-228,19,504,160,-60,604,368,562,150,78,643,205,373,23,415,313,548,346,60,24,300,727,704,379,255,337,705,154,640,478,332,533
74773,-237,11,471,160,-57,613,328,569,157,111,744,210,394,22,447,402,541,370,56,56,347,820,700,385,250,379,767,260,651,485,342,504
74774,-270,-27,460,152,-78,630,248,553,148,103,712,152,375,5,443,378,486,346,50,39,322,817,630,364,229,359,769,279,643,456,318,457
74775,-247,1,439,171,-66,609,270,591,168,83,699,157,384,7,431,306,498,345,65,41,291,835,577,336,226,351,757,176,594,431,291,438
74776,-243,18,401,196,-70,575,312,584,185,70,687,145,383,5,432,293,510,341,62,43,289,871,554,332,254,370,740,160,592,438,290,479
74777,-276,8,465,223,-59,526,301,619,181,61,613,150,387,12,412,272,523,339,79,40,243,769,567,355,257,321,626,177,594,444,273,410
74778,-276,41,456,227,-69,496,318,647,179,63,601,209,393,21,412,279,550,367,94,39,240,735,611,380,283,336,605,187,627,453,306,398
74779,-269,49,425,193,-86,535,274,648,167,62,632,177,396,3,425,278,456,354,92,54,246,792,596,367,277,352,639,56,610,445,294,487
74780,-282,17,401,196,-67,563,291,665,175,84,643,190,414,34,433,301,480,404,107,67,267,823,648,405,282,367,662,27,641,482,316,542
74781,-354,-60,391,219,-66,595,349,706,186,82,614,220,434,32,432,302,558,438,117,67,272,812,744,441,297,367,678,92,696,494,336,534
74782,-386,-141,366,206,-89,570,303,736,173,71,622,226,440,29,435,309,610,428,115,50,270,763,741,448,281,354,651,91,714,481,334,435
74783,-336,-204,408,214,-90,632,252,707,182,79,636,268,459,20,433,280,625,455,116,67,250,764,800,479,287,349,639,91,724,500,356,395
74784,-304,-108,452,223,-74,608,291,685,174,72,642,293,451,35,418,250,545,419,102,52,240,741,715,417,271,323,611,-47,623,445,287,367
74785,-297,-21,440,195,-84,534,308,665,179,65,637,259,445,38,405,234,525,407,96,36,226,722,693,390,269,322,602,-111,597,414,276,371
74786,-300,-49,465,206,-64,542,312,651,190,87,617,223,470,37,413,256,551,426,126,42,233,698,728,428,274,339,636,-55,657,472,329,420
74787,-282,-44,524,165,-68,533,287,649,165,71,591,192,423,33,411,283,553,406,94,43,257,670,667,408,232,337,631,31,626,433,280,384
74788,-269,-23,543,147,-63,533,331,648,181,56,611,191,427,31,410,298,512,383,95,22,264,724,626,373,237,320,633,63,585,380,237,388
74789,-250,-10,497,147,-77,491,316,616,173,45,578,190,420,18,416,263,477,371,105,17,240,756,610,383,254,311,634,134,607,415,261,434
74790,-239,-18,484,183,-78,482,309,653,173,54,568,233,447,25,423,237,582,391,102,34,232,761,628,415,253,329,649,210,640,454,297,476
74791,-287,-17,475,194,-73,494,335,724,196,50,573,227,458,34,397,255,579,376,95,11,250,813,608,409,240,323,670,96,595,426,267,434
74792,-305,2,489,163,-86,479,345,693,171,53,582,228,440,28,401,297,529,382,85,12,267,783,630,401,239,312,726,176,591,393,243,300
74793,-266,-48,495,122,-83,498,339,593,161,62,590,246,430,22,395,282,485,369,74,28,250,815,610,395,232,324,751,179,612,415,264,411
74794,-261,-29,542,174,-77,541,351,604,186,71,589,300,434,30,397,260,466,379,78,10,223,756,579,390,238,310,639,63,597,419,284,376
74795,-285,-16,540,170,-94,562,321,591,171,76,605,282,430,18,396,254,473,376,75,17,234,733,545,382,237,319,634,108,585,456,322,281
74796,-283,-47,556,147,-97,523,263,559,171,74,609,192,407,27,410,259,503,339,62,18,252,773,529,369,247,349,757,178,592,462,306,270
74797,-294,-81,522,149,-95,558,268,556,161,88,683,205,400,16,428,261,530,317,47,10,266,767,508,350,218,349,750,134,587,439,287,477
74798,-312,-86,507,161,-83,591,351,572,161,95,676,228,377,10,402,214,542,320,57,14,233,780,519,351,208,293,606,145,593,418,267,492
74799,-306,-61,512,170,-85,567,385,605,171,79,628,237,388,22,400,249,544,334,61,15,228,696,543,354,205,290,540,200,601,399,231,370
74800,-283,-20,522,179,-83,544,384,655,176,86,656,245,420,33,420,283,538,342,55,26,247,697,554,358,221,277,545,141,576,383,240,355
74801,-317,-31,481,184,-82,505,327,670,182,68,597,247,436,31,408,265,575,344,71,2,244,713,585,365,228,314,559,144,609,397,275,406
74802,-345,-70,439,174,-100,507,325,645,185,88,579,271,426,12,403,285,561,376,88,16,262,768,628,385,230,338,579,218,646,422,267,415
74803,-315,-53,337,162,-104,513,335,658,168,66,582,277,413,21,405,262,537,383,77,17,240,663,650,393,233,331,583,246,652,443,298,438
74804,-347,-153,324,187,-106,519,340,682,174,58,571,247,426,41,415,302,551,374,79,21,259,541,662,409,244,344,599,249,656,460,318,463
74805,-381,-223,400,203,-115,513,336,697,178,51,565,210,423,25,401,341,552,372,87,12,304,585,667,410,241,356,665,199,682,450,329,405
74806,-414,-197,437,180,-114,571,296,693,177,49,576,219,434,27,420,311,561,405,87,35,311,716,695,423,254,357,731,119,699,511,366,335
74807,-357,-147,502,186,-104,611,325,656,162,65,596,235,444,21,424,297,552,407,89,43,311,799,664,406,262,370,778,57,648,465,325,336
74808,-336,-122,529,168,-84,544,362,643,149,73,625,223,416,14,406,330,581,368,69,17,269,745,634,367,232,323,639,140,593,382,206,216
74809,-326,-99,495,148,-90,528,350,655,146,57,616,203,410,-3,390,318,523,354,61,-8,236,761,574,343,206,274,519,119,541,356,183,306
74810,-332,-67,391,147,-92,562,340,628,153,77,657,230,427,27,428,336,469,378,76,23,273,807,546,360,230,330,576,71,585,393,255,425
74811,-345,-28,437,141,-80,580,334,582,151,78,689,240,412,21,443,316,557,380,79,43,283,768,578,377,258,358,647,27,599,408,289,454
74812,-300,-64,477,148,-80,542,311,630,156,86,662,231,409,25,426,309,564,392,64,47,277,791,624,379,250,358,611,-24,604,417,249,442
74813,-311,-84,458,150,-81,475,254,640,162,89,628,247,421,38,452,352,574,403,99,65,299,796,673,420,273,371,629,34,665,479,314,449
74814,-405,-99,427,173,-85,539,249,649,156,104,707,273,423,20,473,316,633,405,97,66,324,718,662,416,264,375,671,17,631,460,302,452
74815,-386,-67,467,178,-98,552,251,657,140,100,727,269,431,26,475,336,658,411,81,63,363,733,664,401,262,382,772,-26,618,453,296,367
74816,-323,-71,469,170,-91,533,225,708,133,71,704,256,404,23,461,337,544,397,64,54,336,746,643,370,229,364,774,44,607,419,272,255
74817,-336,-264,469,139,-91,598,155,712,117,91,721,225,390,20,453,282,518,371,58,28,279,725,626,363,228,331,622,81,591,417,278,397
74818,-314,-257,452,112,-88,672,197,604,123,113,744,242,397,29,463,233,492,366,71,29,231,690,605,366,236,328,514,98,605,445,299,438
74819,-299,-201,470,86,-99,599,237,517,124,101,669,251,400,25,440,244,495,358,75,52,230,678,641,396,253,348,600,129,651,477,324,422
74820,-289,-56,482,127,-81,528,306,577,148,90,606,278,400,32,416,264,527,396,72,41,246,759,680,411,247,325,617,171,634,478,313,442
74821,-266,37,460,153,-81,483,376,604,159,73,574,287,418,19,408,268,545,396,82,35,253,733,649,418,260,327,602,229,633,457,310,456
74822,-256,18,467,119,-80,492,381,591,150,60,569,234,411,14,419,273,503,370,63,38,240,728,584,385,239,320,605,51,575,426,269,406
74823,-287,-54,421,104,-76,483,361,591,167,51,565,221,405,31,421,294,514,367,77,31,256,774,583,400,244,335,687,90,603,454,300,332
74824,-338,-130,386,166,-72,484,353,608,176,49,595,198,416,6,392,230,510,347,66,18,229,723,521,379,229,298,614,117,601,425,273,337
74825,-394,-136,401,171,-79,460,353,661,164,49,552,197,420,-5,363,135,517,332,53,-17,178,609,530,346,211,263,503,111,599,424,273,357
74826,-366,-146,429,206,-90,513,299,671,174,37,527,210,409,1,375,153,502,329,54,0,183,668,534,345,207,270,507,72,570,422,292,402
74827,-307,-118,417,209,-69,562,249,673,170,50,549,242,437,-2,373,194,549,361,46,10,206,689,557,357,221,300,526,124,589,426,295,430
74828,-260,-89,508,199,-88,513,263,651,171,41,545,249,428,0,374,225,632,376,51,13,216,679,600,363,206,308,549,274,638,455,316,458
74829,-251,-55,528,185,-84,523,318,630,146,50,586,223,405,-4,381,247,523,336,36,-4,215,687,535,339,195,291,572,191,573,421,272,417
74830,-277,-15,474,169,-65,497,327,592,146,63,624,183,382,1,405,300,480,313,25,0,245,706,458,324,188,297,621,98,538,376,240,253
74831,-303,-40,502,141,-79,510,307,580,157,53,610,187,387,-3,407,278,528,339,26,4,249,732,537,322,199,312,706,124,572,376,218,306
74832,-260,-54,542,151,-55,540,290,618,149,64,586,237,406,4,404,270,526,369,37,1,231,813,635,367,207,303,703,208,606,425,249,475
74833,-295,-45,465,155,-60,584,346,624,144,80,622,247,380,-7,398,290,509,353,29,0,248,837,573,340,182,293,649,67,572,392,226,537
74834,-376,-24,439,161,-81,579,382,622,129,71,620,225,363,-33,410,273,553,333,8,-8,230,703,559,309,163,276,604,33,552,351,212,363
74835,-351,-36,462,168,-61,603,276,641,143,98,643,201,382,-17,420,309,587,349,3,-7,236,650,584,307,182,285,588,14,566,377,243,356
74836,-338,-96,471,181,-54,611,207,657,140,97,661,207,401,-22,406,308,591,348,17,-4,230,708,594,308,174,264,567,-133,526,342,185,303
74837,-361,-176,435,172,-67,623,244,587,117,95,708,190,370,-30,382,215,447,311,11,-32,161,654,589,291,161,217,500,-165,524,315,160,221
74838,-333,-114,470,188,-43,616,315,571,153,101,696,246,366,-18,378,220,478,339,9,-15,164,604,641,309,174,220,452,-88,572,343,204,304
74839,-308,-76,462,200,-44,605,313,610,184,97,649,312,396,-6,389,261,487,340,12,-27,176,604,625,319,187,225,431,-22,554,342,195,370
74840,-299,-107,421,194,-45,606,330,677,169,89,646,352,418,1,391,290,548,397,49,-1,209,618,674,366,207,231,492,64,574,365,197,350
74841,-273,-113,437,142,-48,584,348,683,148,72,644,282,385,-17,391,278,477,342,32,-6,209,706,605,322,177,232,561,-31,517,313,147,242
74842,-276,-122,464,128,-59,589,370,654,115,70,638,219,351,-32,392,293,454,283,-3,-28,228,689,460,271,155,240,603,-15,468,299,149,183
74843,-272,-239,473,128,-84,581,400,571,114,67,623,187,357,-37,387,296,491,265,-17,-33,225,700,451,271,166,253,588,-11,504,345,191,325
74844,-253,-153,436,128,-73,590,416,539,120,60,623,148,336,-23,373,204,451,257,5,-46,181,668,455,272,169,221,490,56,514,343,199,357
74845,-277,-33,366,147,-62,572,414,591,137,65,594,148,338,-13,374,235,407,257,21,-26,197,702,423,279,186,235,505,116,526,353,205,394
74846,-280,24,392,151,-90,527,411,594,144,58,585,182,358,-16,373,256,465,292,14,-27,212,723,482,310,173,243,513,211,577,391,240,408
74847,-244,62,516,179,-69,534,412,602,121,52,578,170,356,-18,354,275,472,276,22,-31,199,696,461,310,162,232,490,153,573,374,237,375
74848,-238,71,503,175,-47,592,417,595,133,84,638,148,360,-12,379,311,445,283,33,-21,243,659,465,305,174,237,501,55,561,369,223,405
74849,-317,0,390,159,-55,587,345,591,132,73,669,173,350,-26,375,285,459,280,9,-35,212,625,470,293,141,210,493,-31,506,318,175,313
74850,-345,-35,449,173,-49,553,331,578,144,67,676,179,377,-8,374,300,514,318,15,-28,203,683,581,326,162,223,525,-13,523,307,144,164
74851,-317,9,421,109,-48,585,339,590,140,85,674,188,400,-3,392,365,509,340,50,-6,253,780,617,357,189,259,619,-97,552,325,192,275
74852,-358,16,429,183,-50,631,353,633,145,85,702,185,409,-16,399,305,485,333,50,-15,248,772,559,337,175,259,621,-240,525,315,184,349
74853,-332,-32,490,229,-72,683,314,633,149,81,705,189,397,-24,404,273,460,332,51,-34,227,676,565,335,198,274,608,-165,531,335,174,331
74854,-267,-68,527,224,-74,683,303,632,162,85,698,249,418,6,403,273,434,353,56,-17,216,619,584,353,192,266,615,-82,543,350,213,298
74855,-241,-42,492,183,-81,645,377,639,154,68,686,232,393,0,391,282,504,361,54,-14,218,605,614,357,186,262,582,-42,537,336,205,282
74856,-245,19,553,155,-68,594,457,587,141,60,626,200,392,10,394,281,497,333,63,1,226,676,612,344,191,266,531,-75,519,340,205,356
74857,-248,21,569,153,-78,564,386,537,135,61,631,205,382,-10,371,226,475,333,53,4,201,788,572,338,192,274,508,25,552,365,253,441
74858,-268,-9,532,151,-79,546,363,537,132,58,630,190,363,-12,390,224,500,341,59,3,199,782,578,350,206,302,514,69,565,403,257,422
74859,-286,31,474,188,-72,521,385,581,148,84,608,174,383,13,421,255,474,330,58,28,227,742,532,351,215,314,555,88,560,412,229,427
74860,-272,-80,432,167,-76,644,356,608,142,110,672,151,379,33,437,250,450,289,52,33,240,737,456,312,228,299,565,137,538,374,222,435
74861,-251,-166,438,117,-99,678,385,575,119,110,721,153,346,0,445,303,417,273,47,32,273,714,456,313,217,299,626,136,531,378,217,474
74862,-270,-133,466,156,-90,603,393,579,137,109,740,194,357,14,444,356,447,303,55,63,302,663,453,327,221,330,640,171,542,386,225,444
74863,-314,-115,467,177,-72,678,399,575,137,110,774,196,332,21,451,338,437,283,34,28,275,629,402,285,199,282,551,151,504,327,176,332
74864,-385,-131,434,170,-76,611,400,617,146,65,691,236,376,-1,432,338,466,284,23,10,249,669,398,295,173,281,571,114,482,313,156,80
74865,-377,-48,413,169,-62,512,396,697,161,59,615,261,404,18,424,347,501,331,47,26,283,781,478,329,189,311,743,60,522,331,179,176
74866,-291,16,419,187,-76,561,468,739,148,64,616,208,382,-12,407,237,454,330,17,10,218,685,528,309,152,236,578,-23,484,293,148,221
74867,-253,19,452,176,-72,577,487,665,164,78,644,181,378,0,394,249,455,314,23,-1,206,643,531,301,169,239,489,-38,463,284,144,304
74868,-262,38,497,154,-57,540,390,572,157,79,640,201,374,1,391,273,442,329,32,15,219,621,522,302,177,241,506,-80,470,298,151,399
74869,-292,22,481,163,-61,518,409,531,153,67,635,199,363,-19,371,221,439,326,30,-12,177,618,540,296,168,218,444,-7,511,296,135,415
74870,-290,-22,454,182,-67,529,374,564,158,52,665,183,370,-27,372,288,506,315,30,-31,176,673,505,288,155,209,443,130,532,302,152,382
74871,-264,-12,470,135,-84,549,319,563,138,47,685,161,336,-32,370,307,496,266,-25,-48,173,652,446,257,109,184,470,19,470,275,122,321
74872,-279,-21,422,97,-74,573,408,541,138,58,698,123,320,-38,370,295,417,245,-29,-38,163,549,360,236,115,181,425,-77,419,245,102,269
74873,-283,-67,375,119,-81,597,462,561,124,71,715,113,331,-24,381,262,413,264,-6,-11,171,586,393,246,151,213,444,42,469,293,141,350
74874,-319,-96,343,138,-91,539,354,598,159,72,667,174,360,-13,387,273,422,298,26,-17,197,681,464,276,154,228,491,160,523,326,181,378
74875,-310,-71,423,146,-82,515,342,633,168,61,610,206,378,-22,380,280,376,326,19,-15,195,666,488,276,137,226,502,-33,491,315,163,361
74876,-346,-64,432,144,-96,540,326,622,166,43,592,184,369,-44,341,280,438,305,-8,-38,179,635,466,256,139,237,509,-143,463,284,144,361
74877,-405,-178,428,165,-86,604,325,568,146,39,617,144,335,-44,335,224,486,262,-30,-47,174,625,422,235,120,215,557,-103,461,289,131,305
74878,-410,-192,418,149,-90,592,306,527,138,42,609,103,323,-50,339,233,431,231,-51,-73,166,597,408,198,91,191,567,-69,433,260,101,183
74879,-363,-124,431,156,-70,536,276,501,169,40,613,113,326,-26,344,258,415,223,-32,-79,189,717,413,218,102,211,569,-55,425,252,95,189
74880,-316,-22,483,168,-55,501,264,523,167,33,582,197,336,-15,328,214,413,246,-31,-70,167,720,466,254,106,208,553,0,486,292,139,316
74881,-292,7,450,168,-78,496,289,576,164,25,584,249,358,-26,318,186,403,283,-23,-58,153,694,492,291,128,204,506,12,510,312,168,370
74882,-307,-54,382,134,-65,465,305,603,151,17,573,258,354,-23,316,169,356,283,-7,-69,140,733,463,306,150,214,528,32,532,349,218,447
74883,-409,-78,321,158,-66,499,357,653,160,43,635,217,376,-16,335,136,396,287,18,-58,161,729,490,318,165,220,529,23,569,402,270,451
