,Fp1,Fp2,F7,F3,Fz,F4,F8,FC5,FC1,FC2,FC6,T7,C3,Cz,C4,T8,TP9,CP5,CP1,CP2,CP6,TP10,P7,P3,Pz,P4,P8,PO9,O1,Oz,O2,PO10
3055,-248,64,156,49,-219,385,-332,270,158,-22,78,-15,36,-131,97,116,-442,-269,-85,-8,-60,156,177,-95,54,-103,525,-197,125,-257,-193,220
3056,-240,70,37,86,-210,455,-281,271,164,16,129,27,51,-123,151,181,-376,-203,-81,22,43,151,266,-37,99,-47,565,-26,222,-181,-166,177
3057,-231,63,38,17,-205,453,-245,304,158,28,212,314,54,-93,177,219,-346,-173,-69,43,76,259,294,-28,106,-27,547,-85,212,-173,-162,159
3058,-234,60,120,4,-197,457,-290,279,140,27,281,397,44,-108,166,-187,-475,-170,-72,16,39,184,251,-47,113,-37,532,-241,149,-182,-133,106
3059,-255,69,149,55,-208,436,-263,264,145,20,239,361,35,-103,178,-281,-430,-159,-71,38,56,237,318,4,153,-5,558,-121,266,-108,-123,124
3060,-270,59,185,78,-203,402,-164,280,163,10,84,342,43,-94,165,378,-392,-154,-59,37,72,248,314,2,137,-6,552,-95,236,-159,-175,78
3061,-215,88,199,30,-203,434,-189,228,141,12,172,186,41,-122,114,418,-397,-203,-75,3,12,236,219,-52,117,-30,541,-259,118,-248,-189,146
3062,-216,61,193,25,-204,437,-190,174,125,-12,154,105,46,-105,144,347,-469,-212,-48,28,62,163,210,-17,145,-11,612,-190,179,-190,-122,194
3063,-215,27,161,-58,-210,445,-198,147,135,7,175,169,34,-121,150,272,-513,-177,-43,54,68,145,245,24,175,19,622,-27,280,-124,-71,239
3064,-223,57,117,-82,-226,448,-169,126,120,3,194,156,29,-112,155,234,-511,-133,-23,59,62,241,311,61,175,18,588,167,377,-26,-19,231
3065,-190,72,248,62,-194,443,-179,235,135,4,219,277,62,-96,151,247,-514,-172,-41,49,41,209,168,11,137,-21,526,-124,252,-140,-135,74
3066,-242,103,201,95,-201,435,-216,279,151,23,189,229,49,-106,143,260,-538,-223,-57,27,37,199,16,-46,112,-47,518,-502,77,-257,-223,46
3067,-244,121,169,71,-201,438,-184,279,163,13,188,40,64,-99,155,66,-464,-219,-31,25,45,235,134,-39,128,-18,577,-385,78,-245,-166,167
3068,-276,46,146,49,-228,427,-215,283,159,-5,193,51,66,-111,159,-31,-483,-212,-54,0,0,164,116,-52,92,-38,552,-405,23,-316,-227,138
3069,-279,30,159,47,-243,423,-256,304,165,-14,174,70,71,-101,140,124,-528,-170,-47,2,-14,206,101,-55,85,-77,527,-353,47,-318,-217,132
3070,-308,32,125,51,-238,423,-244,333,168,-7,188,101,89,-98,127,3,-593,-166,-35,-6,-24,175,130,-45,66,-89,523,-298,61,-286,-205,162
3071,-304,5,102,20,-234,423,-238,274,161,7,195,204,101,-85,113,9,-547,-164,-24,-21,-38,68,188,-43,59,-95,525,-248,82,-275,-225,131
3072,-269,19,122,-38,-229,425,-258,279,148,5,191,22,86,-100,118,250,-525,-145,-24,-16,-42,44,147,-53,63,-96,532,-385,46,-298,-234,133
3073,-290,49,152,-7,-226,412,-201,317,159,-5,193,59,83,-93,104,407,-569,-133,-32,-19,-31,148,186,-36,75,-93,566,-354,82,-259,-168,257
3074,-322,75,136,67,-235,449,-180,325,167,2,197,262,81,-91,106,250,-426,-96,-25,-15,-54,240,271,-10,97,-76,569,-218,116,-255,-160,257
3075,-299,99,168,54,-215,462,-125,328,160,19,265,-321,82,-98,128,53,-342,-119,-38,-16,-54,234,280,-52,84,-84,528,-224,74,-332,-255,123
3076,-252,50,250,55,-242,389,-215,401,159,19,199,-524,140,-84,123,65,-359,-60,-24,-15,-51,205,286,-30,83,-87,489,-155,127,-298,-242,5
3077,-231,2,261,37,-247,394,-288,420,167,-1,168,404,151,-96,92,175,-452,14,-28,-15,-88,98,323,-8,66,-86,463,-146,145,-271,-260,-42
3078,-164,43,279,13,-225,419,-194,297,164,2,197,944,112,-92,91,242,-288,18,-34,6,-83,131,409,8,86,-90,495,-98,219,-180,-187,91
3079,-141,44,253,-26,-229,416,-217,145,141,5,133,694,66,-91,107,177,-195,-27,-26,-5,-57,145,439,-14,87,-105,529,-91,167,-240,-236,164
3080,-187,39,250,27,-223,407,-215,215,133,-2,129,354,101,-96,126,-32,-231,-44,-8,-1,-50,124,384,-27,91,-99,471,-124,155,-248,-246,86
3081,-192,50,287,105,-200,409,-201,325,175,15,162,469,143,-60,155,-181,-189,0,6,28,-32,183,439,0,117,-52,521,-33,217,-215,-166,134
3082,-185,38,245,90,-224,408,-238,314,159,7,217,649,121,-67,153,-142,-235,-6,-11,15,-30,184,729,-2,104,-69,542,-24,225,-202,-172,130
3083,-231,60,241,45,-220,415,-251,269,150,11,192,618,93,-68,170,39,-206,-37,-29,25,5,120,603,-10,117,-42,536,-107,213,-185,-154,170
3084,-217,-22,245,23,-223,439,-261,298,156,-15,153,550,77,-72,140,288,-239,-43,-43,44,-12,75,245,-45,97,-29,534,-49,210,-189,-157,187
3085,-175,-71,274,81,-229,430,-274,428,167,-14,112,587,132,-83,123,339,-314,2,-54,16,-21,95,260,-61,87,-44,533,-26,199,-224,-225,132
3086,-175,-28,289,59,-249,345,-263,453,157,-10,133,510,134,-86,127,276,-313,8,-63,13,-6,163,338,-55,74,-41,517,-39,163,-221,-225,153
3087,-131,14,312,58,-226,315,-248,410,158,3,165,496,127,-67,147,291,-213,4,-37,39,30,195,446,-52,85,-24,580,-26,212,-179,-155,237
3088,-180,54,300,45,-232,380,-278,404,157,-7,182,388,105,-104,137,221,-253,-12,-77,1,0,-4,436,-97,66,-59,558,-70,193,-191,-170,201
3089,-153,129,253,83,-229,398,-279,413,150,3,209,357,106,-118,151,214,-285,-61,-99,-12,-4,223,344,-123,53,-72,517,-151,132,-259,-229,127
3090,-132,123,267,107,-231,404,-308,447,159,-11,191,413,103,-129,148,236,-323,-93,-110,-3,51,226,319,-126,24,-80,543,-131,120,-278,-245,122
3091,-98,130,380,186,-205,363,-170,513,181,-1,-2,478,129,-108,121,238,-278,-37,-69,2,55,260,424,-76,52,-56,586,-68,169,-178,-141,223
3092,-88,119,391,198,-202,407,-204,569,176,9,108,481,122,-106,119,270,-247,-24,-79,-14,26,281,398,-109,36,-75,595,-75,147,-199,-165,271
3093,-137,97,389,121,-205,409,-251,558,178,-1,102,360,107,-126,111,223,-310,-64,-106,-39,2,252,304,-143,17,-97,571,-92,105,-261,-231,204
3094,-156,102,274,27,-224,430,-241,470,157,3,94,297,119,-125,118,164,-265,-81,-109,-29,11,305,293,-152,17,-89,555,-89,93,-292,-276,132
3095,-108,157,270,41,-197,469,-167,416,173,19,176,257,121,-120,140,190,-229,-70,-109,-37,4,181,270,-152,12,-119,495,-116,60,-324,-312,-14
3096,-102,180,255,112,-188,461,-137,412,171,16,201,166,137,-123,135,199,-256,-69,-97,-37,-33,133,268,-146,9,-134,475,-161,50,-326,-270,35
3097,-106,145,263,129,-212,436,-226,377,160,-2,153,437,139,-116,127,134,-313,-73,-76,-19,-24,159,290,-137,15,-123,513,-204,62,-299,-219,95
3098,-125,159,255,114,-222,432,-217,327,137,9,198,204,105,-100,157,69,-305,-112,-70,-11,13,158,289,-104,41,-104,550,-147,101,-262,-198,147
3099,-194,114,263,82,-255,422,-217,310,161,3,243,-28,129,-110,169,14,-255,-125,-56,-5,36,122,255,-86,73,-66,565,-73,155,-216,-172,178
3100,-285,101,260,139,-235,428,-242,351,184,16,235,210,151,-93,179,-204,-325,-112,-47,12,29,202,287,-93,91,-73,561,-103,152,-206,-195,174
3101,-268,127,240,128,-227,446,-240,324,178,20,257,591,137,-83,167,-110,-448,-61,-55,9,-1,179,340,-67,100,-107,503,-133,156,-230,-224,81
3102,-254,81,229,55,-250,359,-233,239,160,18,228,570,72,-80,169,-2,-369,-142,-55,0,-5,140,314,-84,97,-93,509,-128,145,-219,-225,130
3103,-192,79,259,62,-241,368,-242,213,166,23,181,501,71,-91,159,149,-278,-153,-36,8,-9,154,181,-92,96,-79,550,-194,76,-275,-222,178
3104,-173,80,249,67,-252,393,-270,247,162,22,167,450,99,-80,148,225,-348,-105,-28,36,-14,164,285,-35,127,-46,587,-19,220,-153,-116,242
3105,-248,59,233,33,-248,409,-236,240,153,8,183,372,79,-74,123,370,-423,-113,-27,36,-36,228,361,2,135,-35,559,195,320,-109,-107,213
3106,-232,67,246,43,-228,430,-232,242,160,12,182,279,71,-68,136,422,-322,-138,-38,20,-34,193,329,-20,136,-70,528,86,256,-174,-171,168
3107,-168,54,252,37,-242,426,-271,279,139,2,161,340,75,-69,128,402,-343,-143,-31,19,-31,245,248,-40,110,-76,515,-211,149,-224,-195,113
3108,-149,9,240,32,-251,421,-306,290,139,12,174,276,90,-78,134,324,-305,-149,-41,13,-17,170,251,-29,108,-50,543,-321,108,-216,-168,165
3109,-141,32,204,43,-225,421,-317,286,166,17,162,301,92,-69,148,113,-361,-136,-30,27,-15,11,300,-1,126,-40,568,-250,143,-197,-180,192
3110,-220,91,132,45,-221,452,-316,269,159,28,177,232,73,-68,171,240,-391,-165,-29,15,19,104,259,-28,129,-40,605,-273,137,-249,-215,175
3111,-304,64,123,46,-229,424,-338,320,147,26,145,216,66,-66,154,265,-315,-158,-36,27,0,142,303,-2,139,-26,537,-145,236,-170,-180,134
3112,-306,59,143,51,-214,406,-337,300,161,0,130,239,64,-75,116,136,-304,-157,-41,23,-70,134,290,6,140,-48,422,-198,196,-215,-184,44
3113,-241,47,142,41,-220,404,-366,296,175,26,135,137,51,-96,117,107,-386,-197,-51,15,-71,222,266,-20,118,-74,395,-292,112,-248,-217,116
3114,-279,7,132,30,-249,367,-387,332,166,3,152,69,73,-96,109,-30,-443,-191,-64,-6,-73,75,295,-4,125,-89,411,-170,181,-191,-175,107
3115,-302,-2,120,21,-275,357,-404,341,146,-12,115,-76,98,-92,98,-153,-482,-170,-54,2,-77,37,333,18,153,-59,445,-70,260,-116,-109,189
3116,-282,23,131,-11,-269,372,-384,327,151,-7,85,52,116,-83,131,-257,-344,-111,-30,20,-30,-30,356,33,146,-84,406,-1,247,-186,-233,50
3117,-270,33,152,-1,-261,391,-413,319,157,-25,82,-118,109,-82,122,-420,-304,-105,-26,0,-47,27,306,36,143,-93,399,-28,232,-225,-301,-31
3118,-245,25,67,15,-260,439,-364,280,168,-8,130,119,110,-87,112,-40,-389,-99,-34,6,-44,58,238,1,129,-67,479,-305,160,-235,-234,121
3119,-221,0,126,53,-242,427,-354,334,191,10,141,244,144,-73,138,339,-378,-55,-24,12,-2,26,486,16,128,-47,503,-282,172,-227,-211,100
3120,-255,-91,148,73,-251,376,-418,373,176,-1,68,-158,136,-79,107,181,-401,-108,-40,3,-19,41,471,5,109,-93,488,-227,188,-241,-276,51
3121,-258,-45,149,-4,-256,355,-425,415,169,-25,80,-259,144,-97,35,-84,-522,-93,-64,-33,-113,43,36,-71,32,-169,349,-211,57,-377,-373,-83
3122,-322,-2,98,-14,-262,339,-429,327,154,-44,36,101,89,-111,35,-18,-490,-186,-92,-51,-167,104,6,-123,4,-182,331,-317,-22,-425,-373,-7
3123,-352,-7,86,35,-260,325,-444,212,140,-47,24,581,34,-102,49,138,-433,-238,-93,-53,-145,-30,126,-139,21,-172,356,-365,-11,-405,-386,-21
3124,-393,-73,124,53,-262,296,-489,124,128,-32,41,636,23,-86,49,119,-478,-189,-96,-55,-134,-66,179,-123,7,-165,372,-291,16,-385,-345,12
3125,-382,-72,172,60,-251,332,-490,126,142,-21,62,575,45,-72,53,92,-438,-165,-66,-33,-129,161,178,-87,23,-156,377,-280,30,-350,-301,41
3126,-347,-18,187,25,-234,380,-392,140,142,-9,117,421,41,-84,75,65,-374,-175,-72,-35,-115,161,134,-93,32,-157,351,-291,21,-364,-338,-24
3127,-340,-11,96,-47,-240,301,-426,122,139,-8,71,360,50,-83,65,92,-464,-184,-91,-32,-122,112,82,-107,29,-171,380,-282,36,-340,-302,-11
3128,-350,-19,78,-22,-235,261,-448,111,159,4,84,343,46,-84,58,81,-558,-204,-87,-31,-139,-76,43,-131,34,-184,376,-317,30,-342,-284,31
3129,-346,-54,62,-22,-277,273,-491,128,136,-24,39,211,34,-100,58,-94,-586,-233,-85,-43,-129,-82,91,-136,1,-163,415,-334,15,-324,-295,52
3130,-318,-74,53,-30,-262,272,-487,153,130,-30,65,121,25,-98,68,-368,-587,-249,-114,-67,-144,37,63,-178,-26,-190,428,-384,-52,-412,-376,30
3131,-301,-105,55,-21,-244,329,-485,186,162,-32,81,61,46,-80,68,-311,-557,-236,-108,-84,-147,-1,16,-192,2,-223,372,-422,-79,-468,-419,-39
3132,-244,-118,82,11,-250,333,-514,231,161,-30,15,-16,39,-94,38,-154,-592,-268,-126,-90,-207,-74,17,-183,-24,-242,272,-377,-34,-416,-382,-21
3133,-287,-87,107,14,-247,355,-523,225,161,-33,14,-389,37,-99,29,72,-657,-313,-147,-83,-186,-65,-28,-198,-42,-250,306,-429,-100,-444,-423,5
3134,-372,-64,97,35,-248,342,-530,261,145,-38,20,-580,61,-99,27,242,-594,-286,-128,-92,-215,-134,-1,-208,-33,-238,335,-450,-127,-470,-459,-67
3135,-488,-37,58,18,-279,335,-496,197,132,-37,21,27,47,-89,39,131,-587,-219,-101,-55,-201,-49,24,-201,-22,-237,349,-420,-114,-463,-435,-126
3136,-456,-19,-2,-51,-282,337,-462,144,120,-35,33,298,5,-89,55,153,-538,-256,-122,-58,-170,119,44,-183,-16,-233,319,-372,-106,-474,-429,-142
3137,-337,-20,-19,-61,-269,348,-452,158,128,-25,105,228,-1,-86,46,5,-659,-282,-123,-62,-217,66,44,-171,4,-237,290,-363,-86,-470,-415,-144
3138,-266,-44,9,-7,-272,376,-524,232,132,-12,213,150,12,-88,75,-425,-630,-295,-112,-61,-163,4,59,-166,14,-214,357,-372,-53,-438,-409,-134
3139,-252,-39,24,9,-273,351,-489,287,143,-11,95,121,33,-92,74,-214,-601,-276,-121,-53,-108,-9,89,-168,10,-207,346,-375,-35,-422,-387,-149
3140,-253,-8,23,24,-295,394,-390,333,152,-25,-39,-280,73,-84,58,179,-619,-242,-99,-38,-143,79,15,-169,19,-188,280,-387,-24,-395,-358,-97
3141,-280,-14,-6,18,-274,458,-452,284,149,-2,83,-935,48,-93,74,195,-535,-340,-108,-42,-161,104,-103,-181,19,-164,321,-383,-28,-366,-346,-12
3142,-274,-13,16,-1,-244,217,-456,295,162,-21,19,-510,74,-76,73,170,-623,-228,-104,-18,-128,50,-47,-154,30,-134,406,-402,4,-338,-282,-12
3143,-314,-36,16,11,-268,116,-457,263,156,-14,13,167,84,-58,74,157,-737,-170,-71,7,-91,51,110,-105,60,-118,454,-311,66,-287,-261,54
3144,-298,-10,14,-47,-263,321,-390,146,113,-11,105,633,-24,-74,100,130,-580,-287,-98,0,-80,40,167,-120,65,-130,400,-275,48,-335,-310,12
3145,-292,21,-29,-86,-244,402,-313,12,104,6,176,562,-71,-66,132,205,-493,-324,-102,22,-42,16,56,-128,66,-110,414,-303,50,-334,-312,-24
3146,-368,-24,66,-63,-265,344,-459,95,123,1,122,413,-14,-60,130,189,-506,-270,-100,33,-16,166,81,-108,102,-56,486,-276,78,-290,-229,5
3147,-400,-30,92,15,-258,359,-486,130,119,0,65,347,12,-68,131,63,-580,-266,-104,27,-31,187,112,-121,96,-69,473,-255,76,-296,-258,29
3148,-360,-29,115,35,-246,394,-445,176,155,7,85,312,33,-58,134,-106,-470,-232,-89,34,-54,74,117,-120,78,-84,454,-246,74,-309,-253,57
3149,-321,-20,103,-20,-230,389,-421,197,157,6,111,283,14,-59,133,105,-488,-244,-98,26,-14,-10,78,-129,82,-88,462,-299,33,-337,-274,60
3150,-277,-18,60,-45,-241,350,-432,100,157,-12,-3,260,13,-45,111,236,-517,-263,-91,33,-19,93,83,-126,97,-58,457,-293,29,-330,-254,41
3151,-297,-12,36,-8,-267,317,-445,117,151,-16,-21,170,15,-36,119,191,-526,-259,-71,41,1,61,118,-117,93,-46,473,-301,50,-298,-268,99
3152,-279,2,65,10,-250,317,-390,130,146,-23,32,154,20,-45,139,153,-493,-265,-83,61,22,49,103,-120,87,-53,491,-239,57,-297,-239,97
3153,-257,-32,111,54,-254,267,-399,178,138,-31,49,157,39,-56,122,84,-580,-233,-69,55,-28,117,85,-111,92,-61,478,-263,69,-273,-213,100
3154,-275,-70,83,69,-269,295,-429,255,145,-35,59,61,27,-69,115,40,-618,-231,-78,17,-45,-4,34,-117,63,-80,438,-308,53,-296,-257,102
3155,-257,-32,87,76,-247,327,-409,238,159,-32,56,-12,46,-65,120,96,-511,-221,-69,16,-20,-29,207,-72,86,-81,424,-208,110,-261,-253,54
3156,-262,-31,104,70,-263,318,-405,240,147,-46,30,-167,67,-83,108,112,-561,-185,-61,24,-24,123,468,-30,87,-70,448,-245,148,-213,-202,70
3157,-292,-54,28,29,-243,357,-363,236,162,-16,75,56,51,-78,121,104,-540,-195,-61,35,-19,81,104,-49,95,-61,463,-200,165,-194,-180,110
3158,-273,-71,70,-11,-235,363,-374,215,162,-28,88,205,47,-88,113,-35,-481,-208,-88,9,-52,84,-15,-66,73,-100,417,-126,123,-266,-278,11
3159,-257,3,110,1,-218,388,-377,199,178,-5,127,181,65,-57,110,-139,-462,-176,-49,30,-54,109,106,-33,105,-76,443,-106,128,-261,-248,34
3160,-270,29,50,-13,-204,387,-368,191,187,-12,97,167,59,-66,100,-7,-458,-182,-53,22,-52,-98,140,-51,88,-91,429,-176,112,-263,-254,74
3161,-254,53,92,8,-200,382,-353,237,188,-31,97,186,87,-71,92,74,-487,-183,-55,-1,-66,-16,126,-61,75,-105,449,-259,95,-290,-264,83
3162,-258,84,126,18,-194,412,-284,232,181,-13,157,154,97,-64,108,22,-511,-180,-58,-12,-69,120,129,-78,68,-101,507,-269,73,-296,-250,113
3163,-270,63,113,42,-218,418,-264,242,168,-3,196,107,93,-92,136,-270,-439,-164,-62,-11,-47,174,123,-64,67,-73,631,-214,120,-228,-196,190
3164,-267,43,99,57,-215,411,-284,294,170,18,254,-160,114,-89,161,-474,-450,-176,-52,14,-43,45,132,-59,93,-57,528,-198,165,-179,-120,317
3165,-297,-3,77,48,-235,401,-295,329,165,20,274,-390,112,-85,162,-427,-444,-187,-68,-16,-65,58,123,-68,58,-118,384,-177,122,-248,-229,188
3166,-322,2,79,70,-244,382,-312,356,177,11,217,-334,133,-77,144,166,-386,-127,-34,-3,-55,180,200,-25,96,-100,464,-124,186,-209,-222,68
3167,-319,7,130,100,-234,394,-340,416,188,7,170,181,177,-57,113,489,-395,-62,-22,-2,-79,93,238,-30,97,-118,388,-137,150,-251,-301,-74
3168,-308,37,112,23,-242,411,-290,309,164,3,189,433,76,-75,104,479,-333,-133,-52,-2,-79,64,320,-58,83,-122,399,-112,133,-278,-346,-81
3169,-305,22,168,-3,-253,392,-328,318,130,0,129,273,45,-70,107,443,-321,-120,-41,13,-34,83,343,-22,93,-91,492,-91,152,-235,-266,44
3170,-272,31,172,-8,-252,420,-326,311,150,-5,151,368,58,-60,128,283,-412,-106,-50,21,-21,240,320,-37,87,-69,511,-180,120,-242,-255,39
3171,-237,15,175,-16,-209,408,-284,312,163,16,147,293,112,-64,153,110,-409,-68,-30,12,-21,199,314,-18,88,-59,497,-125,185,-210,-248,70
3172,-240,4,189,28,-222,378,-317,354,164,-11,120,290,105,-85,132,213,-359,-72,-25,7,-21,135,332,-13,94,-65,496,-27,260,-151,-183,164
3173,-253,61,234,87,-209,369,-283,263,164,11,120,437,106,-48,144,478,-373,-87,-17,43,11,147,323,2,129,-22,542,-7,237,-168,-178,145
3174,-239,61,252,39,-213,382,-286,243,151,6,94,487,76,-70,122,407,-356,-121,-41,42,1,204,284,-33,107,-45,525,-173,88,-274,-230,111
3175,-200,53,232,-5,-244,371,-295,259,167,-15,65,342,36,-101,89,280,-260,-142,-74,-3,-37,214,262,-69,70,-73,498,-229,90,-267,-226,134
3176,-116,63,250,39,-221,377,-292,273,182,2,77,322,77,-96,113,203,-335,-83,-58,13,-13,145,296,-52,96,-60,509,-107,147,-223,-202,114
3177,-142,29,226,-2,-225,387,-339,292,170,4,89,280,80,-99,101,64,-352,-109,-74,9,-30,52,258,-69,65,-96,481,-167,150,-251,-232,92
3178,-206,-22,154,48,-222,391,-343,237,168,-27,98,223,72,-99,106,-352,-371,-151,-88,0,-65,117,225,-69,50,-101,462,-185,152,-247,-234,102
3179,-185,-1,115,81,-199,357,-311,250,165,-24,185,407,84,-78,144,-474,-489,-119,-77,1,-69,131,250,-55,93,-91,470,-39,215,-207,-226,130
3180,-157,40,120,57,-188,337,-324,295,184,4,206,304,73,-87,150,-225,-449,-141,-51,16,-48,59,158,-70,77,-89,451,-219,127,-265,-237,64
3181,-185,72,119,69,-197,362,-232,267,160,-24,174,171,51,-92,131,-64,-428,-167,-73,-13,-56,73,119,-104,29,-131,384,-414,-3,-361,-316,-101
3182,-258,31,160,78,-218,403,-299,233,147,-9,147,310,44,-98,111,215,-381,-129,-84,-10,-23,120,212,-72,41,-123,431,-267,74,-311,-281,52
3183,-311,9,117,63,-221,509,-371,248,156,1,152,294,44,-86,103,343,-365,-131,-79,-1,-67,32,168,-54,67,-112,455,-280,103,-293,-266,63
3184,-290,25,139,27,-235,362,-399,269,167,-20,140,244,66,-93,76,323,-373,-121,-60,-11,-119,53,205,-28,78,-129,429,-183,117,-264,-249,59
3185,-330,31,152,3,-244,64,-303,230,153,-43,-87,345,101,-90,34,297,-414,-94,-39,-3,-106,97,271,11,108,-95,406,-87,165,-225,-242,46
3186,-283,89,94,25,-221,214,-261,292,168,-21,-3,-7,100,-83,87,167,-396,-111,-24,26,-80,155,272,55,145,-76,437,-67,215,-200,-198,36
3187,-241,37,91,8,-247,315,-288,399,164,-23,86,-489,114,-83,94,-142,-421,-160,-39,9,-82,21,162,14,113,-110,419,-304,132,-246,-226,23
3188,-276,-32,180,-1,-237,323,-299,463,195,-13,81,-66,144,-48,107,0,-464,-112,-31,25,-75,-60,231,6,107,-113,406,-311,127,-260,-252,15
3189,-167,3,183,9,-199,362,-317,377,186,-9,82,380,98,-74,102,91,-385,-118,-45,16,-88,-12,261,-8,81,-111,410,-314,115,-290,-272,39
3190,-180,36,58,-20,-201,383,-293,236,152,-11,76,336,20,-97,117,-189,-441,-196,-63,6,-69,93,129,-51,67,-112,431,-312,73,-312,-292,62
3191,-194,60,46,-23,-202,415,-276,175,134,9,89,289,12,-69,129,24,-461,-178,-55,42,-76,89,180,-36,98,-78,460,-231,130,-266,-256,28
3192,-132,55,112,-26,-209,390,-311,171,154,7,79,297,41,-51,135,294,-457,-148,-32,73,-52,135,234,-1,135,-47,490,-185,181,-235,-224,70
3193,-187,41,99,-20,-229,383,-284,150,145,5,92,316,35,-51,132,288,-468,-173,-35,71,-43,74,252,9,140,-34,520,-144,188,-210,-197,127
3194,-223,2,128,-13,-234,365,-280,213,152,-10,55,292,62,-51,120,224,-418,-145,-35,55,-57,65,254,-1,143,-47,528,-115,194,-198,-187,132
3195,-198,30,162,6,-238,374,-243,254,165,-2,48,159,84,-36,126,205,-344,-124,-8,63,-53,160,297,14,137,-62,472,-134,215,-186,-188,112
3196,-229,63,196,76,-226,381,-242,240,163,2,108,134,79,-47,151,234,-305,-123,-19,57,-52,125,257,8,117,-51,492,-180,194,-201,-184,157
3197,-292,28,145,53,-243,360,-264,274,162,-7,100,115,99,-59,145,171,-378,-107,-28,30,-67,110,229,0,110,-66,499,-157,187,-215,-196,145
3198,-333,-26,173,51,-235,348,-261,297,194,4,88,69,120,-61,114,78,-395,-79,-14,38,-73,118,260,14,121,-54,468,-119,199,-211,-206,92
3199,-298,-62,185,39,-270,318,-284,328,183,-19,57,-67,143,-36,92,61,-411,-48,3,38,-72,154,279,18,116,-67,478,-133,195,-218,-213,112
3200,-204,-90,241,40,-261,321,-318,334,182,-20,51,200,153,-56,97,40,-435,-51,5,14,-83,141,358,22,113,-81,503,-122,189,-207,-198,101
3201,-186,-30,210,34,-249,334,-299,333,171,-12,81,249,145,-49,103,-143,-355,-30,2,29,-67,119,667,39,119,-79,501,-71,225,-194,-162,109
3202,-181,-4,212,29,-239,359,-307,351,156,-3,128,327,123,-33,120,-234,-359,-28,-5,33,-69,-31,537,15,96,-98,450,-178,173,-251,-229,74
3203,-179,7,216,2,-225,389,-260,247,155,29,168,538,122,-45,171,-23,-411,-16,-2,41,-40,11,165,6,94,-73,559,-107,164,-250,-204,82
3204,-219,3,174,-20,-219,416,-237,216,163,25,149,584,78,-62,151,69,-388,-107,-16,26,-43,159,148,-17,95,-92,530,-103,153,-238,-220,101
