,Fp1,Fp2,F7,F3,Fz,F4,F8,FC5,FC1,FC2,FC6,T7,C3,Cz,C4,T8,TP9,CP5,CP1,CP2,CP6,TP10,P7,P3,Pz,P4,P8,PO9,O1,Oz,O2,PO10
107423,1193,1729,484,-1013,305,594,547,392,-89,-136,356,20,222,-94,-717,310,-3,-174,-152,-204,-212,8,99,-119,-14,-220,50,-237,-73,-303,-846,-354
107424,1169,1655,492,-1024,307,578,468,389,-85,-153,342,15,213,-95,-721,362,16,-202,-172,-208,-232,18,25,-148,-4,-235,-5,-221,-45,-314,-875,-380
107425,1157,1655,485,-1040,318,598,454,389,-67,-149,368,-2,228,-80,-696,417,22,-193,-126,-180,-210,46,40,-145,18,-210,0,-268,-47,-283,-846,-381
107426,1169,1721,440,-1040,312,616,502,375,-77,-148,381,0,213,-79,-685,406,-18,-204,-129,-196,-198,41,35,-142,9,-226,36,-233,-61,-337,-875,-304
107427,1229,1767,465,-999,325,636,573,381,-75,-138,407,65,220,-88,-652,452,54,-176,-120,-179,-196,21,63,-131,6,-232,84,-204,-39,-333,-866,-191
107428,1267,1792,535,-961,321,639,642,409,-79,-134,417,102,240,-98,-671,514,98,-123,-112,-181,-174,45,86,-109,5,-217,99,-180,-31,-287,-814,-235
107429,1258,1768,563,-974,299,655,658,486,-73,-133,412,86,250,-105,-679,523,84,-135,-135,-188,-170,105,111,-108,8,-229,92,-162,-11,-268,-838,-324
107430,1190,1716,509,-993,291,622,620,477,-75,-150,398,68,252,-91,-655,502,68,-142,-146,-190,-162,42,135,-95,19,-223,63,-140,-6,-271,-867,-380
107431,1138,1651,519,-1021,287,618,550,387,-79,-137,395,125,241,-89,-649,474,58,-141,-122,-184,-173,28,158,-82,35,-194,29,-164,-19,-282,-851,-392
107432,1096,1603,477,-1046,259,595,460,385,-61,-95,367,79,245,-91,-650,383,35,-153,-111,-177,-150,91,146,-84,65,-182,81,-172,21,-253,-795,-312
107433,1092,1571,478,-1062,269,572,405,388,-67,-124,341,42,239,-88,-657,252,53,-149,-101,-188,-164,70,164,-65,56,-167,79,-154,47,-253,-804,-340
107434,1112,1582,503,-1054,275,597,385,398,-88,-143,375,28,226,-88,-641,323,59,-162,-124,-169,-161,65,157,-88,45,-177,97,-155,-11,-289,-827,-321
107435,1108,1557,521,-1042,278,594,314,405,-91,-140,366,20,231,-95,-653,432,78,-149,-124,-182,-127,82,153,-107,30,-183,147,-146,-107,-301,-789,-233
107436,1119,1551,529,-1054,276,621,299,403,-78,-124,415,29,228,-105,-657,350,76,-136,-128,-171,-147,90,194,-91,30,-181,134,-154,-63,-274,-760,-171
107437,1113,1561,508,-1033,288,650,448,404,-81,-104,482,15,234,-80,-608,144,52,-131,-116,-141,-112,138,150,-76,66,-135,158,-143,-2,-213,-718,-81
107438,1128,1573,517,-1004,285,634,499,430,-68,-106,461,45,249,-79,-586,166,54,-130,-87,-143,-132,128,124,-75,84,-113,153,-121,20,-183,-715,-148
107439,1113,1555,521,-1038,284,633,501,442,-66,-94,444,93,258,-83,-574,277,53,-135,-70,-126,-132,82,194,-47,86,-119,128,-147,15,-206,-768,-338
107440,1104,1608,544,-1040,296,624,543,412,-60,-100,427,129,249,-85,-569,394,93,-93,-44,-113,-58,121,315,-38,86,-129,101,-187,11,-216,-741,-316
107441,1091,1572,519,-1039,285,602,509,396,-40,-118,402,133,267,-64,-584,407,103,-61,-43,-135,-69,106,308,-12,90,-155,75,-139,32,-219,-736,-301
107442,1047,1510,471,-1067,273,584,491,406,-48,-117,396,86,276,-50,-637,419,127,-79,-46,-125,-108,124,149,-16,99,-173,90,-112,28,-248,-764,-310
107443,964,1455,460,-1076,247,579,466,385,-66,-120,370,60,276,-50,-662,377,164,-91,-39,-112,-124,109,136,-19,107,-153,133,-98,29,-215,-739,-256
107444,941,1466,438,-1059,271,587,459,397,-48,-123,387,64,293,-39,-634,303,166,-90,-31,-100,-116,110,172,9,114,-117,158,-110,50,-201,-738,-217
107445,947,1500,410,-1050,261,576,473,407,-69,-130,384,68,282,-42,-635,318,110,-101,-51,-120,-118,108,174,-10,113,-120,159,-152,25,-212,-738,-202
107446,928,1461,376,-1062,263,560,451,382,-75,-139,370,39,252,-51,-637,342,122,-132,-57,-133,-147,37,165,-46,86,-159,125,-156,11,-213,-763,-322
107447,917,1409,359,-1090,240,559,430,346,-96,-137,359,-2,225,-82,-650,396,65,-159,-103,-140,-149,10,99,-76,61,-168,154,-194,21,-222,-788,-362
107448,867,1358,329,-1090,214,528,395,333,-79,-149,262,0,228,-67,-677,450,42,-148,-98,-147,-137,21,114,-59,73,-145,193,-204,54,-211,-751,-356
107449,770,1273,322,-1120,220,486,328,318,-103,-163,189,-6,213,-61,-707,481,35,-157,-87,-132,-129,61,139,-61,87,-121,97,-249,0,-220,-713,-334
107450,737,1235,333,-1153,193,487,321,336,-110,-160,287,-9,204,-67,-734,450,13,-166,-97,-134,-130,78,88,-94,80,-108,99,-261,-85,-219,-665,-250
107451,730,1242,286,-1155,213,524,325,412,-97,-148,332,28,220,-48,-681,419,35,-162,-98,-126,-139,-15,90,-68,101,-122,170,-224,-48,-232,-691,-274
107452,749,1295,269,-1132,229,556,370,433,-84,-118,356,103,241,-40,-680,426,36,-129,-102,-130,-131,9,116,-55,95,-133,156,-178,-42,-298,-789,-326
107453,742,1263,314,-1134,216,519,328,374,-72,-146,307,67,244,-40,-741,398,43,-133,-85,-136,-145,53,116,-67,72,-153,100,-167,-79,-336,-866,-356
107454,751,1237,337,-1125,242,521,315,337,-92,-150,301,47,240,-61,-765,389,52,-165,-99,-165,-166,24,66,-104,41,-187,51,-251,-124,-388,-950,-386
107455,778,1242,389,-1106,257,530,364,388,-78,-138,310,32,244,-50,-745,310,0,-171,-105,-163,-177,-53,70,-109,27,-204,56,-293,-134,-360,-925,-377
107456,763,1226,369,-1102,239,495,346,373,-85,-129,288,-10,238,-61,-754,252,-20,-144,-109,-172,-199,-93,152,-86,7,-227,47,-247,-138,-357,-889,-382
107457,746,1197,334,-1103,234,495,314,341,-89,-141,302,30,242,-64,-760,209,27,-139,-102,-162,-178,-42,141,-82,9,-204,34,-256,-122,-345,-868,-357
107458,742,1187,365,-1070,234,516,271,373,-78,-134,321,86,250,-69,-721,201,-35,-120,-87,-159,-166,-25,92,-102,2,-205,31,-226,-126,-352,-879,-351
107459,714,1128,319,-1097,226,538,248,413,-79,-146,332,93,261,-80,-716,221,13,-113,-94,-173,-179,-42,114,-97,17,-220,37,-204,-109,-350,-902,-347
107460,651,1034,290,-1115,211,547,163,383,-96,-136,372,150,250,-77,-680,225,53,-103,-77,-167,-140,12,154,-80,26,-216,110,-209,-87,-322,-862,-333
107461,635,1018,328,-1109,226,557,49,382,-75,-109,406,184,261,-53,-642,212,64,-76,-72,-146,-98,13,203,-47,36,-180,103,-168,-34,-271,-802,-285
107462,646,1084,339,-1115,227,539,153,392,-59,-106,366,238,261,-33,-651,337,73,-65,-72,-132,-99,30,211,-21,50,-162,82,-133,3,-248,-772,-233
107463,599,1045,352,-1104,226,482,180,386,-66,-145,322,194,265,-48,-698,344,51,-90,-75,-168,-143,16,226,-43,46,-192,81,-136,-10,-255,-770,-217
107464,590,1036,256,-1078,215,449,259,402,-59,-160,242,114,279,-53,-757,367,34,-76,-65,-171,-163,-8,289,-39,38,-200,90,-180,0,-245,-800,-247
107465,556,1045,196,-1073,209,437,281,400,-68,-177,159,46,267,-59,-769,216,-21,-105,-104,-180,-199,-47,201,-56,19,-218,68,-208,-43,-301,-863,-347
107466,571,1072,243,-1097,213,481,346,350,-70,-146,302,37,256,-68,-748,177,-3,-131,-108,-162,-175,-41,87,-62,14,-205,105,-204,-27,-294,-847,-348
107467,567,1031,225,-1105,220,495,357,324,-78,-105,352,128,246,-63,-706,303,109,-113,-103,-157,-136,7,142,-31,26,-187,98,-205,1,-298,-842,-310
107468,531,982,211,-1125,202,487,315,327,-89,-123,337,118,236,-73,-663,306,54,-129,-114,-151,-127,-2,111,-48,33,-220,28,-226,-46,-349,-909,-360
107469,485,936,237,-1169,183,472,258,321,-73,-119,359,81,254,-60,-639,247,69,-141,-98,-113,-135,-33,98,-44,62,-191,42,-221,-34,-310,-891,-382
107470,464,907,255,-1186,170,462,211,312,-80,-113,339,58,252,-48,-662,267,24,-143,-71,-110,-138,14,123,-31,70,-187,22,-208,-3,-305,-880,-400
107471,461,844,284,-1176,158,441,221,317,-96,-123,342,5,230,-48,-659,315,-5,-149,-71,-126,-142,-30,93,-35,63,-210,2,-233,-16,-312,-917,-400
107472,467,846,365,-1189,146,441,216,365,-92,-154,357,15,251,-42,-647,301,64,-143,-99,-156,-200,-72,61,-70,32,-233,-12,-248,-28,-324,-924,-395
107473,450,818,386,-1172,157,441,215,364,-84,-142,324,21,248,-58,-684,353,47,-169,-111,-174,-210,-19,66,-70,40,-211,9,-252,-41,-330,-899,-387
107474,451,826,364,-1131,190,470,238,367,-63,-114,308,32,250,-50,-669,418,-3,-168,-103,-162,-205,-1,65,-78,46,-218,5,-253,-57,-321,-864,-368
107475,380,786,286,-1197,170,436,199,338,-77,-150,246,-7,239,-58,-715,412,-8,-190,-119,-171,-196,-35,39,-116,21,-227,-21,-236,-70,-313,-862,-353
107476,334,737,229,-1219,144,412,116,305,-113,-172,217,-39,214,-58,-749,297,-44,-213,-111,-187,-219,-93,20,-141,3,-230,-47,-267,-92,-354,-904,-291
107477,322,736,253,-1190,156,426,98,313,-90,-146,250,-36,220,-55,-738,265,-70,-202,-114,-177,-210,-78,0,-141,-1,-245,5,-323,-137,-387,-947,-267
107478,333,740,275,-1186,166,457,154,337,-67,-138,283,-27,237,-47,-721,291,-61,-216,-112,-160,-213,-51,-2,-154,0,-233,-31,-329,-184,-418,-974,-468
107479,318,690,201,-1211,147,438,161,329,-91,-161,265,-28,208,-59,-746,267,-50,-211,-102,-157,-211,-48,49,-159,6,-237,-57,-258,-178,-410,-949,-452
107480,311,656,183,-1255,141,406,142,319,-119,-166,258,-11,210,-59,-746,216,13,-159,-97,-140,-195,-9,113,-116,26,-223,-18,-223,-130,-343,-895,-421
107481,255,637,192,-1235,132,387,100,328,-114,-140,256,14,270,-25,-735,184,80,-117,-61,-133,-188,0,159,-66,75,-190,12,-193,-99,-321,-849,-420
107482,207,601,204,-1247,116,372,94,322,-114,-170,224,10,269,-23,-733,263,54,-112,-66,-120,-193,0,149,-55,91,-174,48,-159,-50,-275,-790,-337
107483,197,511,237,-1265,98,362,76,348,-112,-167,203,51,261,-38,-719,282,90,-133,-66,-129,-164,32,155,-64,72,-190,81,-154,-66,-315,-810,-358
107484,197,511,219,-1255,107,357,62,366,-105,-157,180,75,259,-36,-722,239,102,-122,-34,-125,-144,40,173,-44,84,-178,93,-144,-32,-318,-821,-340
107485,212,544,183,-1284,115,353,38,340,-108,-157,202,48,249,-37,-693,215,73,-102,-42,-107,-150,-52,186,-18,97,-160,112,-129,4,-243,-709,-231
107486,180,543,132,-1309,102,334,32,251,-109,-160,202,33,229,-39,-686,105,55,-111,-45,-128,-167,-74,190,-13,89,-158,134,-134,9,-242,-718,-265
107487,183,577,145,-1296,107,340,33,280,-96,-155,243,70,257,-37,-656,-53,133,-88,-25,-110,-150,2,233,42,117,-137,138,-97,75,-200,-755,-314
107488,187,551,160,-1303,102,324,24,311,-89,-156,234,57,261,-36,-697,65,135,-75,-22,-104,-154,14,244,72,125,-104,194,-71,99,-194,-754,-148
107489,162,474,132,-1303,85,303,18,293,-103,-162,238,47,282,-22,-716,281,117,-54,-18,-96,-129,-14,268,80,149,-104,231,-66,127,-164,-709,-113
107490,124,434,118,-1299,72,308,9,287,-100,-182,209,67,273,-21,-737,369,132,-30,-20,-107,-149,-28,333,75,115,-124,161,-60,87,-195,-727,-238
107491,92,455,67,-1325,61,287,-22,290,-107,-181,177,46,257,-16,-763,411,117,-38,-25,-118,-165,36,284,49,116,-157,133,-81,132,-172,-728,-366
107492,63,415,82,-1295,57,303,-112,348,-75,-155,154,60,288,10,-751,427,86,-72,-21,-108,-161,53,229,38,145,-159,125,-55,159,-136,-685,-306
107493,52,334,113,-1298,48,286,-144,376,-72,-178,160,124,304,4,-780,392,133,-42,-20,-102,-179,30,325,79,144,-149,52,-5,139,-180,-797,-291
107494,55,349,116,-1285,59,293,-105,336,-72,-155,175,147,304,17,-759,336,215,-17,-15,-106,-206,-34,317,72,146,-180,8,57,158,-197,-836,-282
107495,76,369,128,-1260,84,289,-100,372,-75,-159,149,125,296,18,-773,259,208,-51,-18,-109,-227,-38,264,44,114,-185,15,5,168,-189,-797,-270
107496,102,377,127,-1269,75,272,-99,398,-83,-154,149,97,291,-15,-777,142,218,-58,-46,-123,-234,-55,308,21,108,-170,0,-25,128,-183,-777,-317
107497,79,364,117,-1283,68,278,-43,341,-88,-136,129,60,269,-12,-757,104,178,-98,-29,-115,-234,-54,210,-1,118,-172,13,-41,93,-203,-804,-348
107498,48,345,150,-1301,54,252,-43,264,-106,-167,99,20,217,-12,-740,155,87,-152,-51,-132,-218,-40,107,-38,90,-195,11,-82,38,-263,-873,-402
107499,22,315,139,-1325,26,238,-56,253,-100,-179,85,1,221,-6,-725,161,79,-134,-60,-124,-213,-39,274,-24,84,-193,-18,-155,14,-250,-836,-377
107500,33,304,141,-1316,34,251,-68,295,-95,-171,109,33,257,0,-717,160,72,-79,-42,-99,-231,-60,313,-26,88,-185,-38,-185,16,-261,-824,-334
107501,29,323,126,-1305,36,249,-69,279,-91,-159,116,16,255,12,-712,179,28,-112,-42,-100,-228,-50,128,-35,91,-179,-4,-153,27,-253,-818,-307
107502,-10,297,85,-1343,32,271,-55,232,-107,-162,196,71,241,6,-694,189,34,-157,-39,-104,-218,-46,64,-48,70,-210,5,-116,3,-304,-902,-352
107503,6,289,54,-1368,25,256,-115,214,-137,-164,194,84,206,-19,-708,208,25,-167,-74,-113,-197,-26,72,-68,58,-223,75,-103,-22,-349,-972,-320
107504,33,305,51,-1345,39,263,-221,239,-111,-141,184,65,216,15,-640,363,29,-129,-51,-88,-62,54,81,-58,75,-189,171,-111,0,-311,-887,-255
107505,34,287,53,-1362,33,260,-237,256,-125,-158,122,-3,233,2,-643,402,86,-148,-65,-99,-38,22,60,-68,51,-183,34,-175,-35,-330,-891,-280
107506,2,296,67,-1382,32,257,-232,241,-148,-138,182,-39,226,6,-687,308,28,-158,-71,-119,-85,-146,69,-82,35,-197,-107,-211,-84,-343,-895,-243
107507,-53,289,38,-1396,14,241,-92,228,-155,-158,178,-16,201,-3,-750,249,13,-166,-95,-135,-208,-271,67,-105,41,-249,-238,-212,-122,-370,-921,-329
107508,-10,250,82,-1353,28,242,-6,274,-127,-156,137,61,236,37,-734,193,69,-114,-38,-104,-254,-159,112,-47,95,-219,-245,-148,-54,-306,-859,-336
107509,-29,243,80,-1374,22,247,-9,279,-119,-161,116,86,243,49,-721,50,112,-105,-11,-95,-239,-81,127,11,145,-211,-150,-118,-3,-247,-831,-324
107510,-53,256,48,-1404,8,251,-12,228,-129,-178,138,63,232,40,-696,10,46,-103,-18,-77,-224,-41,118,16,170,-166,1,-141,-4,-234,-773,-191
107511,-38,255,64,-1417,15,248,-5,214,-128,-184,145,38,248,42,-660,187,37,-81,36,-51,-166,30,168,64,224,-93,113,-94,50,-168,-675,-82
107512,0,299,95,-1414,27,266,-66,230,-93,-144,181,53,268,62,-628,314,152,-47,66,-6,-120,24,231,95,276,-36,79,-13,122,-121,-630,-210
107513,-12,292,52,-1413,10,282,-125,220,-112,-146,210,7,285,56,-615,372,160,-67,54,-1,-126,39,232,101,268,-20,89,0,132,-107,-605,-217
107514,-14,327,53,-1375,2,302,-130,220,-119,-131,239,8,295,63,-623,442,154,-66,67,9,-97,94,232,107,284,5,186,-10,138,-78,-552,-96
107515,30,340,82,-1343,39,315,-62,252,-98,-128,223,52,285,55,-629,373,160,-40,78,4,-102,96,233,123,277,-6,140,-36,119,-109,-606,-273
107516,31,329,107,-1358,30,286,-27,257,-117,-138,225,42,285,45,-631,236,159,-57,73,6,-113,102,238,126,285,-1,143,-26,128,-86,-589,-195
107517,11,345,94,-1346,36,297,-47,242,-89,-127,223,41,286,74,-650,284,231,-28,76,13,-85,112,299,154,293,27,166,21,141,-94,-625,-142
107518,5,314,86,-1337,29,290,6,261,-77,-134,207,53,316,89,-641,338,232,-16,98,14,-68,116,295,176,297,42,196,73,206,-70,-611,-118
107519,-7,281,110,-1360,23,247,1,296,-96,-155,161,55,314,74,-658,218,234,0,107,5,-112,98,314,200,326,41,150,99,277,39,-510,-92
107520,2,253,101,-1345,-11,204,-15,278,-85,-162,121,52,309,64,-689,101,218,-9,101,-4,-145,46,328,201,339,14,86,130,331,71,-468,-143
107521,21,262,109,-1351,3,208,-26,308,-84,-143,131,64,326,83,-676,147,166,-7,107,10,-141,61,325,209,327,13,116,88,292,31,-532,-129
107522,47,336,119,-1342,27,236,-15,300,-88,-152,182,68,325,90,-631,223,189,-4,75,18,-128,57,288,196,329,25,180,59,205,24,-473,44
107523,42,346,130,-1328,12,230,-98,293,-97,-167,238,73,286,58,-680,267,187,-36,42,-24,-187,32,322,145,276,-48,83,-14,137,-21,-540,0
107524,54,340,162,-1309,25,245,-153,370,-81,-159,210,123,304,58,-723,395,273,-16,52,-63,-222,65,379,149,265,-107,-10,48,229,-77,-709,-253
107525,63,317,114,-1310,37,216,-178,323,-85,-180,46,94,297,55,-728,438,250,-48,57,-69,-226,43,289,140,247,-96,-36,91,267,-42,-727,-233
107526,67,295,93,-1317,18,208,-160,305,-83,-192,79,54,278,42,-742,302,196,-109,16,-73,-262,-33,212,80,222,-143,-76,61,95,-199,-814,-291
107527,74,299,115,-1301,27,224,-83,323,-79,-194,141,53,277,31,-742,204,173,-81,19,-69,-258,-6,305,48,204,-178,-121,40,34,-272,-909,-338
107528,84,330,98,-1330,37,241,-4,334,-84,-164,147,53,288,46,-723,277,220,-41,44,-64,-207,64,393,79,215,-122,-64,45,115,-150,-775,-266
107529,80,370,122,-1305,46,263,60,365,-95,-166,171,63,314,41,-669,312,234,-17,10,-58,-167,99,334,60,225,-124,3,4,90,-186,-788,-271
107530,121,424,147,-1286,54,292,113,417,-85,-177,219,81,300,44,-695,378,199,-57,-15,-64,-157,70,177,43,215,-147,30,-5,61,-253,-888,-319
107531,161,487,183,-1277,66,311,127,407,-72,-151,261,90,265,50,-673,422,223,-92,5,-59,-140,29,124,11,197,-128,84,18,90,-201,-864,-242
107532,158,522,209,-1302,78,338,135,306,-85,-134,283,109,268,63,-630,524,266,-99,11,-30,-75,129,204,31,213,-92,143,26,126,-154,-796,-167
107533,135,475,177,-1302,70,333,144,274,-100,-145,289,90,258,47,-628,557,258,-86,-11,-35,-85,145,261,37,231,-59,164,38,183,-90,-716,-84
107534,126,422,168,-1265,76,335,171,320,-80,-144,292,62,277,56,-591,536,182,-94,-5,-8,-48,216,241,58,239,-37,207,94,270,-17,-631,-76
107535,133,395,130,-1253,98,349,147,341,-64,-118,308,99,287,85,-572,380,184,-62,11,18,-6,245,279,110,276,25,272,154,362,52,-562,4
107536,113,407,136,-1279,81,318,130,320,-78,-134,289,101,271,54,-563,289,272,-68,11,10,19,250,307,101,284,27,341,120,277,34,-522,95
107537,125,426,165,-1269,72,300,151,318,-94,-155,206,122,273,35,-600,376,328,-66,0,-13,28,290,227,94,282,38,377,125,240,74,-476,189
107538,151,500,178,-1251,97,336,163,337,-82,-171,276,127,277,41,-589,437,282,-64,4,1,30,262,237,104,284,44,336,127,305,96,-483,35
107539,153,492,176,-1249,71,338,154,353,-87,-159,329,126,286,59,-589,415,281,-56,15,26,8,242,265,117,318,39,273,102,320,108,-432,-40
107540,115,419,175,-1280,46,306,141,361,-110,-171,273,111,282,43,-633,342,269,-57,-1,-4,-41,247,244,143,304,35,302,99,326,131,-399,46
107541,128,433,256,-1275,56,305,154,371,-81,-166,263,129,301,57,-628,373,295,-12,14,-7,-41,274,316,174,303,21,284,147,342,123,-403,69
107542,134,469,238,-1273,79,298,128,361,-64,-164,267,132,296,45,-630,316,308,-37,8,-11,-80,220,319,180,303,-30,217,173,348,41,-530,37
107543,107,497,204,-1270,75,281,80,330,-98,-178,243,122,287,14,-632,238,285,-54,5,-27,-116,190,273,156,279,-29,235,118,334,42,-555,45
107544,146,545,228,-1255,78,311,100,373,-82,-143,287,172,298,47,-596,245,254,-10,37,-2,-75,228,347,192,301,-15,281,96,303,67,-487,44
107545,129,479,185,-1274,75,320,121,364,-77,-153,306,186,301,45,-580,324,302,-20,40,-16,-77,209,368,191,303,-33,271,123,289,41,-493,-1
107546,103,408,177,-1282,68,309,129,323,-90,-167,341,158,273,26,-596,418,285,-68,32,-37,-89,201,290,164,285,-16,212,123,264,20,-532,-82
107547,113,415,229,-1262,64,317,87,356,-86,-158,320,184,304,41,-605,512,218,-41,58,-21,-66,228,275,174,308,-4,162,124,275,53,-507,0
107548,121,483,266,-1258,68,337,128,374,-74,-156,294,166,321,50,-609,599,252,-11,69,-11,-46,260,325,195,326,22,213,146,311,93,-437,78
107549,124,505,259,-1248,92,335,123,382,-67,-147,284,153,338,54,-602,634,327,-6,82,-4,-1,289,341,216,346,51,258,157,297,69,-448,100
107550,142,500,235,-1260,87,336,112,355,-77,-152,318,138,325,49,-593,543,302,-6,70,-11,-11,247,333,200,336,16,186,167,284,18,-549,-106
107551,166,519,257,-1268,95,317,131,360,-72,-147,300,191,332,53,-573,510,313,9,71,9,-22,240,360,235,342,30,218,197,336,79,-479,-55
107552,179,522,260,-1262,98,324,98,352,-57,-125,310,234,342,54,-572,499,365,33,73,28,1,251,398,269,372,66,234,217,392,136,-425,83
107553,179,554,294,-1254,86,330,198,403,-74,-152,339,264,346,54,-555,369,379,56,74,8,-4,272,442,257,352,57,273,174,363,116,-405,139
107554,199,532,272,-1227,97,362,287,426,-63,-126,332,299,369,60,-529,356,398,100,68,37,-1,303,457,256,343,71,327,220,378,91,-439,39
107555,214,511,282,-1218,111,411,286,386,-59,-111,360,301,364,55,-531,517,405,84,61,21,17,308,446,253,345,70,312,299,406,61,-530,-97
107556,184,480,286,-1258,94,419,-9,377,-84,-129,419,222,353,34,-521,600,384,39,47,-3,4,229,438,229,298,48,279,284,401,76,-558,-43
107557,189,515,267,-1221,115,431,-41,425,-72,-120,388,267,370,40,-524,644,398,71,34,-3,12,238,510,236,285,36,266,291,425,124,-472,35
107558,219,577,273,-1179,146,449,51,479,-42,-116,387,335,395,60,-524,715,470,141,61,21,90,297,642,279,300,94,452,318,469,145,-398,71
107559,203,524,287,-1182,113,405,19,468,-44,-136,421,281,397,37,-502,588,461,113,69,12,88,331,640,276,310,120,538,322,472,123,-475,85
107560,211,506,308,-1204,101,364,169,459,-56,-153,358,283,392,34,-563,526,460,102,62,-8,19,346,499,273,332,72,322,336,492,165,-388,175
107561,227,557,306,-1197,102,344,310,461,-59,-152,283,274,383,49,-584,563,455,85,49,3,98,312,470,278,328,109,456,300,506,199,-310,267
107562,216,595,342,-1215,96,341,347,450,-65,-147,278,291,363,50,-585,597,481,109,32,18,128,339,519,272,315,110,435,255,424,141,-372,174
107563,158,639,339,-1227,92,334,344,452,-74,-152,300,287,383,42,-617,529,453,99,30,-13,50,332,441,236,275,46,157,245,374,83,-429,120
107564,164,562,340,-1215,102,369,285,483,-49,-152,305,273,413,44,-636,550,445,73,53,-7,20,337,445,237,275,45,255,292,394,75,-442,3
107565,205,499,332,-1196,124,440,180,514,-25,-102,415,252,403,75,-600,473,414,50,43,22,33,385,443,242,295,67,362,312,403,116,-418,79
107566,207,567,335,-1199,135,427,166,486,-37,-129,466,248,383,49,-606,337,401,71,26,-16,-45,318,428,234,261,8,205,279,404,149,-396,138
107567,209,551,358,-1197,115,466,56,459,-36,-133,351,265,401,52,-620,416,396,90,35,-33,-32,312,422,228,262,9,268,288,411,147,-383,137
107568,216,448,284,-1215,108,466,-137,462,-45,-106,379,280,396,62,-616,457,376,85,18,-18,-8,350,414,230,264,14,332,265,389,180,-328,152
107569,225,510,276,-1208,103,454,-124,459,-45,-84,545,269,400,78,-549,257,317,79,23,-3,-7,284,414,216,276,23,332,243,386,178,-270,178
107570,222,560,331,-1162,120,393,30,503,-23,-117,390,277,411,69,-607,17,421,85,47,-20,-15,297,440,229,280,8,315,236,387,165,-305,134
107571,193,484,341,-1141,123,394,-4,507,-10,-127,303,309,405,61,-647,167,391,102,45,-19,-12,320,432,226,254,-11,315,234,351,116,-377,84
107572,162,378,311,-1168,98,451,-81,532,-29,-101,482,305,383,62,-626,430,349,76,14,-30,-47,279,416,204,222,-47,294,204,279,-36,-578,15
