,Fp1,Fp2,F7,F3,Fz,F4,F8,FC5,FC1,FC2,FC6,T7,C3,Cz,C4,T8,TP9,CP5,CP1,CP2,CP6,TP10,P7,P3,Pz,P4,P8,PO9,O1,Oz,O2,PO10
158905,241,306,179,-111,-131,213,285,250,-102,-228,230,-95,135,-13,557,175,-61,106,-36,59,240,286,431,151,137,247,390,149,333,194,198,142
158906,253,323,210,-109,-130,229,305,277,-101,-231,221,-93,164,-16,560,219,-62,103,-33,72,275,289,428,159,143,260,404,157,346,209,230,155
158907,261,360,200,-97,-106,232,333,284,-77,-211,264,-102,160,-7,588,265,-64,111,-22,104,308,330,433,164,158,285,443,202,361,210,241,182
158908,270,360,206,-96,-99,240,332,274,-70,-223,275,-99,155,-12,591,258,-67,109,-16,102,298,360,427,154,165,286,440,180,346,172,200,165
158909,276,351,217,-87,-100,245,307,295,-60,-226,269,-99,164,-5,597,211,-47,119,1,100,291,307,420,157,157,275,425,172,338,189,188,153
158910,290,380,205,-62,-102,224,283,298,-56,-249,249,-99,178,-25,566,183,-55,104,-13,79,258,284,405,160,144,253,400,185,348,172,182,142
158911,272,352,224,-52,-98,218,274,333,-32,-257,225,-95,199,-19,544,146,-78,128,-26,55,254,265,399,148,126,246,361,137,317,153,155,92
158912,294,355,248,-38,-74,225,270,323,-25,-252,227,-114,208,-23,555,177,-89,128,-8,70,262,269,372,147,137,238,381,96,274,143,145,96
158913,264,331,189,-56,-95,223,240,294,-38,-234,224,-139,201,-24,537,188,-124,100,0,57,242,326,372,138,131,238,393,124,272,134,163,151
158914,226,320,152,-63,-98,203,245,318,-43,-239,207,-140,189,-27,507,150,-109,104,-13,17,220,293,395,150,116,192,336,155,292,112,131,96
158915,201,297,124,-76,-107,216,238,297,-51,-240,215,-171,174,-54,497,116,-129,75,-31,-11,170,239,361,136,83,155,299,89,267,61,69,44
158916,198,306,126,-86,-112,231,242,295,-42,-234,228,-150,156,-57,520,124,-126,59,-50,-17,175,173,336,102,72,139,290,65,214,20,22,13
158917,213,325,134,-75,-103,235,257,292,-36,-237,230,-162,153,-29,523,126,-127,58,-53,4,174,196,314,88,76,141,277,35,215,20,38,11
158918,237,341,147,-60,-72,264,315,298,-24,-217,227,-162,159,-36,524,146,-131,47,-60,12,173,268,324,96,69,148,297,22,194,16,52,58
158919,246,339,182,-51,-80,261,267,301,-61,-228,234,-169,126,-36,508,149,-152,46,-82,-15,166,248,324,81,53,130,298,37,182,-5,40,41
158920,228,343,157,-57,-95,245,262,285,-73,-246,222,-173,108,-40,499,127,-160,35,-80,-26,169,222,321,60,26,116,272,3,168,-3,4,-14
158921,256,376,187,-47,-76,260,296,291,-51,-238,252,-157,124,-36,533,172,-153,43,-63,3,207,280,344,69,67,138,311,21,177,-5,45,37
158922,223,395,207,-40,-75,178,292,284,-56,-260,245,-171,121,-50,535,175,-138,28,-77,7,214,294,343,72,80,153,316,36,198,16,73,26
158923,217,399,198,-36,-77,188,315,289,-49,-247,253,-170,135,-51,543,179,-119,42,-69,20,229,276,349,74,80,171,298,63,213,27,80,26
158924,242,372,160,-50,-66,270,304,273,-56,-247,258,-185,134,-44,545,174,-128,39,-59,28,225,282,355,60,83,168,298,79,178,19,76,20
158925,263,365,182,-49,-66,257,273,279,-48,-248,244,-171,146,-31,544,190,-134,55,-41,41,223,272,355,61,82,195,316,52,180,22,74,27
158926,258,349,163,-67,-88,237,265,270,-66,-260,232,-187,125,-46,524,177,-131,50,-60,36,214,274,354,85,73,193,305,62,207,32,60,25
158927,262,357,178,-51,-66,239,262,287,-55,-251,203,-174,144,-51,521,151,-96,75,-38,28,205,249,383,96,95,169,290,117,214,24,54,-24
158928,244,348,183,-43,-80,232,246,313,-46,-248,200,-180,177,-44,518,133,-119,70,-27,43,204,217,385,122,113,179,281,111,250,55,100,0
158929,245,344,200,-21,-68,242,248,359,-28,-253,223,-201,180,-30,529,141,-122,73,-19,44,219,242,388,148,132,209,305,119,282,89,141,59
158930,252,371,193,-23,-49,234,244,354,-8,-242,204,-193,188,-30,522,139,-105,83,-12,35,205,219,396,147,143,209,293,145,272,61,94,8
158931,235,359,148,-26,-76,218,195,337,-32,-263,160,-194,176,-58,477,106,-139,74,-45,1,161,151,363,110,103,182,254,116,238,51,56,-68
158932,251,330,144,-8,-55,208,174,334,-7,-266,161,-206,180,-52,476,80,-178,62,-54,4,155,159,328,103,92,183,255,70,222,35,65,-42
158933,237,298,108,-49,-74,191,137,290,-31,-281,125,-246,149,-76,452,34,-229,32,-70,-42,118,87,282,80,50,148,211,74,216,29,46,-36
158934,242,296,74,-42,-66,199,147,271,-32,-268,150,-254,154,-68,448,42,-249,18,-69,-57,115,34,248,70,32,129,168,-24,172,-13,-8,-137
158935,237,299,60,-28,-55,206,167,244,-20,-271,173,-262,154,-60,457,35,-240,4,-84,-49,114,48,216,29,19,109,152,-130,86,-76,-53,-195
158936,252,309,83,-46,-70,205,170,225,-45,-277,182,-266,140,-66,460,26,-259,-4,-82,-39,123,87,216,26,26,100,166,-88,96,-84,-70,-176
158937,238,294,76,-36,-62,209,163,253,-24,-278,170,-255,165,-56,454,-9,-219,21,-64,-19,130,41,251,58,49,124,164,19,157,-57,-52,-169
158938,244,283,74,-33,-49,225,155,278,-31,-280,161,-265,168,-42,461,-17,-225,32,-70,-5,100,11,252,61,56,125,152,-20,144,-57,-29,-155
158939,235,283,78,-28,-60,207,146,257,-29,-293,136,-283,145,-54,462,-56,-261,11,-95,-23,81,-10,213,33,42,83,104,-151,60,-96,-87,-205
158940,187,240,39,-39,-66,165,119,223,-52,-296,100,-321,123,-66,429,-131,-296,-22,-101,-46,61,-33,161,4,35,88,87,-179,25,-112,-85,-209
158941,208,266,21,-23,-52,198,124,215,-48,-291,82,-331,133,-58,430,-113,-274,-11,-89,-38,61,-83,195,20,40,89,95,-129,49,-116,-83,-219
158942,225,311,53,-8,-38,226,112,222,-32,-275,70,-308,137,-53,436,-79,-297,0,-95,-26,47,-91,176,23,25,71,68,-166,49,-116,-75,-207
158943,252,359,48,-18,-24,204,99,232,-37,-270,78,-310,127,-63,426,-47,-308,-8,-89,-29,39,-49,184,5,26,60,65,-181,46,-120,-86,-248
158944,252,373,56,-32,-38,135,99,220,-67,-298,75,-301,115,-74,424,-44,-310,-11,-95,-39,49,-68,194,17,22,63,57,-141,53,-119,-112,-286
158945,248,352,85,-24,-27,179,118,243,-37,-278,65,-261,135,-56,444,-30,-302,4,-68,-31,76,-62,225,44,36,93,107,-90,78,-85,-88,-219
158946,221,301,53,-16,-26,195,113,253,-18,-284,54,-244,165,-52,446,-32,-256,62,-35,-27,91,-50,264,72,77,116,104,-16,137,-45,-33,-210
158947,181,259,12,-57,-49,175,66,205,-27,-293,41,-282,158,-60,418,-62,-289,43,-42,-27,74,-22,243,66,65,107,91,-90,116,-51,-19,-209
158948,192,256,10,-59,-60,185,70,207,-6,-269,49,-303,135,-48,436,-37,-308,3,-57,-21,82,-13,213,51,53,108,117,-186,93,-77,-23,-171
158949,182,266,13,-55,-61,180,74,224,-9,-296,66,-314,118,-53,428,-43,-318,-2,-79,-47,67,-36,215,38,46,111,137,-115,113,-60,-10,-194
158950,209,265,7,-36,-54,173,49,233,-12,-308,68,-291,127,-74,421,-34,-305,10,-85,-40,93,-29,243,48,42,122,141,-49,155,-3,16,-168
158951,211,290,17,-38,-29,115,74,242,13,-302,62,-290,126,-62,425,2,-288,11,-88,-32,124,40,262,59,55,144,192,-62,194,87,92,-64
158952,192,277,27,-8,-43,137,73,269,12,-320,46,-297,135,-87,407,0,-314,22,-84,-66,112,39,235,72,49,131,197,-118,197,84,127,-54
158953,244,307,92,8,-35,204,96,294,27,-324,71,-274,178,-96,430,24,-255,59,-62,-44,135,86,302,133,79,160,219,-32,251,116,130,-52
158954,269,336,100,10,-33,205,159,301,36,-304,120,-237,185,-81,458,58,-190,73,-44,-32,164,145,345,167,107,188,263,29,317,173,163,1
158955,291,369,79,27,-28,213,210,319,24,-294,165,-207,197,-73,469,105,-144,93,-13,-15,182,125,382,182,126,213,300,107,393,236,213,21
158956,343,394,171,53,-17,242,236,360,24,-290,172,-162,214,-63,484,114,-118,113,-3,-2,216,114,438,221,157,252,315,155,441,298,265,26
158957,303,356,176,43,-19,229,209,358,20,-299,163,-173,220,-52,492,118,-144,114,19,26,227,184,441,233,185,300,354,149,450,320,329,111
158958,283,350,131,-27,-35,221,186,313,32,-297,153,-162,215,-30,520,112,-165,116,13,39,227,131,409,237,198,315,363,136,440,317,339,122
158959,262,344,109,-68,-59,230,209,301,7,-279,153,-163,191,-26,507,113,-175,109,14,45,234,120,397,216,203,294,356,120,435,308,327,106
158960,273,347,150,-8,-46,219,194,315,11,-274,155,-166,222,-13,522,85,-152,138,51,50,239,126,425,257,213,294,322,118,421,283,323,68
158961,310,342,182,38,-46,222,196,339,12,-268,171,-117,243,11,545,103,-116,183,59,62,256,126,470,305,243,321,356,207,495,334,357,118
158962,335,372,186,52,-37,222,206,362,28,-258,192,-94,252,19,557,117,-83,218,86,106,276,167,515,339,302,351,399,258,543,391,416,162
158963,311,347,166,20,-52,190,170,321,13,-280,155,-104,228,8,543,113,-84,209,84,110,261,140,485,326,286,332,362,149,487,342,353,116
158964,286,347,138,0,-58,187,164,289,-4,-278,184,-101,236,-1,556,121,-73,217,74,114,266,166,495,333,268,332,379,141,458,319,316,135
158965,243,326,127,-19,-73,183,165,312,-14,-297,202,-94,244,8,552,108,-62,226,95,105,267,117,496,329,275,317,366,131,453,290,300,98
158966,262,304,130,-11,-101,187,166,314,8,-288,204,-115,253,43,533,66,-64,213,88,83,243,78,482,300,260,311,335,136,441,274,270,94
158967,264,305,125,-15,-93,155,165,313,11,-271,181,-124,238,31,531,39,-84,202,63,85,216,108,471,293,235,298,328,137,422,255,237,91
158968,283,311,114,-35,-90,100,166,321,17,-282,153,-124,233,18,526,26,-113,177,47,71,196,94,461,272,214,266,326,136,398,207,223,60
158969,282,280,88,-48,-114,173,152,312,-4,-286,160,-178,216,0,511,36,-172,124,23,32,192,115,383,226,180,245,326,95,340,155,178,39
158970,253,287,60,-26,-102,194,182,297,0,-284,172,-218,209,4,519,54,-178,106,28,47,199,113,370,221,180,223,308,85,297,130,151,17
158971,213,276,12,-54,-124,176,160,265,-6,-291,140,-233,198,-23,507,45,-190,107,-9,38,172,121,353,187,170,199,308,61,292,125,147,26
158972,209,289,-9,-67,-104,187,174,234,8,-287,107,-234,181,0,514,52,-213,87,-11,16,169,140,340,170,143,214,341,43,275,103,145,54
158973,222,291,9,-47,-87,167,202,231,11,-285,129,-245,176,-11,496,44,-192,75,-3,9,171,150,330,142,118,200,342,46,290,89,154,63
158974,261,297,55,-25,-94,193,200,258,1,-289,136,-225,176,-16,474,25,-184,79,-10,-6,161,149,344,129,122,191,347,77,274,62,120,55
158975,254,287,58,-68,-108,172,169,234,3,-287,107,-231,154,-5,461,9,-168,84,-23,-30,139,134,337,116,90,179,334,63,255,38,109,62
158976,257,276,77,-57,-111,152,144,241,-7,-266,88,-221,180,2,464,10,-169,88,-26,-13,147,143,315,112,96,170,317,32,243,12,109,68
158977,296,297,105,-61,-116,166,136,236,-20,-284,92,-230,157,-2,451,-65,-192,68,-47,-33,120,118,292,87,62,149,287,1,201,-5,72,43
158978,289,282,102,-79,-127,149,103,214,-37,-307,91,-265,130,-25,452,-145,-223,48,-74,-45,77,97,274,64,34,115,269,-16,169,-28,42,31
158979,275,322,132,-55,-142,160,112,220,-30,-284,108,-253,132,-2,478,-112,-238,30,-84,-17,104,76,252,48,29,112,254,-12,155,-50,25,8
158980,289,326,153,-46,-130,154,90,235,-17,-284,125,-244,133,-12,477,-50,-225,36,-77,-17,127,102,272,33,34,118,252,1,153,-31,31,21
158981,291,297,144,-64,-107,157,109,228,-43,-282,135,-257,138,-6,483,2,-242,35,-88,-11,126,126,262,40,41,121,279,6,170,-22,23,25
158982,342,335,181,-36,-90,191,155,261,-25,-276,137,-248,147,-3,501,52,-249,42,-63,12,155,125,269,69,40,142,308,17,180,-3,38,33
158983,350,357,174,-48,-96,198,151,282,-30,-284,133,-242,172,-17,491,78,-231,61,-58,2,172,161,302,75,62,163,305,44,208,22,62,42
158984,355,391,200,-29,-85,205,160,318,-15,-260,162,-182,210,5,520,94,-171,105,-18,33,216,207,345,116,91,201,337,53,236,71,114,73
158985,353,442,212,-30,-88,225,227,366,-16,-231,192,-147,198,27,555,125,-141,140,0,62,231,240,367,162,132,227,366,98,265,110,137,100
158986,334,407,189,-49,-137,190,230,357,-37,-255,178,-163,196,-22,550,117,-163,136,-4,38,200,214,358,147,103,197,335,101,269,79,104,40
158987,341,411,193,-30,-123,199,271,345,-29,-261,196,-159,220,-20,549,122,-157,141,9,40,202,209,374,162,110,194,324,88,269,77,128,60
158988,352,444,188,-23,-108,229,305,369,-6,-241,221,-162,233,-9,540,108,-160,160,13,47,196,184,366,164,111,194,308,76,260,61,103,40
158989,302,403,163,-49,-117,224,285,342,-6,-248,194,-172,217,-13,520,80,-180,144,0,3,159,178,351,150,98,167,288,85,274,59,77,26
158990,274,367,137,-63,-119,202,255,324,-18,-256,193,-209,206,-31,496,53,-208,106,-26,6,118,166,337,139,83,134,276,65,268,64,63,13
158991,262,338,110,-84,-112,190,238,308,-21,-267,188,-220,177,-29,508,38,-217,93,-36,19,122,162,312,119,71,123,252,19,211,5,29,-20
158992,219,299,70,-92,-123,172,192,274,-25,-273,147,-236,161,-13,486,18,-235,87,-24,2,119,125,304,118,69,85,191,7,183,-19,3,-79
158993,208,283,43,-108,-119,113,131,236,-42,-296,112,-263,140,-28,442,-29,-254,72,-56,-30,84,91,282,89,59,83,173,-21,169,-36,-24,-108
158994,164,254,18,-130,-134,57,87,240,-42,-309,106,-270,136,-18,432,-38,-265,64,-72,-14,79,72,279,77,59,83,143,-1,189,-20,-34,-119
158995,142,251,10,-115,-144,129,82,198,-44,-296,118,-283,137,-24,431,-41,-293,62,-56,-24,86,68,264,73,62,83,151,-40,164,-9,-60,-145
158996,140,247,7,-122,-141,114,46,150,-47,-311,91,-300,127,-20,440,-49,-296,37,-43,-27,73,53,260,75,74,106,173,-69,155,-18,-74,-144
158997,168,231,3,-146,-142,111,32,139,-54,-316,37,-301,126,11,425,-31,-285,53,-21,-3,77,74,286,106,95,133,182,-23,201,26,-75,-114
158998,152,234,2,-165,-164,123,52,133,-54,-318,74,-299,151,24,449,-14,-273,71,12,11,117,96,301,132,132,149,221,-10,205,40,-36,-65
158999,144,240,-5,-157,-171,99,72,141,-67,-323,81,-273,157,23,473,-16,-214,98,18,38,140,111,391,159,163,190,241,0,209,46,16,-37
159000,173,227,-19,-134,-161,105,52,147,-72,-319,53,-280,165,25,461,-32,-199,116,23,54,144,84,421,168,179,191,251,-85,183,23,-12,-44
159001,192,226,-3,-119,-151,110,48,155,-65,-330,55,-310,167,22,459,-14,-269,87,13,51,126,37,335,153,164,175,223,-73,173,-4,-35,-102
159002,202,268,25,-95,-129,144,58,210,-39,-306,81,-293,183,13,478,-13,-293,81,21,30,125,66,287,141,149,164,228,-55,181,11,-26,-113
159003,194,268,11,-108,-152,146,52,210,-49,-300,93,-349,151,-7,473,-37,-362,21,-33,23,112,48,222,79,112,136,195,-75,151,3,-49,-116
159004,165,264,-16,-130,-124,146,54,191,-62,-288,97,-381,120,-13,468,-44,-399,-9,-74,-10,77,8,161,46,80,76,151,-74,110,-32,-123,-140
159005,169,254,-25,-113,-133,151,35,192,-62,-284,95,-402,86,-19,456,-63,-416,-45,-88,-32,54,-33,116,0,36,52,133,-122,79,-81,-151,-180
159006,143,235,-51,-130,-148,120,4,154,-67,-300,62,-423,85,-24,434,-76,-441,-73,-108,-61,28,-80,89,-33,10,25,84,-170,34,-130,-185,-214
159007,125,202,-93,-136,-147,103,-25,129,-51,-310,15,-461,77,-28,423,-127,-463,-91,-129,-61,-4,-60,88,-40,-7,0,53,-173,45,-150,-198,-239
159008,109,178,-103,-149,-164,90,-43,151,-58,-328,-5,-482,41,-35,415,-157,-486,-97,-150,-73,-14,-84,64,-67,-31,3,35,-181,13,-170,-204,-251
159009,80,135,-122,-168,-178,86,-58,151,-69,-325,0,-533,34,-43,397,-149,-523,-144,-175,-91,-5,-102,32,-73,-41,2,47,-219,-16,-199,-237,-249
159010,106,165,-119,-161,-148,95,-50,143,-68,-324,3,-517,21,-43,393,-132,-536,-131,-163,-100,-2,-63,54,-68,-38,-5,60,-200,4,-189,-232,-244
159011,88,156,-98,-147,-126,89,-50,121,-52,-320,-21,-477,43,-37,394,-120,-498,-96,-148,-84,20,-62,83,-57,-38,11,63,-131,25,-188,-228,-252
159012,73,133,-112,-163,-140,59,-90,100,-67,-346,-54,-503,46,-46,369,-168,-523,-133,-173,-97,-16,-120,59,-88,-66,-22,26,-194,-20,-231,-272,-329
159013,62,128,-111,-151,-129,46,-117,113,-68,-343,-58,-492,55,-55,374,-168,-508,-125,-166,-89,-4,-113,94,-67,-58,-26,35,-175,0,-216,-267,-314
159014,56,123,-110,-161,-151,4,-136,89,-74,-361,-79,-488,32,-57,376,-170,-481,-122,-171,-84,-2,-116,76,-78,-41,-11,51,-199,0,-201,-248,-303
159015,90,146,-107,-164,-125,38,-123,95,-44,-345,-74,-518,29,-51,384,-195,-449,-136,-154,-80,7,-104,53,-103,-27,-5,35,-258,-39,-218,-254,-308
159016,74,125,-150,-179,-136,7,-142,51,-77,-357,-72,-546,23,-70,372,-237,-480,-138,-165,-87,8,-125,49,-92,-35,3,34,-236,-26,-207,-271,-303
159017,44,111,-175,-196,-143,-40,-173,4,-102,-360,-58,-545,11,-74,365,-245,-504,-125,-160,-90,-2,-144,44,-94,-31,9,24,-235,-15,-201,-263,-324
159018,56,109,-166,-206,-152,45,-161,18,-92,-346,-61,-509,34,-49,394,-215,-491,-118,-161,-87,1,-173,58,-89,-30,-1,5,-241,-20,-191,-236,-322
159019,53,119,-147,-207,-146,40,-141,10,-103,-340,-87,-500,35,-25,370,-204,-485,-132,-142,-87,6,-138,71,-62,-17,5,19,-198,3,-186,-206,-288
159020,40,82,-156,-216,-134,33,-151,16,-95,-327,-70,-462,36,-21,376,-205,-461,-119,-123,-77,13,-135,108,-42,-10,28,30,-197,29,-163,-196,-276
159021,9,93,-163,-182,-133,44,-159,33,-93,-323,-34,-442,39,-26,378,-199,-451,-97,-111,-87,9,-161,127,-43,-6,27,53,-169,56,-138,-191,-240
159022,15,98,-166,-168,-129,40,-163,44,-90,-320,-26,-455,33,-34,359,-181,-454,-94,-124,-106,-12,-129,118,-57,-16,2,59,-180,50,-145,-185,-257
159023,54,130,-156,-169,-114,63,-165,54,-73,-316,-55,-468,41,-42,358,-175,-438,-95,-132,-109,-9,-108,112,-41,-18,-7,47,-175,76,-125,-206,-253
159024,70,120,-168,-147,-116,76,-164,70,-71,-330,-99,-470,58,-44,331,-185,-438,-78,-119,-107,-37,-134,124,-30,-12,7,54,-159,65,-107,-214,-255
159025,64,82,-180,-138,-127,55,-167,93,-64,-320,-104,-444,58,-42,331,-187,-452,-60,-115,-105,-57,-162,116,-18,-7,-3,31,-155,77,-88,-202,-270
159026,84,102,-150,-134,-128,67,-137,99,-59,-322,-111,-459,71,-29,346,-199,-474,-81,-131,-112,-65,-156,104,-30,-24,-37,-2,-163,86,-104,-200,-283
159027,65,101,-185,-157,-124,74,-114,78,-53,-315,-112,-474,59,-34,340,-221,-489,-108,-152,-125,-65,-180,94,-64,-46,-48,-7,-196,52,-146,-213,-302
159028,75,134,-177,-162,-128,69,-99,74,-49,-314,-92,-484,21,-60,327,-216,-490,-137,-166,-134,-62,-190,56,-63,-58,-40,3,-240,1,-186,-243,-281
159029,82,140,-167,-129,-139,67,-85,56,-59,-345,-87,-504,-7,-60,335,-234,-515,-161,-192,-161,-58,-181,28,-111,-57,-39,15,-240,15,-163,-204,-240
159030,141,177,-120,-142,-113,11,-39,90,-43,-351,-61,-480,-3,-40,360,-251,-498,-152,-171,-129,-20,-149,44,-108,-36,-8,39,-227,16,-117,-169,-256
159031,216,272,-56,-101,-74,41,26,145,-25,-327,10,-418,29,-29,404,-179,-454,-113,-142,-87,19,-108,72,-49,-4,41,85,-194,50,-65,-124,-220
159032,196,304,-41,-91,-80,152,92,142,-62,-323,65,-396,40,-49,441,-115,-428,-89,-138,-75,65,-71,97,-33,29,69,136,-166,84,-32,-85,-180
159033,207,297,-36,-100,-83,168,110,145,-69,-309,77,-385,41,-48,461,-36,-403,-78,-109,-63,116,-3,128,-16,38,123,203,-124,102,0,-59,-97
159034,210,314,-19,-114,-87,168,123,159,-66,-311,106,-376,37,-37,489,27,-380,-68,-99,-48,148,-1,159,-1,53,150,244,-124,112,-2,-44,-79
159035,179,319,-61,-131,-95,164,112,125,-79,-321,135,-407,52,-42,475,45,-383,-56,-95,-40,163,49,176,8,75,167,264,-121,155,45,16,-47
159036,198,304,-56,-138,-108,76,75,127,-83,-306,125,-403,71,-54,472,46,-357,-47,-97,-26,185,89,205,35,87,175,306,-63,199,69,38,11
159037,193,278,-36,-148,-119,134,68,133,-97,-310,112,-395,51,-40,479,12,-367,-47,-104,-19,178,51,167,39,77,151,286,-105,159,37,21,-36
159038,174,271,-52,-155,-119,153,69,127,-98,-306,92,-389,52,-44,478,36,-369,-33,-96,-44,164,48,191,49,77,171,274,-86,195,56,32,-19
159039,167,269,-69,-152,-114,157,94,134,-98,-300,81,-372,61,-39,463,50,-349,-14,-73,-42,170,86,231,89,97,166,284,-22,217,79,40,3
159040,205,295,-34,-126,-115,177,135,168,-84,-290,123,-324,84,-47,467,58,-302,2,-58,-31,174,63,250,90,93,162,276,-32,211,44,35,-30
159041,271,363,31,-110,-83,211,164,261,-54,-267,150,-279,127,-45,493,87,-276,43,-48,-16,184,75,283,113,97,191,302,-26,212,29,44,-24
159042,310,389,75,-113,-66,231,183,294,-56,-267,151,-268,117,-43,497,83,-252,60,-77,-20,180,90,307,114,91,171,325,43,242,70,55,14
159043,350,408,132,-45,-70,237,187,315,-47,-275,142,-236,128,-28,508,88,-208,85,-60,-10,203,94,353,127,110,166,339,56,247,93,67,29
159044,316,373,139,-30,-89,238,174,328,-52,-289,138,-219,142,-30,497,74,-196,76,-62,-5,188,87,335,129,130,177,318,22,249,100,72,20
159045,323,366,138,-30,-76,212,185,314,-50,-300,152,-218,140,-18,510,91,-183,71,-63,0,176,118,334,115,121,187,322,46,253,107,93,50
159046,321,372,165,-19,-66,198,175,338,-32,-289,148,-225,138,-7,509,103,-153,77,-63,15,200,142,348,96,115,187,350,75,244,113,93,67
159047,316,360,149,-30,-86,170,171,340,-33,-295,136,-211,146,-42,515,89,-143,66,-69,3,197,141,356,79,101,190,353,83,237,100,110,62
159048,346,410,182,-7,-79,183,209,324,-34,-295,183,-176,174,-14,551,123,-109,97,-37,37,236,184,396,112,132,210,392,126,297,147,148,105
159049,372,427,218,2,-66,207,235,313,-48,-295,213,-149,188,-11,560,115,-86,128,-20,52,274,222,430,132,158,271,444,151,324,183,196,163
159050,378,437,235,-22,-68,198,274,302,-53,-279,229,-100,196,-12,592,122,-49,157,-18,92,305,271,462,170,189,314,501,176,375,253,261,242
159051,365,419,216,-41,-74,233,262,304,-59,-255,257,-122,185,-18,637,171,-32,165,-6,92,337,322,462,190,197,341,531,202,404,279,298,294
159052,350,411,182,-50,-70,243,259,279,-62,-260,243,-113,183,-22,634,230,-38,186,-9,75,342,341,464,193,210,345,550,224,428,266,292,297
159053,335,399,169,-69,-85,219,274,288,-55,-261,224,-85,203,-5,604,219,-3,223,14,75,317,268,543,215,211,314,501,218,421,234,238,188
159054,311,403,122,-127,-90,201,254,273,-96,-273,214,-119,186,-12,587,236,-32,192,4,57,321,307,566,211,202,297,499,111,377,227,209,221
