,Fp1,Fp2,F7,F3,Fz,F4,F8,FC5,FC1,FC2,FC6,T7,C3,Cz,C4,T8,TP9,CP5,CP1,CP2,CP6,TP10,P7,P3,Pz,P4,P8,PO9,O1,Oz,O2,PO10
53757,15,-22,338,8,-117,-336,207,314,-160,-45,275,272,332,-74,244,363,46,29,14,-38,240,280,337,21,52,87,90,224,288,-21,-129,121
53758,-13,-7,334,-5,-116,-325,238,336,-173,-42,317,306,320,-85,265,380,73,65,16,-27,263,331,356,16,59,112,122,234,294,7,-89,149
53759,-65,-62,313,-19,-144,-349,220,330,-184,-63,273,279,313,-95,250,378,89,38,0,-35,238,338,361,33,68,83,107,250,303,28,-96,156
53760,-105,-82,322,-14,-155,-348,241,300,-165,-76,218,254,294,-91,214,333,18,-7,-5,-58,197,310,319,-8,61,57,80,185,244,-15,-125,116
53761,-92,-151,309,0,-141,-368,256,299,-138,-68,187,283,324,-79,212,298,30,19,2,-54,192,289,376,22,84,49,69,316,315,41,-79,144
53762,-71,-186,274,-18,-160,-392,233,322,-149,-72,147,285,307,-74,196,264,26,10,-9,-56,163,257,379,10,66,57,38,309,303,31,-71,120
53763,-50,-188,272,-44,-175,-375,191,310,-173,-70,157,293,309,-72,162,201,46,20,3,-61,149,204,379,14,74,61,12,314,315,34,-70,99
53764,-68,-186,240,-69,-174,-379,133,286,-178,-77,189,273,307,-71,175,131,75,26,21,-51,153,205,401,52,85,64,-1,411,367,84,-43,104
53765,-71,-134,264,-57,-143,-348,143,269,-175,-44,188,266,315,-60,188,141,52,45,3,-42,144,191,406,59,82,78,13,392,385,102,-49,103
53766,-76,-148,249,-69,-132,-342,151,263,-170,-40,219,256,311,-48,201,201,18,21,17,-42,186,205,365,49,90,92,47,303,364,72,-82,115
53767,-108,-194,242,-92,-148,-364,141,260,-163,-43,194,247,291,-48,197,234,33,11,22,-32,192,242,345,47,97,90,43,276,343,54,-89,94
53768,-141,-209,208,-116,-164,-367,130,224,-196,-61,201,215,268,-75,178,253,0,-11,5,-49,181,212,315,19,90,95,44,187,330,30,-84,77
53769,-139,-202,170,-123,-177,-390,126,195,-193,-80,216,196,265,-66,197,270,-6,-34,5,-53,208,238,291,-3,86,108,59,87,290,28,-66,84
53770,-151,-193,187,-114,-180,-385,121,200,-180,-67,202,190,263,-72,209,278,-4,-38,-6,-40,229,263,270,-1,81,119,75,43,257,49,-61,96
53771,-187,-203,152,-143,-195,-389,136,187,-198,-54,194,163,238,-77,210,279,-31,-55,-20,-34,233,236,246,-20,72,128,67,57,242,10,-89,86
53772,-215,-170,133,-142,-197,-372,160,154,-201,-61,202,164,226,-78,225,259,-39,-59,-21,-30,251,222,245,-20,99,156,80,89,272,13,-86,83
53773,-182,-188,130,-139,-190,-385,176,163,-193,-52,206,171,255,-54,231,210,-27,-34,-1,11,260,241,288,7,123,180,96,182,312,78,-15,106
53774,-224,-236,103,-150,-181,-398,146,177,-182,-60,184,150,263,-57,228,182,-72,-28,1,-3,259,259,307,19,117,157,90,260,327,88,-8,109
53775,-272,-234,95,-136,-192,-395,132,166,-179,-67,194,148,256,-64,245,176,-65,-45,0,-20,241,235,302,8,97,141,52,267,309,52,-50,93
53776,-237,-192,93,-147,-206,-425,166,206,-176,-72,187,188,281,-59,243,225,-2,-29,-1,-25,246,227,343,27,129,163,62,369,344,73,-36,81
53777,-191,-171,89,-152,-201,-470,154,177,-189,-79,197,179,260,-89,228,236,-27,-23,-4,-11,255,205,342,30,134,158,51,406,380,104,-5,94
53778,-190,-156,123,-141,-178,-451,167,165,-184,-63,235,147,250,-71,259,216,-92,-61,-13,-15,262,212,252,-7,114,148,83,106,262,55,-41,123
53779,-192,-125,125,-144,-173,-457,199,179,-195,-53,259,150,237,-83,270,232,-91,-91,-31,-17,248,217,235,-29,85,126,53,11,190,-45,-110,71
53780,-182,-103,130,-118,-172,-358,237,207,-206,-49,293,182,227,-84,268,273,-62,-90,-41,-33,243,256,218,-47,57,113,44,-38,140,-105,-140,54
53781,-185,-139,134,-126,-190,-338,234,210,-190,-52,310,184,244,-84,274,294,-29,-68,-37,-26,252,264,249,-18,76,120,83,39,204,-36,-75,107
53782,-173,-142,146,-115,-169,-345,236,211,-177,-59,322,198,270,-67,274,336,-10,-40,-17,-10,245,179,273,-6,80,120,106,147,276,6,-65,147
53783,-173,-151,140,-109,-168,-354,203,224,-173,-60,257,182,284,-58,258,302,-1,-25,-7,-9,225,255,271,3,85,123,85,165,261,0,-58,171
53784,-192,-158,127,-125,-161,-347,201,208,-184,-58,235,160,268,-72,264,279,-31,-38,-5,-18,232,262,239,-15,75,109,69,145,261,3,-51,150
53785,-214,-167,132,-138,-157,-320,198,212,-176,-31,275,150,277,-68,257,243,-36,-66,-19,-38,226,255,258,-11,74,115,75,159,272,28,-35,120
53786,-267,-209,107,-121,-155,-321,182,199,-160,-23,276,152,249,-66,262,210,-68,-71,-15,-14,242,254,258,-13,99,143,110,138,287,75,13,168
53787,-245,-237,138,-98,-161,-333,175,193,-168,-37,236,141,264,-71,253,195,-115,-71,-14,-22,253,296,212,-20,110,162,118,4,257,71,40,200
53788,-226,-254,111,-130,-169,-338,163,172,-177,-32,204,134,251,-70,241,218,-130,-81,-13,-18,242,266,187,-13,133,162,121,-6,251,65,49,174
53789,-218,-254,75,-137,-173,-363,128,160,-170,-32,190,144,254,-56,246,216,-121,-77,0,9,226,218,202,5,147,181,122,80,286,101,93,177
53790,-221,-254,68,-158,-210,-410,74,132,-201,-41,150,93,238,-57,217,192,-167,-109,1,10,187,177,191,-13,128,175,117,100,294,133,101,170
53791,-245,-250,59,-170,-216,-400,86,130,-185,-41,164,70,239,-49,217,203,-115,-125,7,-2,212,198,203,-18,129,182,111,170,329,181,133,202
53792,-270,-269,56,-169,-219,-397,71,120,-185,-40,145,76,234,-50,219,190,-140,-117,-5,-29,207,200,171,-16,130,182,100,152,317,158,124,201
53793,-238,-243,71,-179,-203,-409,69,120,-182,-22,156,77,247,-39,221,152,-157,-110,-14,-11,203,222,154,-25,134,190,104,102,275,164,130,167
53794,-196,-194,128,-137,-165,-405,113,140,-170,-20,176,86,245,-44,227,112,-184,-100,-1,-9,214,242,134,-26,125,181,102,5,213,127,148,190
53795,-173,-174,93,-140,-184,-399,120,124,-170,-37,182,112,262,-44,235,165,-144,-79,10,-1,232,276,182,-10,145,187,113,74,267,173,182,220
53796,-164,-182,96,-130,-190,-404,131,169,-180,-25,217,135,269,-53,245,233,-132,-81,-9,-5,264,267,185,-8,153,216,161,-15,270,189,179,227
53797,-189,-210,141,-126,-205,-381,122,203,-171,-25,216,173,251,-53,255,289,-104,-53,9,16,285,248,219,18,170,229,174,22,301,203,215,234
53798,-191,-228,162,-146,-206,-366,134,202,-177,-19,219,171,276,-25,282,340,-75,-21,43,36,295,299,243,38,190,249,181,60,346,255,249,292
53799,-198,-268,156,-135,-213,-425,127,213,-173,-44,218,160,277,-26,270,290,-91,-17,49,27,286,321,262,49,188,261,201,89,373,285,263,303
53800,-233,-256,145,-142,-228,-470,113,201,-175,-44,218,180,282,-30,256,251,-62,-17,54,31,293,291,274,61,191,240,168,138,389,269,246,292
53801,-207,-251,131,-142,-231,-436,126,235,-182,-39,219,193,305,-20,266,203,-58,-11,61,18,267,265,296,63,199,237,138,205,413,266,231,263
53802,-193,-251,131,-163,-228,-451,134,233,-178,-56,209,178,309,-22,274,117,-44,-1,48,22,257,289,293,56,185,232,132,166,399,234,197,247
53803,-208,-246,135,-185,-238,-471,104,211,-169,-80,197,159,281,-30,261,119,-47,-2,30,12,255,235,270,35,180,223,135,154,369,185,169,224
53804,-252,-260,109,-157,-225,-586,55,193,-155,-102,160,144,277,-28,214,169,-102,-30,22,9,239,191,257,31,183,209,110,178,368,193,164,207
53805,-290,-287,79,-138,-224,-531,40,158,-173,-106,150,91,256,-41,205,204,-149,-66,6,4,211,216,226,-2,154,188,104,96,293,139,101,186
53806,-277,-297,117,-123,-221,-446,60,161,-161,-87,155,99,251,-14,221,267,-191,-92,18,8,226,231,179,-31,158,189,113,27,241,79,32,167
53807,-219,-230,147,-124,-220,-451,118,172,-180,-77,143,116,261,-23,210,265,-178,-79,4,15,242,239,201,-38,145,190,113,35,234,61,43,151
53808,-163,-189,161,-143,-220,-432,146,182,-178,-90,178,147,260,-23,227,246,-138,-62,14,0,244,259,231,-19,138,200,129,118,287,72,38,172
53809,-161,-172,169,-129,-216,-423,151,176,-162,-79,248,146,286,-5,247,300,-86,-35,54,40,301,291,315,41,193,253,175,323,394,149,83,235
53810,-169,-167,153,-152,-221,-424,138,193,-191,-72,254,160,298,-13,260,289,-59,-16,63,45,310,294,349,59,217,285,191,380,443,189,135,247
53811,-152,-159,163,-163,-220,-386,132,206,-182,-61,221,160,298,-34,255,286,-102,-33,56,46,294,293,267,16,187,263,167,89,325,111,68,209
53812,-164,-197,164,-150,-220,-386,149,212,-168,-56,235,175,319,-35,260,295,-63,-7,67,52,322,282,300,29,215,272,185,148,312,111,69,230
53813,-205,-220,187,-120,-220,-390,150,227,-159,-65,260,214,333,-13,286,292,3,41,88,72,353,316,385,84,243,270,219,342,386,160,113,258
53814,-197,-189,195,-117,-206,-365,197,241,-172,-59,267,205,329,-6,284,298,-61,18,73,77,354,332,303,77,228,273,210,140,337,149,99,278
53815,-118,-141,214,-101,-175,-325,238,280,-174,-27,304,229,351,0,322,280,-85,13,96,100,389,288,242,66,246,285,232,-118,263,136,85,282
53816,-130,-157,226,-84,-179,-313,256,286,-148,-28,321,254,362,14,328,160,-44,53,116,106,367,329,288,102,280,313,207,-19,330,188,151,308
53817,-159,-222,224,-110,-217,-345,215,281,-159,-47,276,259,345,6,300,142,-26,72,122,98,337,353,339,128,284,302,207,119,380,190,135,314
53818,-120,-166,255,-112,-210,-338,245,313,-169,-21,320,290,367,17,332,258,29,100,138,107,370,272,387,161,316,311,249,232,448,238,171,329
53819,-154,-145,251,-96,-201,-341,246,316,-170,-25,331,317,375,10,334,346,32,124,156,118,392,359,422,193,317,316,284,271,470,272,190,365
53820,-161,-144,262,-87,-210,-364,245,326,-130,-35,316,318,394,16,344,418,85,155,182,136,436,481,495,232,330,346,354,383,564,323,212,437
53821,-131,-161,295,-72,-204,-384,226,331,-146,-46,318,325,397,18,317,416,81,153,183,126,420,496,473,193,323,337,332,333,539,288,187,412
53822,-104,-173,297,-75,-218,-403,215,354,-160,-59,272,322,400,4,317,410,101,152,180,107,402,468,474,203,328,330,324,368,529,279,198,401
53823,-59,-149,303,-70,-200,-395,251,354,-132,-55,261,312,418,16,312,410,94,160,171,110,408,481,475,220,315,327,349,390,550,297,222,429
53824,-78,-138,276,-66,-179,-421,228,333,-129,-67,242,300,412,15,297,376,77,146,147,107,389,462,448,187,293,319,316,300,528,280,199,415
53825,-122,-190,228,-81,-197,-503,219,313,-136,-94,215,290,414,-5,276,329,79,138,155,101,362,414,481,209,301,308,304,434,588,324,209,399
53826,-135,-190,223,-89,-213,-550,201,292,-122,-102,195,263,419,-12,265,303,85,116,155,76,356,395,475,210,293,302,296,401,574,310,210,391
53827,-173,-249,192,-116,-222,-496,178,268,-141,-105,195,242,403,-8,259,265,91,120,140,63,321,376,452,189,272,280,278,324,539,285,186,375
53828,-216,-298,160,-136,-233,-498,183,257,-148,-93,215,223,394,-2,264,221,93,121,138,67,306,376,467,185,280,274,267,407,561,314,206,381
53829,-194,-265,161,-122,-212,-470,187,280,-140,-74,240,228,403,1,288,254,113,117,134,95,322,391,513,206,307,306,296,503,630,370,249,401
53830,-172,-226,190,-97,-214,-461,204,270,-158,-61,232,248,394,-8,293,297,136,119,141,103,346,397,554,230,301,328,328,556,681,419,291,444
53831,-163,-178,196,-107,-225,-446,202,258,-162,-58,242,255,384,-2,282,325,134,134,130,98,342,390,550,214,296,311,313,517,632,344,243,419
53832,-142,-108,184,-123,-209,-406,232,237,-162,-60,289,242,358,-11,309,352,117,129,129,99,351,418,527,208,285,289,308,414,540,270,204,422
53833,-152,-115,169,-148,-204,-401,261,224,-182,-15,307,217,327,-13,330,375,96,99,121,99,366,406,495,195,296,322,346,348,546,308,246,484
53834,-204,-139,134,-138,-206,-411,259,219,-186,-15,323,219,331,-1,335,372,130,82,115,103,367,378,523,208,284,326,341,432,585,324,238,426
53835,-231,-162,124,-144,-222,-466,222,207,-191,-31,316,199,317,-7,312,353,119,72,93,89,344,365,496,188,277,286,297,419,556,267,186,367
53836,-205,-230,154,-148,-226,-405,220,219,-201,-22,308,185,306,-15,314,371,86,65,84,105,356,409,482,168,281,320,312,369,542,293,210,424
53837,-172,-208,174,-116,-203,-368,251,224,-201,-17,322,187,319,4,323,371,96,78,98,110,371,412,495,182,281,341,339,414,557,303,229,440
53838,-150,-143,184,-131,-201,-371,273,222,-216,-28,269,180,298,-8,289,353,72,70,90,73,350,392,441,140,256,308,308,327,515,245,203,408
53839,-140,-92,196,-125,-197,-356,301,223,-204,-14,317,185,303,-18,283,335,15,57,66,75,350,416,415,111,234,306,310,257,476,232,153,399
53840,-155,-80,208,-114,-164,-331,325,258,-189,-21,339,216,297,-20,312,299,64,60,69,69,366,403,436,142,240,310,310,306,534,269,172,408
53841,-156,-87,157,-145,-199,-366,318,243,-191,-33,311,200,315,0,317,276,80,81,95,86,378,384,456,179,274,313,310,378,580,314,202,411
53842,-175,-100,148,-148,-205,-408,289,225,-181,-49,306,200,335,4,309,268,71,100,120,75,369,377,511,204,267,291,277,512,625,301,173,364
53843,-157,-71,191,-109,-193,-377,279,245,-182,-41,281,219,343,23,317,184,118,123,144,82,350,393,550,230,285,291,249,662,676,311,159,355
53844,-145,-113,139,-131,-191,-419,236,205,-175,-48,260,198,370,23,288,152,119,106,130,85,342,368,527,208,270,297,255,654,650,323,162,360
53845,-149,-81,141,-108,-175,-395,275,200,-175,-49,294,170,331,13,293,251,38,59,108,72,365,384,398,163,260,275,266,220,478,241,130,339
53846,-149,-81,147,-110,-184,-381,281,215,-167,-47,304,145,322,-6,306,336,-4,28,90,61,372,375,315,126,236,282,254,-45,365,158,93,312
53847,-140,-81,165,-105,-186,-375,289,207,-160,-23,328,158,332,7,312,391,31,38,93,85,391,371,386,144,258,303,269,186,455,200,105,319
53848,-145,-102,143,-121,-172,-356,311,184,-177,-8,326,129,317,6,312,433,9,39,112,97,395,414,384,160,278,313,296,227,466,222,121,341
53849,-121,-101,120,-139,-182,-416,313,171,-180,-15,327,131,318,10,310,439,27,27,112,94,403,432,375,140,272,305,291,193,429,206,120,338
53850,-118,-100,117,-179,-181,-426,330,157,-198,-18,356,148,305,9,314,417,43,36,92,87,409,431,381,124,276,295,296,246,429,200,113,325
53851,-166,-125,94,-186,-206,-362,323,147,-189,-14,332,152,285,0,309,372,22,30,80,81,374,371,413,118,260,277,242,289,448,194,87,271
53852,-213,-132,69,-162,-217,-375,310,125,-195,-12,338,132,273,-9,297,257,18,1,68,57,326,271,408,113,241,232,153,382,462,161,45,223
53853,-257,-117,65,-172,-201,-363,293,108,-208,0,353,85,258,-21,298,130,-33,-30,59,37,284,188,319,65,188,169,107,282,394,105,-19,179
53854,-267,-114,40,-181,-201,-354,270,102,-205,2,309,83,247,-3,298,117,-75,-31,61,43,268,201,315,53,209,171,102,213,363,98,-34,140
53855,-271,-191,28,-205,-223,-359,185,98,-224,-10,259,90,255,-20,267,148,-35,-13,75,45,252,213,387,110,227,193,117,391,468,166,32,196
53856,-273,-218,6,-218,-219,-373,165,86,-211,-15,250,89,273,-30,279,276,-26,-8,83,59,269,228,388,106,243,234,175,403,473,169,33,236
53857,-246,-214,0,-237,-220,-353,186,95,-208,-16,265,74,283,-24,294,352,-69,-29,89,69,307,254,330,79,235,213,188,197,376,117,28,245
53858,-196,-205,57,-214,-205,-342,195,138,-196,-14,264,96,303,-16,279,343,-51,-15,76,59,284,288,306,68,212,197,179,80,328,91,8,229
53859,-190,-204,107,-161,-207,-343,222,179,-175,-13,290,117,320,0,283,329,-2,14,104,69,285,309,332,76,229,205,158,202,369,112,-24,213
53860,-173,-149,131,-122,-196,-352,260,197,-163,-12,300,114,342,-13,282,368,44,33,117,76,299,344,393,116,245,220,181,335,439,160,11,247
53861,-144,-151,149,-107,-180,-368,263,193,-185,-27,314,155,347,-15,277,370,61,51,114,70,325,363,416,143,252,232,226,369,488,210,76,307
53862,-63,-96,217,-84,-165,-360,294,227,-160,-37,342,195,326,-6,276,362,60,43,101,51,330,350,424,145,245,250,243,289,481,218,90,339
53863,-39,-51,227,-67,-144,-392,354,247,-145,-37,346,222,353,-28,292,382,54,50,115,61,346,420,427,176,264,277,280,301,509,254,138,388
53864,-36,-32,229,-72,-126,-377,364,254,-152,-29,343,228,346,-18,311,407,64,69,132,70,357,407,439,172,263,267,280,245,477,246,129,371
53865,-21,-56,279,-60,-134,-297,371,286,-144,-22,367,267,372,-9,320,416,138,120,152,84,377,389,523,209,295,279,299,341,536,270,136,392
53866,-41,-67,262,-51,-145,-312,355,290,-148,-49,377,260,390,-15,322,415,165,132,158,94,406,494,538,243,318,308,336,444,598,308,190,436
53867,-31,-65,269,-28,-135,-304,330,292,-133,-15,418,260,403,8,361,366,209,166,187,118,429,488,594,271,333,348,343,598,679,379,256,458
53868,-65,-117,212,-72,-157,-333,274,267,-122,-32,390,266,386,10,343,267,208,159,183,121,431,414,601,277,334,330,344,642,686,368,250,444
53869,-64,-141,242,-52,-183,-324,306,288,-111,-44,361,265,404,2,318,264,183,149,168,101,399,399,581,270,327,332,329,600,667,354,216,438
53870,-116,-161,238,-64,-205,-360,288,270,-123,-34,364,218,389,-4,326,315,138,125,145,83,376,421,540,235,303,326,316,505,630,355,229,473
53871,-117,-103,205,-93,-216,-391,277,264,-133,-34,325,195,354,-23,297,380,88,90,136,66,377,410,477,194,268,322,317,384,565,286,208,424
53872,-101,-71,208,-97,-195,-469,297,234,-132,-49,297,196,352,-25,299,431,56,92,127,66,380,398,483,196,259,326,350,363,556,262,196,396
53873,-126,-119,184,-104,-198,-408,295,220,-130,-29,319,198,353,0,316,449,28,92,152,96,416,449,484,199,280,342,376,356,544,250,201,420
53874,-152,-153,193,-130,-207,-368,268,229,-151,-46,292,191,348,-15,302,412,43,88,147,71,398,422,486,187,275,311,340,372,508,242,154,403
53875,-126,-137,193,-128,-181,-368,259,223,-140,-44,280,203,352,-13,323,380,61,94,133,66,377,384,516,196,258,297,313,468,561,285,180,373
53876,-103,-106,186,-107,-176,-360,260,225,-146,-27,303,185,321,-24,310,377,48,66,126,66,372,378,494,184,244,296,293,429,560,276,167,374
53877,-111,-125,182,-106,-163,-366,250,208,-154,-23,305,169,312,-14,304,367,18,48,98,57,364,352,447,159,245,292,282,251,494,231,147,350
53878,-125,-112,156,-121,-180,-361,247,185,-180,-34,261,157,274,-31,274,325,-24,23,71,61,339,371,396,121,225,291,259,152,396,206,108,307
53879,-98,-118,172,-123,-191,-381,264,198,-186,-41,274,157,286,-29,268,319,-15,22,87,59,358,375,388,127,237,287,285,189,400,197,139,332
53880,-121,-148,160,-134,-199,-388,232,188,-188,-56,242,162,280,-42,256,301,6,34,89,44,336,366,401,128,245,253,271,264,441,202,133,289
53881,-179,-165,114,-133,-188,-381,200,210,-161,-62,246,151,306,-21,248,227,26,70,100,56,323,366,427,155,230,257,282,301,466,201,108,263
53882,-196,-176,126,-112,-191,-415,175,218,-151,-66,225,123,334,10,241,199,59,58,106,39,325,336,428,175,228,260,272,369,475,200,72,320
53883,-186,-206,102,-129,-199,-415,143,190,-143,-68,179,139,335,5,210,178,38,64,117,24,279,303,454,163,232,231,210,461,498,213,78,315
53884,-197,-277,29,-172,-213,-431,101,145,-145,-64,135,97,321,0,195,163,-28,18,98,14,238,260,404,145,204,194,151,369,458,179,55,245
53885,-207,-295,38,-155,-207,-453,53,132,-140,-69,103,52,297,-11,181,172,-132,-28,88,-13,214,234,308,84,163,162,115,129,369,97,-16,189
53886,-235,-316,25,-159,-225,-452,57,112,-159,-77,123,36,267,-1,192,173,-121,-23,77,4,235,227,321,85,163,146,94,159,324,16,-75,120
53887,-265,-354,-1,-167,-222,-496,47,125,-180,-101,148,58,261,-11,189,167,-94,-17,96,12,216,174,357,108,189,168,105,252,374,55,-39,147
53888,-253,-311,0,-161,-208,-481,34,126,-152,-83,157,70,280,-2,206,195,-87,-14,107,22,263,227,356,118,209,212,149,270,412,86,-13,207
53889,-196,-237,59,-145,-202,-478,81,142,-145,-103,172,62,279,-2,226,234,-86,-15,80,25,282,245,325,83,183,194,159,207,377,52,-28,211
53890,-181,-195,94,-123,-199,-485,88,155,-158,-121,137,96,247,-26,216,199,-77,-33,49,18,274,273,312,67,137,197,165,96,326,41,-27,228
53891,-190,-192,57,-140,-211,-460,88,158,-175,-111,152,97,259,-34,218,145,-94,-25,40,-5,274,309,293,34,124,177,171,77,275,6,-37,229
53892,-189,-216,73,-124,-222,-460,72,157,-169,-96,155,101,258,-41,211,121,-78,-8,47,-25,250,274,309,35,124,171,161,176,301,10,-14,229
53893,-198,-243,76,-143,-218,-486,46,145,-184,-106,119,77,237,-60,177,76,-114,-32,21,-37,220,186,274,0,100,133,134,140,275,6,-63,195
53894,-200,-231,73,-141,-181,-497,62,154,-164,-85,97,79,257,-59,184,77,-91,-20,27,-34,224,187,286,9,116,145,110,140,294,16,-55,203
53895,-227,-237,53,-137,-181,-553,56,148,-172,-109,49,80,243,-73,151,83,-75,-52,4,-60,203,244,285,9,95,128,68,133,288,-4,-85,178
53896,-275,-250,40,-144,-190,-462,48,151,-166,-95,118,55,267,-55,177,138,-100,-46,9,-42,231,182,278,19,95,125,99,140,292,19,-86,182
53897,-275,-259,28,-159,-193,-444,28,156,-169,-94,118,76,289,-51,177,161,-105,-22,7,-39,228,121,296,27,95,123,96,196,331,20,-89,168
53898,-253,-272,9,-182,-220,-540,-9,153,-177,-114,57,61,277,-53,161,178,-110,-38,16,-61,231,186,283,8,91,131,102,160,330,13,-90,150
53899,-231,-262,28,-175,-228,-548,-21,161,-175,-101,65,55,280,-34,167,171,-106,-35,41,-34,257,207,301,31,101,130,129,210,375,59,-51,195
53900,-243,-262,36,-181,-249,-493,-13,184,-176,-85,84,61,289,-24,197,169,-81,-27,37,-8,255,186,313,65,109,134,104,238,368,47,-78,179
53901,-281,-289,46,-182,-249,-511,-9,201,-184,-96,77,40,272,-41,186,140,-148,-52,10,-29,236,196,233,7,106,115,73,5,255,-33,-135,134
53902,-295,-306,58,-172,-243,-484,1,190,-184,-85,102,82,278,-18,194,163,-108,-25,43,-3,261,241,275,37,137,146,121,83,337,21,-73,174
53903,-284,-328,63,-165,-232,-470,34,195,-174,-85,117,127,295,-17,220,206,-74,4,87,23,280,276,352,88,174,195,150,226,411,103,8,250
53904,-264,-327,93,-166,-235,-441,32,241,-179,-77,140,164,325,-21,235,186,21,68,103,52,314,278,481,158,221,228,200,301,456,148,79,292
53905,-236,-295,124,-151,-228,-440,33,248,-162,-62,190,215,343,-10,241,218,87,106,117,57,317,282,564,177,256,260,226,217,453,174,91,321
53906,-253,-273,143,-152,-227,-451,11,267,-164,-82,173,214,359,-23,224,217,53,98,128,41,299,238,520,182,259,264,244,324,489,193,110,314
