,Fp1,Fp2,F7,F3,Fz,F4,F8,FC5,FC1,FC2,FC6,T7,C3,Cz,C4,T8,TP9,CP5,CP1,CP2,CP6,TP10,P7,P3,Pz,P4,P8,PO9,O1,Oz,O2,PO10
78882,-71,234,429,-8,-49,379,400,544,108,-53,260,392,551,-31,327,181,349,153,68,115,37,105,146,90,-543,238,326,133,200,-26,146,102
78883,13,172,465,-22,-38,365,301,538,99,-64,216,414,534,-43,322,150,296,124,37,99,36,216,92,55,-566,227,355,95,160,-46,118,50
78884,55,180,471,-25,-55,376,222,509,111,-72,176,356,494,-75,310,157,302,84,23,77,2,67,77,19,-627,197,355,108,123,-76,76,0
78885,67,180,466,-50,-36,370,277,452,103,-81,162,311,487,-74,310,168,324,65,6,75,29,11,83,0,-633,182,348,181,152,-75,112,101
78886,48,185,470,-74,-54,386,258,429,89,-103,168,268,480,-82,283,113,331,19,-14,38,-20,64,46,-48,-667,160,292,93,125,-97,51,50
78887,71,250,509,-61,-62,367,213,461,94,-108,119,267,474,-97,267,138,326,18,-22,10,-38,217,27,-56,-676,162,265,6,82,-113,25,-13
78888,65,243,500,-47,-40,365,223,490,113,-84,98,299,502,-105,272,96,335,65,3,23,-10,340,53,-17,-655,175,305,118,160,-32,94,103
78889,6,191,454,-42,-54,348,244,484,112,-93,151,301,514,-105,251,118,355,58,-2,10,-11,307,49,5,-658,182,339,118,147,-42,87,129
78890,19,173,473,-29,-53,354,282,554,120,-115,128,380,552,-109,280,226,375,72,4,18,6,336,81,12,-658,192,377,117,129,-53,71,124
78891,17,199,505,-16,-53,378,316,545,129,-100,189,449,554,-97,293,256,365,90,-10,28,26,291,84,6,-658,207,374,59,99,-69,92,145
78892,28,256,472,-6,-49,354,328,523,117,-108,220,427,549,-78,275,236,362,108,0,34,25,293,94,33,-648,203,342,134,155,-25,140,184
78893,30,253,425,-16,-66,352,403,591,124,-135,194,397,544,-104,249,250,395,93,-23,9,-13,246,113,6,-674,166,305,75,85,-100,48,124
78894,19,287,482,16,-64,352,429,618,124,-121,183,395,562,-119,243,225,429,136,-22,-8,-44,239,124,7,-683,126,258,91,82,-147,-48,-14
78895,7,267,505,12,-53,361,333,584,122,-120,232,371,558,-122,270,121,406,122,-17,9,-41,213,99,9,-679,148,247,169,141,-97,-5,31
78896,-12,269,558,11,-43,369,301,596,145,-111,250,380,559,-94,291,110,362,127,-12,14,-48,243,112,29,-660,170,252,149,147,-70,19,48
78897,47,299,598,28,-44,337,362,609,129,-109,261,401,563,-82,282,192,318,137,2,35,-24,266,124,36,-625,179,288,153,158,-96,9,40
78898,75,328,608,38,-47,338,422,606,128,-86,279,441,570,-104,278,276,332,139,9,73,11,254,143,54,-606,206,375,200,183,-82,-2,45
78899,43,279,604,20,-49,344,436,627,139,-102,168,424,578,-71,256,282,336,131,19,64,14,225,130,46,-617,213,412,151,160,-89,-2,-101
78900,6,281,567,47,-55,390,385,638,139,-94,235,399,594,-59,285,256,324,139,40,68,3,109,138,48,-621,207,347,143,161,-84,4,-57
78901,-21,271,497,9,-52,393,374,583,141,-92,350,358,594,-67,291,228,361,169,56,87,6,19,173,95,-586,213,256,257,199,-49,44,119
78902,-15,271,483,17,-46,371,390,497,134,-88,279,369,579,-52,292,367,397,169,51,101,27,-6,165,94,-583,210,263,273,155,-94,17,30
78903,28,246,493,3,-58,360,406,504,127,-102,265,348,566,-67,283,366,328,132,22,67,6,60,178,46,-579,183,246,302,147,-111,-9,44
78904,50,278,476,-16,-39,421,478,491,117,-84,308,363,557,-73,276,346,264,157,34,49,33,53,202,48,-594,191,250,274,153,-110,2,41
78905,56,346,459,-17,-36,432,556,410,105,-100,319,389,540,-64,269,319,283,136,18,43,12,77,186,24,-625,147,191,189,84,-189,-51,-86
78906,0,348,415,-51,-63,385,548,412,92,-109,271,313,509,-82,275,214,281,89,2,36,-7,158,90,-22,-645,139,150,17,32,-196,-59,14
78907,15,352,411,-59,-64,388,535,406,89,-84,245,265,504,-64,275,128,227,65,0,64,6,202,-18,-24,-626,177,188,4,77,-153,13,65
78908,49,318,427,-59,-43,403,562,391,80,-77,292,300,513,-77,294,78,190,78,-9,72,7,185,-53,-2,-649,176,176,30,99,-161,-16,-39
78909,10,266,410,-69,-74,422,563,374,80,-64,257,238,499,-67,309,117,298,58,6,92,27,170,17,12,-630,173,212,137,156,-107,19,7
78910,1,241,329,-71,-69,436,545,367,74,-67,302,163,461,-67,308,192,276,-11,-10,78,31,223,-47,-37,-673,178,261,12,56,-148,18,61
78911,41,293,340,-92,-61,418,454,365,76,-60,332,205,445,-70,324,252,257,-11,-33,63,28,214,-49,-37,-681,161,282,-60,10,-191,20,78
78912,65,295,423,-79,-50,436,472,409,64,-59,332,189,452,-79,336,278,284,7,-36,59,57,188,9,-21,-677,144,250,74,78,-166,-13,5
78913,55,242,440,-74,-46,451,505,426,51,-62,341,179,449,-112,305,257,257,-6,-40,35,37,223,42,-16,-704,136,275,210,145,-113,22,54
78914,55,243,456,-74,-65,429,509,412,35,-95,298,188,431,-133,284,234,281,-16,-68,-11,4,126,27,-33,-716,116,256,149,155,-81,46,49
78915,84,274,459,-78,-63,432,348,422,58,-81,342,210,455,-130,326,264,244,-16,-68,0,13,99,-9,-45,-704,113,264,-7,125,-85,54,48
78916,52,294,465,-79,-52,410,279,443,49,-92,290,227,468,-115,294,224,293,15,-48,5,5,158,86,-1,-695,110,238,175,166,-80,39,2
78917,8,268,444,-57,-59,359,283,435,62,-100,252,251,458,-112,274,200,325,18,-30,5,-20,87,68,-14,-692,108,215,81,116,-125,28,-32
78918,-7,248,418,-39,-53,370,374,441,86,-100,210,278,480,-91,275,168,328,32,-9,11,-50,3,44,-1,-650,106,220,35,103,-96,23,-44
78919,-24,226,412,-27,-55,394,444,474,92,-100,241,338,509,-67,273,132,273,35,2,30,-16,112,50,10,-646,133,197,97,114,-115,-14,-97
78920,-38,208,433,-37,-72,372,467,473,112,-113,216,301,518,-73,269,131,200,13,14,43,1,97,10,0,-639,165,213,-22,31,-130,7,-78
78921,-37,192,472,-33,-73,354,474,465,122,-98,193,302,554,-56,272,107,203,43,44,61,15,106,35,15,-603,185,229,-78,66,-66,58,-86
78922,-40,213,461,-7,-62,350,447,499,135,-79,192,278,573,-23,299,150,211,41,33,81,31,138,7,2,-604,200,241,-122,52,-110,86,-62
78923,-62,160,379,-8,-45,374,416,492,135,-68,155,199,551,-29,330,222,228,17,55,123,61,148,-21,-2,-598,237,300,-7,83,-98,95,-2
78924,-34,127,389,-30,-52,340,328,470,122,-68,177,256,543,-47,328,179,239,37,44,124,63,57,14,-7,-604,224,296,27,66,-121,26,-38
78925,0,134,444,-41,-64,348,276,428,108,-68,149,287,535,-64,307,163,281,27,21,105,60,16,29,-14,-609,238,303,21,58,-132,-18,-157
78926,-2,126,474,-61,-51,385,302,445,90,-65,110,283,535,-80,313,198,284,38,14,134,76,112,22,4,-608,266,317,14,90,-91,51,-59
78927,38,169,476,-26,-39,380,359,524,98,-76,265,352,546,-71,365,218,311,56,33,134,74,177,11,25,-584,256,268,4,91,-69,64,31
78928,66,226,532,1,-31,394,315,546,115,-53,287,408,581,-59,363,300,387,93,59,139,102,158,97,62,-560,295,270,102,146,-30,117,61
78929,93,268,570,22,-38,396,298,575,131,-64,256,394,604,-65,364,437,420,128,61,162,135,83,143,87,-524,314,332,208,208,11,163,58
78930,66,291,571,57,-56,359,274,590,122,-71,248,413,580,-100,352,282,389,124,53,132,113,168,145,73,-538,296,351,184,203,0,137,44
78931,64,291,579,34,-58,381,327,585,101,-71,239,407,582,-86,354,152,383,126,31,108,95,216,130,61,-548,287,390,157,191,-17,150,75
78932,59,268,591,53,-47,388,312,563,116,-79,279,380,579,-96,352,147,330,96,9,87,73,136,96,32,-591,258,381,122,151,-63,91,17
78933,75,249,579,7,-52,388,279,523,90,-92,251,361,547,-124,309,141,313,53,-4,33,4,68,45,-27,-668,205,333,16,72,-129,29,-34
78934,50,223,520,0,-55,371,305,503,109,-85,207,339,544,-130,294,159,334,43,-8,40,-9,92,58,-6,-665,201,373,5,56,-136,-1,-114
78935,24,199,465,8,-44,380,339,514,122,-96,187,324,547,-118,271,163,262,42,-13,18,-2,81,15,-30,-668,202,363,-44,41,-135,29,-54
78936,59,172,496,1,-54,369,361,502,107,-118,187,281,541,-135,235,56,222,24,-47,-11,-41,133,-7,-66,-690,151,275,-23,50,-137,45,53
78937,79,181,533,-31,-47,374,323,491,112,-108,179,271,553,-128,227,13,264,35,-37,-39,-80,83,33,-32,-706,121,212,77,114,-110,72,116
78938,25,204,552,0,-49,357,296,527,111,-120,189,327,569,-119,230,79,180,37,-27,-30,-97,-47,43,-12,-727,109,176,117,118,-130,42,2
78939,-30,166,523,-3,-56,355,322,496,106,-113,140,296,550,-121,220,150,178,46,-26,-34,-99,-9,20,-29,-731,100,193,65,86,-164,-3,-52
78940,-31,131,522,-24,-49,379,393,487,103,-95,156,278,565,-104,251,178,249,41,-4,-19,-69,-5,25,-27,-718,86,179,89,87,-185,-25,-67
78941,-69,163,477,-39,-56,413,439,459,100,-74,167,227,556,-71,272,207,256,44,11,1,-44,22,47,9,-707,102,172,125,106,-180,-40,-64
78942,-54,174,458,-56,-55,393,422,458,110,-64,180,221,563,-47,276,173,235,76,36,40,-34,159,109,44,-669,137,202,282,216,-71,4,-64
78943,-59,140,446,-22,-45,345,375,507,127,-74,174,235,573,-40,293,92,310,97,72,58,-38,193,194,119,-630,158,239,523,384,33,92,-26
78944,-114,109,423,-37,-44,349,327,489,91,-88,153,251,550,-61,274,52,340,71,33,31,-45,197,174,95,-650,126,233,462,397,30,66,8
78945,-74,139,396,-53,-39,380,281,446,86,-89,204,238,526,-97,279,107,304,23,-2,-3,-63,159,73,19,-712,85,202,121,211,-121,-67,-122
78946,-76,174,416,-39,-51,356,317,445,74,-87,209,195,511,-102,274,206,268,16,-18,-6,-36,234,21,-30,-736,65,247,-103,24,-211,-93,-53
78947,-72,141,429,-47,-59,387,378,447,88,-73,184,245,496,-93,273,175,276,-2,-33,-12,-49,132,9,-69,-757,50,203,-265,-81,-279,-151,-100
78948,-74,118,440,-72,-58,393,360,444,100,-70,176,265,499,-93,281,198,278,6,-12,18,-27,166,29,-49,-737,85,239,-185,-50,-273,-126,-27
78949,-63,144,430,-62,-43,386,305,441,108,-73,249,281,521,-75,293,213,247,40,8,51,-26,136,53,-1,-692,109,275,-39,70,-189,-56,0
78950,-38,167,452,-85,-36,376,330,418,113,-64,351,334,510,-58,333,299,299,48,8,73,35,144,13,-11,-672,135,338,-134,50,-166,13,54
78951,-78,167,489,-79,-47,361,337,404,109,-61,293,300,527,-58,323,323,321,50,11,65,53,205,26,-14,-674,150,306,-91,63,-137,64,148
78952,-106,176,462,-82,-59,356,332,402,114,-73,224,254,536,-87,305,203,275,28,-7,23,2,151,15,-21,-704,97,218,20,75,-172,-12,24
78953,-121,118,387,-70,-51,348,348,464,121,-80,183,191,538,-66,291,208,207,2,-13,-10,-55,43,-4,-35,-739,48,131,-27,37,-203,-87,-100
78954,-146,128,382,-81,-46,342,316,422,105,-93,221,153,520,-69,282,310,237,10,-34,-21,-68,29,-5,-75,-755,48,124,-72,0,-254,-125,-175
78955,-149,114,345,-113,-56,332,300,401,98,-100,176,122,499,-91,276,236,178,-17,-39,-5,-54,15,-23,-87,-749,70,203,-82,-6,-232,-72,-97
78956,-103,87,395,-86,-59,359,312,427,121,-90,190,177,517,-59,294,93,219,12,-9,29,-56,95,18,-19,-712,104,257,1,66,-147,0,-7
78957,-29,143,435,-90,-67,329,398,455,104,-96,218,215,534,-49,282,139,234,63,13,61,-26,125,45,7,-670,153,321,2,73,-109,13,-2
78958,-32,144,453,-88,-52,335,405,455,119,-90,198,249,556,-41,306,167,161,77,33,79,-1,-14,47,20,-646,190,376,3,84,-105,22,-68
78959,-47,148,465,-54,-60,325,433,456,123,-71,251,265,575,-24,328,190,162,73,46,102,36,-74,43,37,-620,213,376,64,128,-62,83,66
78960,-66,146,435,-82,-65,369,457,450,119,-78,297,261,564,-27,348,222,226,55,60,118,51,164,31,28,-612,234,327,48,124,-64,92,87
78961,-48,136,462,-61,-55,384,449,474,134,-67,313,283,581,-21,347,186,251,81,81,117,27,237,41,67,-607,236,238,46,119,-50,78,72
78962,-59,164,494,-37,-59,376,405,494,143,-48,311,317,602,-3,363,261,300,121,113,143,48,180,98,102,-572,248,248,100,168,-22,84,63
78963,-79,183,463,-52,-53,369,415,482,137,-51,335,327,580,-17,359,335,385,130,89,136,45,56,117,100,-578,233,232,113,172,-65,36,-24
78964,-128,188,437,-69,-70,377,495,471,136,-48,312,361,577,6,384,304,372,129,97,163,63,47,125,123,-566,247,247,118,198,-22,91,25
78965,-130,77,475,-50,-74,357,443,457,109,-65,248,379,554,-9,324,230,248,120,104,138,31,64,118,108,-563,253,254,107,196,-22,80,41
78966,-120,28,485,-47,-73,316,333,462,111,-92,154,321,552,-9,281,64,207,123,77,115,-6,32,161,93,-579,232,259,206,208,-56,14,-71
78967,-108,42,471,-39,-63,332,294,496,141,-73,147,333,567,-14,282,63,243,119,74,118,-12,-75,175,104,-599,214,203,183,183,-127,-64,-261
78968,-121,91,439,-30,-45,330,295,519,139,-65,209,352,550,-19,305,147,275,114,64,113,-16,-289,115,82,-601,189,126,50,118,-160,-114,-302
78969,-60,100,433,-30,-53,312,289,529,147,-74,206,340,578,-33,302,114,342,120,75,118,-7,-95,133,102,-570,207,126,118,162,-123,-22,-203
78970,-6,125,474,-18,-56,303,319,495,161,-74,158,365,612,-9,313,83,427,185,108,130,6,101,227,145,-545,251,158,156,214,-52,59,-83
78971,-16,117,529,-16,-49,332,331,492,140,-67,139,366,602,-11,304,62,472,196,104,139,-15,112,237,152,-545,242,164,156,208,-43,62,-55
78972,-61,119,502,-11,-35,319,283,553,154,-61,163,377,626,-17,282,58,458,187,94,110,-38,112,214,124,-564,221,164,172,206,-37,64,-39
78973,-57,125,463,-23,-45,352,267,561,149,-66,205,370,622,-37,288,77,372,157,68,67,-45,24,192,87,-607,183,159,146,166,-84,-42,-113
78974,-33,182,485,-26,-31,369,277,528,134,-67,206,322,589,-55,287,148,349,125,33,60,-41,28,131,39,-631,136,142,38,78,-178,-116,-183
78975,-15,184,488,-47,-49,331,276,502,103,-79,208,297,554,-74,271,186,322,65,-2,36,-47,37,62,-16,-678,115,133,-46,-4,-225,-133,-207
78976,-6,143,467,-20,-54,303,273,462,81,-108,166,289,519,-104,240,186,278,68,-17,18,-53,46,89,-7,-700,119,133,120,92,-186,-80,-168
78977,-21,84,451,-25,-47,399,365,417,81,-97,264,350,499,-101,256,118,302,71,-24,-2,-86,77,113,-10,-715,82,108,156,101,-167,-68,-126
78978,-54,103,465,-39,-40,414,404,384,70,-89,248,325,470,-115,252,165,252,25,-50,-22,-114,56,12,-65,-729,14,28,-88,-38,-292,-200,-262
78979,-47,162,447,-47,-66,349,387,419,58,-108,202,274,473,-129,218,174,161,-13,-55,-61,-141,22,-65,-83,-769,0,18,-218,-85,-307,-209,-256
78980,-39,173,461,-49,-55,386,437,456,92,-97,202,234,497,-91,237,200,182,2,-30,-35,-138,75,-29,-61,-744,32,77,-100,-9,-246,-166,-139
78981,16,247,461,-12,-39,363,417,485,120,-85,195,233,530,-69,232,244,183,30,-11,-33,-108,111,-4,-41,-716,38,155,-88,4,-234,-147,-121
78982,24,214,449,-9,-52,376,372,457,108,-99,172,251,502,-84,224,218,184,39,-14,-28,-82,96,-2,-45,-729,20,226,-151,-38,-273,-189,-182
78983,-6,168,435,-47,-63,399,256,433,98,-104,142,250,493,-86,216,158,136,11,-26,-16,-96,92,4,-53,-723,31,282,-136,-41,-269,-193,-247
78984,-30,174,388,-37,-42,366,241,403,77,-101,224,178,476,-95,226,148,106,-30,-30,-35,-105,-1,-50,-69,-735,43,257,-101,-28,-267,-170,-250
78985,-40,213,363,-48,-41,353,226,400,73,-111,276,79,448,-105,208,228,121,-56,-52,-34,-95,-186,-121,-103,-758,29,136,-110,-61,-294,-173,-327
78986,-7,200,411,-36,-39,332,268,399,73,-105,191,71,441,-93,187,190,59,-64,-65,-38,-127,-170,-136,-127,-760,9,18,-159,-108,-323,-242,-384
78987,-25,123,363,-65,-54,333,309,346,75,-94,177,156,445,-110,205,149,58,-37,-63,-19,-116,-199,-67,-102,-772,4,-1,-3,-39,-284,-210,-302
78988,-79,112,324,-85,-40,366,347,333,84,-76,195,160,469,-87,227,22,185,-18,-23,4,-127,-136,27,-69,-757,27,-23,134,47,-207,-127,-224
78989,-47,181,352,-75,-44,383,432,374,81,-99,161,179,480,-80,207,-12,190,-30,-27,-8,-150,-78,-45,-101,-764,25,-7,-74,-41,-277,-172,-243
78990,2,243,422,-28,-39,372,439,435,100,-91,166,203,509,-56,230,68,207,-10,-22,8,-96,-68,-82,-104,-753,52,49,-76,-36,-279,-128,-159
78991,21,252,411,-19,-26,387,476,452,124,-64,203,256,525,-45,271,126,233,45,14,53,-55,-73,-4,-56,-710,87,81,116,73,-184,-77,-136
78992,33,274,433,-38,-48,382,528,484,134,-70,192,302,556,-41,272,152,284,78,35,48,-33,-114,69,-30,-697,111,90,172,107,-162,-79,-192
78993,83,301,423,-31,-35,409,511,501,129,-49,291,344,552,-31,327,220,257,72,36,96,26,-56,18,-58,-699,147,126,-64,6,-220,-77,-119
78994,74,253,494,-26,-23,409,445,477,106,-44,289,409,550,-31,325,252,196,80,20,109,63,116,30,-31,-663,182,166,-18,32,-188,-52,-60
78995,37,244,520,-41,-31,412,416,479,106,-60,323,402,547,-40,341,255,222,68,15,115,66,157,47,-2,-673,175,182,-8,64,-153,-50,-53
78996,64,238,535,-38,-41,414,415,500,119,-43,347,285,536,-54,358,248,281,54,37,109,63,92,31,-2,-625,202,223,-107,73,-94,16,-64
78997,81,254,577,-26,-50,392,439,512,121,-48,313,241,576,-44,345,212,361,108,71,120,70,90,111,36,-586,230,260,98,184,2,143,16
78998,68,269,573,-14,-38,399,453,538,143,-46,300,310,594,-29,351,202,405,147,67,137,79,175,136,60,-586,237,295,97,147,-10,157,99
78999,19,236,547,-26,-53,362,425,533,148,-61,292,368,598,-13,371,206,415,148,90,152,92,194,166,70,-531,285,369,103,154,22,226,154
79000,60,302,550,-55,-46,351,455,514,145,-30,344,379,599,8,404,344,403,163,98,184,168,253,163,114,-485,353,419,78,172,80,293,197
79001,52,276,552,-57,-46,392,409,478,155,-17,387,411,584,5,400,445,406,190,114,210,178,230,170,135,-472,368,421,100,206,123,295,212
79002,61,230,562,-26,-55,383,308,471,143,-24,342,406,596,0,430,434,445,198,105,198,179,289,216,162,-467,354,359,302,311,133,242,103
79003,49,263,570,-57,-55,393,343,527,129,-19,388,404,615,-2,422,429,411,203,90,183,183,252,254,175,-478,365,376,387,376,169,256,76
79004,50,285,578,-53,-44,436,402,536,130,-17,484,375,601,-16,423,462,429,223,102,188,186,157,304,191,-480,368,419,473,430,184,267,32
79005,52,200,561,-46,-52,447,389,508,121,-11,423,396,601,-13,437,445,415,240,104,203,208,200,334,209,-482,395,502,430,426,209,336,192
79006,43,175,544,-69,-57,402,369,498,93,-29,365,353,568,-52,396,314,350,172,68,163,142,234,242,145,-510,348,435,213,286,126,277,218
79007,2,165,487,-76,-50,394,369,474,86,-31,356,370,548,-36,399,362,437,171,65,158,132,245,243,146,-510,327,397,224,269,78,238,139
79008,3,149,463,-85,-56,395,411,437,76,-29,341,378,538,-33,405,363,451,145,65,172,164,209,229,125,-514,339,472,120,222,19,218,56
79009,42,220,497,-91,-62,381,457,438,103,-40,315,335,530,-40,399,300,326,129,55,168,166,260,198,133,-515,340,505,116,251,66,206,10
79010,18,230,492,-109,-73,406,420,438,114,-19,309,358,551,-26,419,302,368,152,85,167,152,158,233,168,-488,350,403,178,336,123,256,153
79011,34,247,518,-62,-48,402,452,477,114,-26,324,358,567,-20,408,243,422,153,103,187,125,60,221,153,-481,335,337,80,290,77,275,207
79012,30,163,498,-72,-46,427,526,464,100,-31,313,340,557,-19,368,202,397,135,86,153,97,94,189,110,-497,302,333,63,253,49,240,139
79013,-2,167,488,-83,-51,429,500,463,105,-23,241,330,546,-21,354,188,390,105,85,165,91,197,175,87,-485,302,383,139,271,83,259,162
79014,-11,198,486,-78,-47,439,449,490,115,-22,242,343,552,-29,367,142,403,119,65,159,71,230,159,84,-505,294,346,173,231,59,214,77
79015,9,163,479,-96,-54,404,417,430,105,-30,265,387,532,-49,365,211,392,125,49,149,40,232,139,59,-548,262,288,154,172,-45,89,-19
79016,-42,128,471,-61,-57,396,358,475,102,-40,241,420,550,-48,358,287,373,135,52,141,44,242,191,57,-573,242,308,258,203,-46,11,-69
79017,-120,165,480,-61,-66,395,302,530,110,-52,236,367,557,-56,341,229,340,136,34,119,55,178,205,54,-580,240,322,194,208,-41,32,-37
79018,-79,216,541,-55,-38,401,342,508,116,-48,230,370,551,-53,312,141,410,125,38,104,-1,197,182,65,-580,207,294,159,189,-67,49,11
79019,-2,241,574,-31,-29,391,398,533,125,-52,255,399,574,-51,307,184,374,121,19,83,-11,169,88,23,-594,165,245,30,69,-167,-30,9
79020,63,285,603,-7,-52,400,403,542,128,-76,251,386,589,-59,296,207,299,111,6,51,-14,169,68,-6,-640,136,254,77,70,-178,-52,2
79021,26,308,594,5,-49,386,445,561,120,-106,234,368,568,-79,244,225,337,114,-20,29,-49,165,100,-16,-682,111,261,104,96,-177,-80,29
79022,19,337,561,11,-45,377,485,573,128,-107,233,346,558,-83,234,212,363,101,-17,-2,-83,127,90,-31,-711,62,185,55,31,-240,-150,-98
79023,-11,344,571,7,-54,407,495,551,100,-107,233,329,519,-109,214,199,289,19,-65,-41,-124,167,46,-79,-794,4,154,-8,-27,-312,-191,-164
79024,1,360,582,0,-62,414,469,489,73,-111,226,324,483,-136,205,190,235,3,-85,-65,-167,58,-9,-113,-789,-37,128,-92,-66,-322,-199,-129
79025,110,305,610,-10,-50,405,425,502,80,-125,218,302,489,-137,191,181,243,2,-89,-111,-192,-40,-34,-117,-816,-62,100,-123,-77,-322,-209,-131
79026,118,271,565,-13,-56,406,389,483,79,-119,192,259,500,-136,165,209,221,-2,-93,-123,-204,-102,-36,-112,-825,-64,93,-55,-47,-323,-218,-239
79027,75,281,503,-41,-51,429,335,417,62,-129,197,210,467,-154,185,256,66,-26,-109,-142,-219,-260,-100,-154,-850,-94,57,-100,-83,-369,-279,-362
79028,-3,283,449,-73,-56,423,376,386,45,-138,215,183,449,-164,176,260,10,-47,-133,-164,-235,-133,-143,-170,-876,-133,-1,-130,-120,-395,-294,-297
79029,-28,272,408,-72,-56,448,396,393,49,-125,302,197,453,-157,194,42,8,-47,-137,-154,-269,-125,-143,-189,-907,-146,-38,-185,-142,-404,-268,-256
79030,31,253,391,-88,-62,441,354,335,45,-117,239,196,424,-143,163,-21,37,-69,-147,-195,-295,-180,-161,-234,-929,-227,-115,-283,-236,-506,-410,-427
79031,69,249,387,-84,-40,431,367,314,47,-98,212,158,426,-134,166,-3,17,-91,-149,-181,-302,-271,-201,-248,-947,-242,-144,-274,-283,-585,-510,-557
