,Fp1,Fp2,F7,F3,Fz,F4,F8,FC5,FC1,FC2,FC6,T7,C3,Cz,C4,T8,TP9,CP5,CP1,CP2,CP6,TP10,P7,P3,Pz,P4,P8,PO9,O1,Oz,O2,PO10
207652,-124,250,52,-584,-263,132,420,326,31,-191,29,29,117,-103,-237,280,-15,-150,-329,-312,-186,109,143,-119,-6,-86,22,-256,60,-226,-497,-246
207653,-86,312,39,-547,-244,151,476,366,37,-194,45,40,132,-103,-213,249,1,-154,-314,-298,-204,138,156,-101,0,-74,63,-230,86,-183,-435,-136
207654,-114,287,88,-543,-242,174,509,358,28,-204,6,85,157,-122,-230,206,6,-154,-315,-313,-160,148,145,-112,0,-69,62,-234,119,-146,-411,-106
207655,-210,101,0,-607,-276,247,466,356,-1,-207,48,58,122,-143,-235,124,-68,-172,-342,-314,-133,124,147,-142,-36,-78,112,-292,61,-215,-497,-193
207656,-200,37,-111,-576,-268,289,382,379,7,-166,136,3,147,-119,-212,97,-77,-148,-320,-302,-163,143,171,-115,-28,-54,113,-325,70,-176,-447,-120
207657,-145,254,-54,-580,-256,212,333,383,31,-148,129,-93,171,-101,-193,163,-21,-104,-285,-277,-133,166,193,-76,15,-30,111,-309,104,-123,-353,-44
207658,-168,263,58,-573,-265,173,344,367,34,-154,126,-66,177,-96,-183,173,32,-56,-263,-268,-113,165,353,-73,17,-6,144,-290,105,-107,-325,-62
207659,-159,296,167,-548,-243,180,363,367,34,-136,163,12,195,-86,-172,246,100,-47,-238,-246,-113,203,466,-62,18,24,182,-305,67,-121,-325,-65
207660,-200,280,159,-561,-239,184,485,320,27,-147,150,49,160,-75,-150,329,81,-73,-247,-224,-66,234,250,-88,52,63,276,-268,69,-77,-246,-3
207661,-189,312,120,-604,-265,160,486,278,26,-168,117,93,139,-73,-156,395,64,-123,-278,-207,-38,244,63,-99,47,83,337,-208,85,-55,-204,20
207662,-195,279,157,-635,-265,194,464,267,21,-162,107,106,141,-69,-167,382,40,-116,-285,-216,-57,231,122,-101,38,87,347,-222,86,-54,-155,18
207663,-198,224,179,-633,-273,167,489,312,28,-186,115,111,155,-67,-160,380,61,-98,-265,-217,-40,251,182,-73,67,130,412,-183,136,-4,-99,101
207664,-164,291,236,-591,-245,175,468,335,56,-153,138,41,204,-55,-126,417,92,-62,-225,-188,2,291,258,-15,125,166,468,-132,191,15,-58,129
207665,-253,278,217,-608,-268,150,389,327,34,-166,144,-34,182,-67,-129,414,109,-37,-214,-212,-2,300,290,27,111,161,446,-127,223,34,-60,96
207666,-320,222,149,-616,-280,175,312,304,11,-177,170,-77,164,-81,-146,407,83,-55,-213,-197,-5,226,289,42,96,152,345,-136,254,55,-46,73
207667,-199,214,202,-624,-274,222,266,326,35,-128,297,5,215,-65,-100,444,105,-19,-179,-151,49,190,361,106,170,211,385,-57,348,121,20,126
207668,-129,192,253,-659,-301,148,275,356,39,-139,231,74,230,-57,-99,453,153,38,-163,-125,60,287,429,160,215,241,491,22,451,212,116,233
207669,-162,222,270,-637,-299,114,396,343,40,-145,182,75,240,-57,-91,413,166,74,-151,-102,84,348,474,198,239,274,582,78,522,283,173,266
207670,-178,228,305,-606,-278,142,402,369,65,-118,136,103,281,-44,-89,375,204,90,-120,-89,124,355,503,252,261,315,631,115,566,318,195,287
207671,-195,152,276,-598,-284,181,246,426,66,-138,102,128,280,-45,-92,284,223,100,-125,-101,133,352,529,261,266,322,549,110,572,348,215,280
207672,-151,193,231,-598,-259,236,305,353,43,-123,219,137,271,-56,-80,222,201,100,-144,-97,94,150,565,252,260,316,575,137,613,343,222,302
207673,-92,263,245,-574,-225,309,383,279,35,-89,302,144,243,-40,-54,296,236,110,-139,-107,101,183,548,250,261,328,580,151,616,352,235,310
207674,-79,332,236,-564,-227,288,411,355,54,-109,192,137,255,-33,-65,392,221,88,-135,-89,141,480,526,235,273,350,546,81,570,392,280,323
207675,-125,348,167,-601,-241,207,418,373,41,-159,150,120,229,-37,-90,402,144,69,-156,-109,65,317,486,219,279,325,463,42,536,361,268,321
207676,-217,286,55,-649,-259,204,326,281,50,-150,263,133,229,-36,-117,434,49,49,-164,-119,41,306,403,231,287,299,500,44,541,372,265,324
207677,-272,68,55,-652,-288,213,187,313,62,-146,161,119,249,-41,-96,404,49,42,-159,-122,59,331,375,223,282,278,463,46,528,288,124,218
207678,-265,126,50,-641,-282,231,252,319,38,-131,281,103,209,-49,-86,235,63,13,-191,-132,2,282,338,189,225,224,379,-12,449,206,-14,126
207679,-243,303,102,-639,-279,164,420,312,28,-160,237,138,215,-63,-123,193,77,35,-179,-148,-19,253,347,169,233,198,307,-35,434,196,-18,83
207680,-168,345,170,-583,-253,133,544,392,66,-168,101,174,267,-7,-108,295,73,36,-146,-120,0,265,365,197,270,224,321,-37,460,234,7,105
207681,-108,401,187,-564,-204,147,544,415,70,-167,34,151,288,-19,-123,370,55,34,-151,-122,-4,283,335,193,260,199,324,-42,439,223,-25,90
207682,-32,437,226,-548,-221,166,537,414,76,-170,131,103,299,-43,-124,393,79,58,-171,-137,-2,315,334,169,229,183,313,-79,411,186,-57,66
207683,-23,405,142,-538,-232,233,537,436,66,-162,278,56,278,-51,-95,393,66,22,-181,-156,0,298,323,136,208,176,308,-109,414,182,-60,103
207684,-74,359,43,-558,-228,339,342,431,47,-138,362,58,232,-84,-76,419,28,-7,-226,-171,-31,218,307,105,177,141,291,-113,380,143,-104,64
207685,-94,332,-4,-518,-237,278,400,452,79,-124,247,109,255,-73,-100,433,38,1,-200,-186,-47,254,308,100,181,127,299,-100,369,145,-88,75
207686,-91,327,74,-473,-224,251,470,498,95,-135,191,135,276,-63,-132,391,73,24,-187,-205,-49,274,347,118,197,116,314,-78,389,154,-61,127
207687,-85,302,167,-520,-234,248,440,473,82,-151,142,153,261,-56,-149,343,108,28,-200,-202,-46,278,368,126,189,116,316,-56,424,161,-54,106
207688,-97,321,201,-566,-239,278,363,488,79,-118,115,203,258,-46,-140,288,114,22,-198,-198,-21,321,396,127,178,138,331,-14,440,188,-43,197
207689,-80,290,226,-557,-217,281,397,462,71,-129,184,171,259,-76,-147,308,111,29,-228,-222,-39,284,414,124,137,87,323,-21,418,147,-85,143
207690,-13,371,257,-520,-198,290,287,421,76,-121,277,158,270,-76,-128,389,145,71,-233,-234,-36,285,436,116,136,100,341,-30,405,150,-86,106
207691,65,470,313,-528,-188,243,357,368,56,-153,256,82,255,-96,-163,456,168,50,-254,-258,-48,259,444,117,99,106,355,-9,412,161,-80,53
207692,36,416,367,-517,-190,293,607,408,58,-153,285,25,240,-104,-156,446,130,27,-277,-250,-53,264,400,80,62,82,352,-48,377,108,-78,41
207693,94,525,392,-472,-171,289,680,475,69,-149,291,75,245,-97,-147,335,146,20,-283,-277,-63,278,372,55,60,44,323,-68,354,26,-210,41
207694,205,631,413,-440,-143,238,607,497,83,-169,232,104,243,-94,-173,294,145,21,-277,-277,-67,246,382,50,58,46,335,-85,324,3,-263,54
207695,200,494,422,-480,-165,283,509,426,60,-172,190,88,220,-98,-168,374,107,-20,-314,-252,-56,241,331,20,50,72,361,-132,248,13,-176,62
207696,237,545,416,-483,-176,279,552,391,45,-183,184,77,205,-93,-153,368,82,-40,-306,-262,-59,233,304,9,57,54,368,-182,232,7,-198,66
207697,233,664,420,-470,-171,236,545,374,78,-187,163,73,215,-83,-166,394,0,-23,-279,-271,-69,232,302,27,66,56,343,-154,256,5,-202,37
207698,241,678,392,-480,-173,211,591,335,62,-203,188,114,184,-81,-165,344,-39,-42,-290,-265,-74,188,290,-8,45,48,338,-184,231,-12,-225,15
207699,216,639,368,-469,-171,243,679,353,68,-193,193,96,207,-101,-153,336,64,-47,-294,-248,-48,152,296,-13,46,68,317,-177,221,-40,-232,18
207700,240,664,376,-456,-166,242,704,431,67,-181,155,120,220,-102,-173,252,44,-52,-298,-257,-64,139,281,7,44,44,290,-222,190,-59,-261,-15
207701,299,722,393,-452,-146,224,606,421,65,-182,74,160,212,-92,-200,154,-12,-61,-289,-275,-69,94,238,-8,41,45,220,-259,151,-84,-289,-54
207702,296,745,335,-463,-165,220,542,366,64,-185,92,-14,194,-81,-188,93,-59,-102,-295,-267,-104,59,159,-50,24,33,211,-308,103,-125,-322,-98
207703,294,793,312,-460,-143,266,631,347,63,-160,190,-83,192,-78,-153,46,-85,-115,-302,-254,-123,61,113,-59,39,22,207,-361,85,-157,-348,-145
207704,315,734,365,-443,-149,281,662,373,60,-151,161,-123,187,-84,-171,70,-139,-117,-311,-272,-138,5,105,-75,39,4,222,-388,69,-154,-342,-130
207705,293,683,379,-448,-177,268,615,362,53,-153,114,-90,172,-119,-186,129,-168,-134,-319,-293,-159,16,123,-84,12,-3,249,-376,40,-174,-345,-127
207706,373,746,442,-411,-153,292,590,374,67,-130,137,-4,192,-100,-171,221,-78,-103,-321,-264,-119,34,151,-34,28,32,243,-342,61,-140,-307,-132
207707,415,782,480,-421,-143,316,539,397,78,-141,175,4,194,-95,-181,300,-69,-112,-314,-274,-144,24,145,-26,39,25,152,-348,77,-119,-290,-84
207708,418,824,499,-445,-150,309,447,427,65,-160,174,0,185,-99,-199,382,-84,-99,-305,-284,-126,41,147,-39,36,20,197,-351,90,-127,-269,-85
207709,401,774,522,-449,-151,341,249,425,67,-160,143,-9,182,-101,-215,331,-79,-110,-322,-270,-133,77,171,-28,36,32,240,-329,112,-115,-223,-83
207710,463,892,485,-426,-136,353,340,373,62,-123,265,13,173,-99,-185,107,-86,-138,-331,-271,-173,47,153,-63,23,19,198,-334,132,-103,-265,-79
207711,533,941,466,-376,-105,280,479,444,61,-142,88,62,169,-106,-224,23,-54,-125,-323,-282,-164,-27,201,-48,25,-2,228,-298,174,-71,-228,-67
207712,489,903,420,-381,-120,239,526,383,49,-185,93,35,146,-109,-255,92,-60,-116,-336,-302,-189,-170,224,-53,20,-12,227,-246,199,-73,-235,-91
207713,477,905,312,-317,-107,239,544,419,86,-165,105,29,193,-109,-241,95,-30,-92,-313,-280,-185,136,292,-28,33,2,262,-183,250,-6,-174,-47
207714,440,854,258,-309,-110,303,418,509,97,-118,205,7,202,-120,-200,163,-22,-67,-302,-285,-141,172,416,-1,30,20,278,-218,258,4,-141,-13
207715,418,786,394,-293,-116,345,389,552,91,-152,237,-14,206,-125,-216,208,-2,-54,-318,-306,-130,53,507,4,11,-1,275,-241,250,-34,-178,-24
207716,504,927,492,-328,-113,329,559,483,67,-169,151,-10,185,-140,-238,227,-90,-71,-360,-305,-145,86,354,-20,8,-11,260,-225,233,-24,-178,12
207717,618,1058,509,-346,-91,296,698,419,57,-144,133,-3,153,-138,-218,211,-104,-107,-367,-290,-131,94,152,-41,2,14,300,-224,236,-7,-148,6
207718,647,1067,558,-364,-106,260,793,407,67,-174,97,9,147,-146,-219,195,-50,-133,-368,-304,-157,115,122,-62,-4,3,221,-299,191,-40,-176,-15
207719,653,1080,640,-369,-105,276,750,406,57,-152,83,86,175,-132,-207,151,3,-104,-359,-314,-145,127,232,-26,16,22,230,-281,225,-20,-146,-10
207720,692,1083,683,-357,-73,332,746,420,62,-151,152,164,167,-108,-174,217,43,-81,-332,-291,-128,116,260,6,28,36,293,-183,279,17,-120,0
207721,691,1071,638,-377,-56,412,728,413,72,-139,260,67,153,-138,-176,245,3,-95,-342,-288,-126,119,226,-23,21,20,295,-186,283,15,-130,22
207722,706,1021,657,-362,-77,407,599,394,59,-132,185,-28,170,-135,-198,249,7,-128,-367,-311,-156,126,193,-35,10,-2,325,-187,269,-15,-147,16
207723,741,1084,643,-337,-71,378,567,412,80,-144,157,-66,170,-124,-212,279,-4,-152,-345,-298,-144,109,190,-44,15,14,312,-194,235,-18,-147,12
207724,730,1080,605,-340,-65,339,472,474,78,-174,123,-42,143,-142,-221,93,-66,-156,-365,-312,-161,51,157,-61,-5,-8,269,-255,182,-63,-218,-41
207725,730,1074,558,-357,-113,290,479,400,51,-191,92,33,123,-160,-236,-112,-85,-157,-395,-336,-205,9,142,-95,-41,-46,167,-313,155,-100,-253,-79
207726,710,1085,558,-342,-126,288,542,355,53,-203,78,-43,124,-146,-244,-3,-89,-168,-374,-328,-209,40,125,-125,-58,-64,124,-331,145,-110,-240,-108
207727,750,1094,581,-356,-74,319,481,432,55,-191,47,-77,126,-141,-220,49,-110,-202,-389,-299,-160,-13,80,-119,-56,-59,135,-369,116,-127,-281,-138
207728,773,1112,551,-361,-80,328,558,450,61,-209,140,-67,130,-147,-219,-121,-152,-225,-412,-348,-194,-64,49,-144,-81,-93,97,-385,83,-150,-303,-159
207729,809,1148,502,-388,-82,335,628,426,35,-223,159,-77,108,-161,-263,-144,-155,-232,-425,-381,-256,-39,92,-162,-97,-112,75,-435,52,-161,-299,-136
207730,795,1164,517,-378,-96,337,657,428,33,-204,149,62,83,-153,-257,0,-119,-222,-417,-360,-244,-46,82,-158,-84,-106,119,-387,104,-146,-284,-149
207731,799,1129,520,-382,-86,340,690,443,32,-186,120,105,85,-164,-232,106,-141,-207,-425,-355,-220,-68,65,-156,-88,-103,139,-327,135,-128,-298,-163
207732,814,1215,582,-359,-50,329,700,332,37,-189,111,58,101,-153,-239,173,-154,-198,-406,-367,-231,-61,86,-140,-94,-87,145,-315,140,-139,-284,-138
207733,845,1249,615,-365,-71,325,655,353,38,-199,44,17,111,-153,-269,175,-127,-210,-428,-368,-230,-44,75,-132,-83,-81,144,-337,149,-129,-294,-132
207734,860,1211,576,-409,-93,306,638,398,36,-217,41,-50,100,-166,-277,140,-161,-226,-416,-374,-236,-48,55,-153,-93,-94,155,-351,148,-113,-284,-141
207735,879,1260,611,-399,-76,351,716,369,42,-194,112,-111,129,-158,-244,150,-158,-191,-376,-348,-194,-15,72,-129,-52,-42,195,-378,144,-91,-258,-130
207736,915,1304,678,-394,-83,357,675,375,39,-185,146,-145,147,-156,-219,164,-197,-177,-376,-323,-163,5,90,-95,-7,-4,203,-374,164,-73,-261,-135
207737,947,1328,760,-380,-62,374,731,427,66,-181,148,-115,175,-145,-194,193,-147,-160,-356,-317,-124,51,145,-50,23,16,233,-331,211,-25,-201,-66
207738,993,1357,757,-372,-63,369,669,408,53,-180,139,-99,156,-157,-228,180,-85,-174,-356,-330,-150,43,141,-67,-3,-19,200,-345,181,-28,-166,-46
207739,1019,1343,741,-367,-61,387,510,391,20,-194,98,-84,125,-167,-226,172,-126,-199,-380,-333,-139,33,92,-94,-48,-41,283,-385,123,-71,-179,-91
207740,1050,1367,751,-370,-63,433,615,401,39,-149,245,-43,112,-163,-202,154,-126,-185,-377,-312,-155,32,96,-97,-53,-25,277,-384,123,-88,-229,-128
207741,1011,1370,718,-371,-59,397,664,388,37,-160,259,-57,132,-163,-226,131,-152,-198,-372,-326,-193,-6,102,-102,-34,-23,190,-353,187,-48,-164,-95
207742,981,1324,648,-366,-40,395,746,405,45,-167,203,-74,143,-144,-217,140,-167,-167,-377,-321,-154,-6,134,-83,-13,0,214,-367,186,-54,-189,-100
207743,1012,1351,665,-368,-46,391,719,412,38,-201,123,-73,135,-155,-240,199,-180,-164,-393,-348,-159,6,99,-90,-35,-6,218,-397,111,-107,-253,-145
207744,1021,1337,719,-362,-27,396,594,415,36,-170,103,-61,154,-156,-220,193,-178,-184,-384,-334,-126,8,68,-84,-28,3,244,-393,131,-79,-237,-127
207745,1027,1334,702,-397,-47,420,560,393,28,-166,235,-76,125,-164,-198,115,-205,-205,-401,-351,-140,-91,62,-113,-38,-24,224,-405,99,-103,-288,-197
207746,1036,1377,717,-353,-51,433,618,419,31,-181,204,-114,120,-172,-236,126,-238,-211,-417,-381,-183,-313,43,-115,-47,-61,203,-453,65,-125,-296,-240
207747,1056,1389,761,-350,-35,385,703,429,41,-195,69,-118,122,-178,-263,140,-258,-225,-407,-337,-178,-9,43,-107,-43,-22,246,-463,97,-56,-191,-172
207748,1067,1397,717,-374,-55,382,630,387,42,-186,95,-124,116,-166,-228,127,-298,-233,-400,-304,-119,101,28,-102,-19,24,258,-478,105,-55,-174,-132
207749,1088,1436,721,-389,-59,364,506,353,32,-202,48,-119,105,-181,-237,70,-249,-249,-418,-346,-112,-15,25,-128,-30,-20,198,-483,35,-154,-269,-201
207750,1161,1531,793,-346,1,397,638,374,54,-181,89,-56,135,-161,-218,81,-136,-201,-373,-316,-95,34,79,-100,-13,-3,181,-394,43,-141,-318,-135
207751,1132,1497,749,-386,-28,396,722,358,35,-190,180,-38,129,-184,-207,5,-131,-183,-369,-326,-141,-8,93,-90,-25,-23,131,-370,56,-165,-368,-125
207752,1148,1538,706,-328,-9,390,812,431,50,-190,191,0,154,-170,-196,39,-135,-159,-358,-322,-132,-27,104,-93,-25,8,200,-371,113,-97,-267,-108
207753,1187,1542,681,-258,9,401,818,515,102,-192,143,31,209,-155,-198,144,-103,-130,-351,-322,-110,10,132,-57,3,35,271,-344,128,-52,-225,-90
207754,1177,1570,635,-271,-25,419,771,468,99,-190,170,42,206,-147,-195,166,-124,-101,-328,-314,-79,31,195,-33,17,38,301,-315,131,-65,-225,-126
207755,1177,1617,672,-284,-13,424,760,448,86,-167,208,53,225,-143,-170,46,-140,-68,-328,-281,-79,15,284,-13,38,56,221,-298,176,-48,-208,-122
207756,1226,1614,761,-269,0,445,773,505,71,-157,223,29,209,-139,-145,16,-184,-79,-340,-277,-93,22,254,-17,35,56,194,-319,182,-39,-209,-113
207757,1291,1622,818,-299,4,470,791,465,72,-150,253,15,188,-156,-133,85,-62,-109,-364,-283,-112,39,194,-41,8,42,217,-320,164,-60,-206,-105
207758,1298,1565,781,-307,-19,480,656,397,46,-149,262,11,157,-171,-155,164,-80,-145,-394,-311,-120,-4,142,-94,-29,13,218,-323,134,-98,-243,-146
207759,1309,1520,747,-305,-3,532,698,466,44,-127,282,-37,160,-160,-163,307,-150,-161,-372,-305,-95,-19,123,-105,-43,8,198,-356,119,-116,-251,-145
207760,1278,1558,721,-315,6,542,750,458,51,-125,247,-101,154,-158,-174,280,-166,-164,-370,-303,-104,-38,125,-106,-58,9,198,-377,98,-138,-234,-174
207761,1251,1567,755,-320,-11,480,764,436,48,-186,185,-48,144,-185,-209,197,-157,-148,-373,-318,-178,-65,150,-101,-59,-8,201,-386,105,-153,-247,-175
207762,1226,1566,727,-322,-9,428,750,472,47,-197,162,114,168,-148,-194,174,-169,-133,-362,-332,-158,-31,186,-78,-14,9,248,-408,122,-93,-223,-108
207763,1259,1615,721,-325,4,451,688,474,38,-168,192,134,141,-147,-160,138,-182,-132,-360,-321,-131,-47,246,-68,-4,31,245,-389,151,-80,-202,-125
207764,1374,1672,832,-293,30,447,729,448,47,-164,203,19,156,-157,-166,93,-165,-143,-376,-305,-146,-70,231,-79,-21,16,249,-394,119,-92,-213,-166
207765,1375,1561,904,-283,20,466,634,431,63,-172,183,-86,174,-149,-189,110,-158,-146,-372,-310,-158,-44,106,-69,-29,-6,186,-364,125,-70,-226,-148
207766,1324,1412,798,-294,1,561,343,460,60,-110,250,-171,161,-127,-128,121,-177,-162,-357,-287,-148,-61,77,-69,-14,8,185,-392,141,-88,-223,-179
207767,1253,1487,704,-342,-35,522,433,447,39,-136,263,-180,140,-135,-146,28,-248,-205,-352,-288,-158,-118,53,-81,-11,15,197,-455,136,-79,-227,-212
207768,1291,1600,668,-340,-49,425,571,442,27,-178,121,-121,149,-151,-195,-79,-262,-196,-353,-303,-175,-149,21,-77,-8,10,179,-444,131,-96,-258,-227
207769,1384,1667,716,-306,-11,379,570,438,65,-194,-16,-2,184,-123,-189,-48,-219,-148,-314,-271,-137,-93,65,-41,24,60,232,-405,165,-69,-179,-166
207770,1366,1669,805,-276,-1,396,647,446,72,-175,60,97,200,-105,-174,68,-251,-141,-287,-244,-121,-88,116,0,49,86,202,-402,173,-30,-196,-164
207771,1337,1621,809,-264,-6,381,548,484,74,-179,80,4,191,-109,-190,176,-280,-175,-284,-250,-107,-92,101,-17,42,60,231,-426,168,-67,-212,-190
207772,1296,1566,773,-265,-23,421,555,481,84,-144,162,-113,193,-109,-164,139,-263,-201,-296,-264,-103,-110,81,-32,20,50,214,-478,128,-106,-240,-227
207773,1300,1587,698,-265,-21,389,651,448,84,-157,183,-123,201,-110,-170,79,-246,-175,-283,-267,-130,-111,112,-3,37,63,200,-418,136,-73,-228,-218
207774,1336,1672,692,-262,-14,366,662,470,95,-167,145,-105,222,-89,-169,15,-246,-156,-281,-242,-119,-106,142,32,96,86,234,-403,180,-36,-187,-166
207775,1326,1683,718,-303,-16,343,749,473,88,-195,122,-67,222,-92,-189,-76,-258,-147,-270,-247,-103,-93,139,32,89,88,250,-445,142,-75,-219,-199
207776,1358,1564,698,-309,-21,351,692,476,93,-188,63,1,256,-76,-177,-22,-216,-103,-234,-250,-108,-58,164,57,115,89,176,-437,160,-70,-230,-232
207777,1343,1574,688,-322,-23,380,635,453,104,-176,118,-15,272,-80,-160,-169,-197,-81,-240,-260,-117,-105,176,63,106,97,145,-423,180,-58,-233,-225
207778,1361,1736,728,-316,-13,367,699,429,89,-177,131,-107,238,-116,-197,-103,-211,-104,-288,-289,-143,-156,163,24,76,42,107,-427,148,-75,-253,-243
207779,1459,1821,767,-275,4,404,714,447,96,-193,117,-108,234,-119,-202,68,-212,-86,-274,-294,-146,-137,175,4,76,45,132,-438,149,-77,-221,-196
207780,1482,1773,813,-247,18,416,735,466,98,-178,129,-12,226,-116,-184,133,-198,-78,-254,-273,-124,-110,197,19,67,66,161,-410,176,-59,-204,-160
207781,1480,1757,811,-211,29,391,740,493,96,-192,93,17,235,-100,-199,120,-223,-79,-264,-264,-145,-113,205,30,58,73,183,-393,178,-34,-215,-154
207782,1440,1772,740,-229,17,347,703,469,96,-223,70,-38,239,-117,-239,118,-248,-121,-299,-297,-180,-128,140,-11,33,22,150,-445,116,-74,-251,-206
207783,1397,1720,751,-229,11,361,697,469,105,-189,74,-100,227,-123,-224,90,-281,-138,-297,-291,-180,-166,101,-35,25,9,93,-513,56,-148,-315,-256
207784,1383,1660,707,-241,-9,407,643,451,80,-189,104,-175,193,-135,-212,50,-335,-180,-306,-316,-212,-203,52,-74,-7,-22,72,-538,20,-216,-358,-289
207785,1309,1629,596,-293,-22,451,487,413,55,-176,165,-184,151,-127,-210,9,-351,-197,-315,-305,-208,-217,50,-71,-18,-21,99,-491,27,-201,-330,-246
207786,1319,1535,708,-296,-7,497,440,375,70,-166,42,-118,141,-119,-214,79,-328,-170,-330,-299,-184,-398,100,-51,0,-18,63,-454,53,-196,-347,-321
207787,1348,1554,678,-264,17,521,484,378,62,-153,160,-94,164,-134,-195,-56,-331,-171,-330,-314,-220,-438,109,-55,-22,-39,22,-451,23,-215,-407,-418
207788,1448,1753,618,-280,11,451,558,412,60,-158,253,-142,164,-133,-206,-253,-357,-174,-333,-333,-261,-141,157,-74,-49,-42,25,-530,-14,-244,-419,-418
207789,1430,1790,664,-330,-15,371,603,411,48,-193,146,-147,143,-135,-246,-170,-379,-200,-344,-370,-294,-191,99,-111,-58,-68,-51,-613,-65,-287,-464,-440
207790,1394,1740,712,-354,0,369,480,392,47,-190,167,-121,140,-131,-238,-40,-375,-198,-329,-337,-278,-271,15,-106,-66,-59,-46,-604,-74,-289,-450,-437
207791,1418,1705,752,-343,16,405,539,405,76,-190,133,-152,151,-120,-232,93,-403,-215,-307,-312,-205,-242,-2,-91,-26,-39,36,-597,-38,-272,-434,-407
207792,1429,1732,732,-319,-11,408,609,419,68,-192,77,-137,156,-123,-243,64,-436,-219,-335,-315,-212,-250,10,-79,-12,-34,39,-595,-28,-237,-407,-369
207793,1425,1804,703,-280,22,376,626,417,63,-191,51,-6,145,-122,-238,68,-346,-199,-304,-294,-227,-215,63,-60,-3,-16,33,-536,12,-175,-338,-313
207794,1455,1838,761,-264,25,394,745,425,60,-196,46,-26,184,-110,-216,68,-275,-166,-286,-262,-197,-213,94,-36,16,26,69,-485,83,-125,-323,-295
207795,1448,1843,708,-286,-1,418,687,416,39,-173,78,-130,176,-131,-212,35,-311,-190,-315,-287,-207,-218,94,-49,13,-4,73,-508,45,-179,-351,-327
207796,1408,1830,708,-292,7,457,692,430,54,-156,141,-190,165,-109,-198,107,-308,-189,-337,-267,-157,-174,118,-74,22,25,102,-506,19,-201,-368,-309
207797,1456,1877,770,-267,29,449,779,458,82,-173,150,-225,177,-106,-172,77,-287,-177,-323,-282,-169,-178,125,-54,0,20,100,-515,38,-185,-343,-290
207798,1491,1931,805,-247,19,432,843,458,88,-173,162,-126,189,-128,-169,6,-281,-151,-296,-299,-179,-178,144,-57,-11,10,91,-514,41,-201,-351,-301
207799,1525,1957,821,-228,21,429,870,481,62,-172,146,-45,178,-131,-156,-33,-261,-135,-307,-280,-164,-153,106,-66,-20,3,81,-494,43,-226,-365,-337
207800,1591,1990,846,-209,64,466,906,497,87,-134,203,-51,203,-106,-124,-24,-233,-119,-284,-263,-132,-102,122,-53,-21,25,138,-464,44,-212,-343,-277
