,Fp1,Fp2,F7,F3,Fz,F4,F8,FC5,FC1,FC2,FC6,T7,C3,Cz,C4,T8,TP9,CP5,CP1,CP2,CP6,TP10,P7,P3,Pz,P4,P8,PO9,O1,Oz,O2,PO10
108308,413,196,635,-275,-125,616,87,277,162,3,203,429,488,-176,290,144,907,461,-98,89,41,238,312,194,176,251,390,224,284,148,258,368
108309,375,103,321,-152,-112,585,56,285,200,-3,130,458,515,-166,260,303,883,465,-76,79,25,267,360,200,177,228,358,191,241,117,230,361
108310,307,136,323,-106,-97,515,51,84,191,24,160,616,483,-152,268,134,967,494,-65,91,42,254,382,201,173,235,400,182,240,115,220,378
108311,168,110,492,-128,-76,597,21,223,183,28,204,481,462,-168,277,-44,973,428,-110,80,31,252,292,136,133,224,429,115,188,109,193,203
108312,88,20,465,-51,-73,730,-52,261,185,45,261,190,432,-187,304,-18,901,388,-162,64,42,233,240,91,102,200,438,-30,115,62,145,11
108313,103,105,561,-191,-67,592,-126,303,168,40,254,-131,408,-179,322,44,885,308,-170,71,75,263,201,60,106,222,515,-75,86,20,149,75
108314,108,100,525,-196,-68,756,-367,311,154,51,278,-57,417,-181,322,69,782,347,-166,84,71,262,250,83,111,224,474,-107,80,-1,149,255
108315,117,-50,526,-125,-86,793,-487,252,143,61,278,158,423,-203,312,55,690,402,-165,49,29,204,369,112,117,177,348,-168,99,22,134,348
108316,202,26,539,-96,-71,703,-240,253,172,60,268,383,465,-179,310,99,704,457,-126,76,51,65,435,151,144,208,362,-80,122,50,168,388
108317,116,1,512,-214,-81,888,-26,209,152,47,211,445,423,-204,284,82,762,452,-132,59,20,181,344,108,119,191,353,30,116,32,174,373
108318,116,64,617,-287,-68,655,20,246,134,13,110,496,391,-232,260,131,839,447,-140,29,7,254,315,109,107,200,350,146,145,45,165,313
108319,53,153,622,-337,-82,642,83,342,138,10,127,529,410,-236,249,166,853,462,-126,23,18,329,278,137,116,208,345,63,157,60,191,283
108320,17,191,623,-472,-84,784,135,190,144,-6,173,543,432,-229,269,218,1009,467,-109,72,71,312,274,177,143,254,428,-78,168,88,246,203
108321,13,324,454,-319,-85,550,64,72,166,-23,126,409,426,-232,266,213,1101,425,-104,61,80,301,312,200,150,269,497,-13,197,113,267,168
108322,124,217,349,-416,-94,722,-53,170,133,-8,124,105,402,-229,277,219,973,351,-125,45,58,296,218,136,120,251,444,196,245,122,252,318
108323,305,-44,468,-406,-64,1067,-146,238,157,45,193,310,442,-201,323,203,870,411,-114,76,60,281,232,156,143,255,391,195,262,159,284,490
108324,264,56,692,-383,-59,712,-88,251,156,48,284,525,454,-196,327,136,867,485,-101,69,64,306,321,185,134,244,370,155,266,162,295,478
108325,-7,175,681,-290,-66,716,65,184,148,25,214,579,485,-188,279,146,852,496,-110,53,49,311,353,177,128,235,371,107,236,147,259,344
108326,125,341,683,-206,-69,743,262,317,180,24,194,538,505,-148,281,159,901,508,-81,78,49,393,411,198,168,250,413,156,257,169,270,369
108327,356,351,688,-383,-99,605,309,297,157,4,212,525,442,-159,288,50,1004,461,-93,84,43,350,448,176,184,246,402,185,265,163,267,407
108328,407,271,705,-432,-111,616,185,250,130,16,260,503,419,-156,303,36,968,445,-112,86,39,310,474,158,153,245,386,90,264,166,266,402
108329,379,279,704,-445,-110,621,158,204,124,13,230,511,381,-165,302,47,871,445,-123,79,39,319,423,167,143,237,379,60,252,170,264,374
108330,412,339,694,-410,-100,572,177,228,138,5,136,498,393,-155,281,184,814,440,-114,73,56,357,407,183,147,253,429,126,261,184,307,382
108331,403,407,742,-416,-88,491,142,217,129,13,172,449,396,-157,271,239,776,439,-120,90,59,387,375,186,128,265,424,148,245,165,304,322
108332,302,357,686,-337,-96,560,30,221,150,10,171,408,413,-164,268,251,831,440,-111,90,56,379,373,177,152,255,459,201,253,158,306,201
108333,243,285,583,-312,-84,662,-166,26,168,53,231,535,382,-154,316,136,958,437,-109,98,98,312,345,183,170,282,511,251,283,193,339,224
108334,221,162,574,-269,-94,782,-368,4,172,63,277,467,383,-153,355,47,1003,421,-120,101,96,209,325,169,144,272,487,232,269,184,297,199
108335,200,127,453,-245,-85,663,-377,175,177,52,209,269,378,-151,339,65,959,407,-134,103,100,242,291,154,135,269,486,222,282,177,282,196
108336,-60,5,257,-256,-90,823,-166,212,171,39,121,344,358,-150,307,123,915,399,-125,106,143,423,303,142,178,299,549,232,310,214,311,161
108337,-277,-65,264,-218,-79,1037,-3,284,146,41,177,315,364,-163,316,110,812,368,-119,104,138,346,287,142,162,307,602,185,282,177,323,61
108338,7,215,343,-24,-106,615,99,317,164,11,186,183,391,-177,271,146,885,340,-127,100,114,202,277,138,175,293,587,162,317,198,330,191
108339,114,162,497,-110,-115,554,151,257,169,-7,170,215,415,-186,257,69,876,382,-109,75,38,271,354,179,183,291,479,174,329,226,378,267
108340,325,252,472,-266,-105,551,167,237,168,1,163,294,455,-164,287,152,924,447,-78,109,73,394,476,247,230,351,513,229,397,292,418,439
108341,317,303,511,-350,-121,478,93,121,150,-19,156,389,432,-202,271,179,967,453,-93,98,73,391,482,254,231,346,456,251,425,319,415,604
108342,129,177,554,-268,-104,748,64,214,165,15,252,497,427,-212,286,174,1026,449,-85,88,72,313,432,248,220,322,417,229,432,310,420,645
108343,-54,195,451,-260,-55,819,4,268,182,41,225,593,447,-203,313,249,1089,508,-80,105,142,310,409,269,225,339,496,147,426,290,442,579
108344,-105,241,363,-142,-40,722,-22,180,208,46,249,622,438,-227,306,180,1099,481,-103,90,143,419,454,270,199,341,502,151,410,302,422,521
108345,100,202,252,-225,-47,736,-8,69,183,16,264,402,422,-254,310,203,1035,352,-123,68,131,374,464,234,169,325,491,148,379,301,389,373
108346,253,78,410,-388,-58,690,-9,-38,147,32,297,286,404,-250,344,299,973,401,-116,80,153,331,524,253,190,344,532,184,374,283,410,365
108347,131,30,440,-383,-75,760,74,-371,140,40,293,647,410,-224,338,344,945,542,-65,90,121,350,643,318,209,343,519,276,429,299,437,449
108348,106,201,437,-302,-102,772,15,103,160,18,207,525,433,-241,275,343,836,479,-86,54,39,285,472,226,171,282,436,187,358,237,368,411
108349,300,284,552,-387,-83,862,-41,254,159,20,267,260,438,-245,297,62,801,456,-89,56,36,378,410,201,166,268,453,170,341,227,361,183
108350,465,352,655,-381,-53,726,166,244,185,50,309,248,459,-199,330,-52,773,463,-75,79,101,306,435,224,176,296,537,173,334,220,365,168
108351,385,232,674,-396,-74,586,287,224,172,34,298,281,442,-190,325,-42,695,442,-71,71,97,269,395,216,163,298,519,80,286,210,319,373
108352,194,152,590,-388,-94,701,261,230,171,22,271,106,439,-195,298,-51,787,435,-60,66,46,223,397,226,164,280,423,82,276,208,323,424
108353,42,-295,442,-331,-99,958,-70,237,157,43,133,-7,405,-208,305,15,831,365,-97,70,29,170,315,180,151,254,402,114,276,177,300,248
108354,10,-361,389,-407,-75,728,-201,154,138,29,132,68,367,-200,278,63,839,310,-117,80,36,195,191,149,151,275,437,95,261,191,314,174
108355,36,-76,470,-428,-78,873,-32,175,121,30,163,-237,344,-198,287,89,859,231,-143,60,10,210,132,126,153,261,409,96,265,194,298,298
108356,-53,261,517,-256,-90,730,62,213,159,20,176,-247,402,-157,299,151,827,258,-119,84,21,198,190,141,150,260,366,198,301,209,319,329
108357,92,316,513,-343,-114,607,120,137,150,8,167,15,392,-154,281,132,763,328,-102,106,29,130,203,150,167,271,331,182,294,224,340,338
108358,130,253,467,-429,-142,453,104,84,151,-3,138,294,414,-139,270,95,738,393,-88,81,19,102,242,164,205,272,332,182,323,246,354,365
108359,194,287,335,-418,-141,508,33,122,143,8,168,543,437,-125,271,47,801,402,-49,109,26,144,331,190,229,294,339,235,362,275,406,383
108360,190,375,317,-410,-129,445,-154,196,167,9,250,744,445,-126,313,70,801,450,-35,151,70,230,414,235,250,342,421,223,400,295,461,330
108361,106,347,415,-363,-124,528,-219,225,174,-2,134,751,441,-128,306,178,874,520,-35,140,99,368,416,260,260,330,514,230,414,309,433,297
108362,113,343,356,-360,-114,763,-312,266,155,28,232,633,436,-142,353,234,1084,426,-63,155,123,452,382,233,262,359,559,219,418,308,442,306
108363,102,87,405,-139,-118,1044,-489,220,166,66,271,537,397,-166,349,235,1077,350,-89,157,114,469,361,178,207,358,492,132,394,286,419,275
108364,38,-97,521,-181,-99,735,-280,73,165,52,213,513,394,-177,294,103,931,377,-107,115,63,349,340,159,191,323,499,70,347,240,412,250
108365,63,-6,513,-332,-98,665,70,110,147,32,235,494,407,-171,303,160,824,401,-87,124,105,195,361,198,202,319,556,85,348,246,417,287
108366,213,107,606,-394,-113,578,304,130,160,33,205,502,426,-159,301,98,792,468,-78,117,74,249,424,207,206,316,520,101,361,238,430,417
108367,313,224,717,-501,-132,504,383,-64,142,30,224,595,419,-144,300,-6,876,517,-65,108,61,276,506,229,201,319,506,173,373,244,403,453
108368,107,251,595,-484,-153,453,288,77,142,11,191,613,413,-152,278,73,908,457,-94,89,62,275,465,210,182,285,516,130,334,208,368,451
108369,-187,251,418,-337,-122,525,260,190,158,39,188,577,413,-136,282,267,951,449,-90,93,71,275,407,212,178,274,488,131,320,185,362,515
108370,-346,59,275,-256,-126,745,195,96,164,38,199,461,431,-161,272,258,936,439,-84,63,8,258,389,197,155,236,362,185,302,187,311,467
108371,-8,-30,470,-288,-112,670,105,231,169,17,212,268,437,-190,271,131,901,402,-105,35,-22,275,344,166,134,203,329,164,269,158,290,364
108372,379,154,669,-284,-112,635,130,317,189,48,290,346,464,-168,303,111,905,426,-87,88,42,247,317,193,174,253,426,222,306,180,325,319
108373,413,113,675,-292,-110,575,174,270,170,30,250,457,450,-172,279,121,785,447,-88,70,30,222,387,211,153,225,402,48,295,144,265,291
108374,264,-1,633,-288,-110,682,58,259,182,16,201,438,463,-166,270,60,759,468,-94,40,6,276,489,214,154,226,366,2,264,129,260,348
108375,251,111,547,-344,-130,708,-103,219,151,10,182,363,448,-193,242,-43,779,438,-117,27,-33,257,433,171,116,184,352,91,270,131,251,333
108376,244,255,456,-304,-137,720,-112,276,152,14,139,-30,447,-188,216,-12,767,380,-134,15,-26,188,363,154,77,167,379,71,226,88,224,164
108377,210,331,416,-294,-126,628,11,192,150,11,117,-303,428,-172,237,35,795,370,-124,39,4,215,267,145,98,194,418,142,273,108,245,152
108378,165,274,334,-268,-133,595,62,157,148,0,106,80,404,-178,245,42,786,357,-132,25,7,201,213,126,118,202,420,162,302,136,259,277
108379,208,251,440,-333,-130,546,55,250,149,-2,126,354,431,-171,244,129,826,381,-103,48,35,240,299,172,147,243,446,125,312,163,292,372
108380,219,216,510,-337,-119,616,51,211,159,-1,132,404,406,-173,234,250,829,413,-79,62,69,234,349,199,175,258,481,164,332,187,301,269
108381,262,230,508,-322,-120,579,22,229,164,5,91,460,424,-162,245,238,873,444,-73,95,91,235,416,226,173,290,506,227,356,200,311,134
108382,278,150,607,-477,-122,676,-112,164,141,11,149,529,404,-161,258,170,893,470,-74,89,80,288,511,233,173,267,510,120,353,189,308,239
108383,223,202,600,-462,-133,687,-305,234,131,27,226,437,419,-148,295,142,806,491,-81,78,88,305,528,222,168,269,470,65,325,160,261,362
108384,-58,122,338,-350,-139,881,-363,36,111,70,330,485,351,-173,330,188,913,400,-134,86,96,267,404,181,149,260,435,10,283,151,260,309
108385,-435,13,215,-294,-126,974,-279,-279,84,79,364,486,229,-204,325,311,1119,293,-189,79,78,362,300,139,116,243,432,84,279,137,267,112
108386,-350,129,262,-46,-79,831,-209,59,131,77,267,18,286,-206,324,440,1030,245,-183,78,118,358,244,126,110,263,525,147,266,132,288,18
108387,-156,244,313,17,-78,737,-32,166,153,46,253,13,355,-209,309,173,788,279,-162,68,95,204,201,115,97,253,531,191,250,139,274,189
108388,-66,101,276,-30,-126,671,147,165,146,26,237,193,372,-237,286,-46,627,324,-170,32,42,220,178,119,104,253,476,239,270,161,304,375
108389,121,-1,359,-211,-137,735,222,118,118,20,239,366,364,-258,296,-38,671,368,-172,40,46,198,216,145,117,247,404,252,268,163,300,419
108390,342,110,620,-474,-121,681,216,112,87,23,267,515,359,-239,315,62,781,392,-137,102,84,254,330,184,160,269,462,271,311,201,343,430
108391,366,160,647,-583,-139,685,136,93,57,44,292,445,322,-252,331,138,920,357,-159,104,123,353,308,171,165,293,506,225,313,194,357,458
108392,360,118,571,-482,-109,590,97,97,98,12,228,374,365,-243,327,249,884,423,-148,109,117,389,327,190,176,313,504,192,308,186,335,497
108393,486,-36,576,-532,-96,812,85,160,118,60,328,306,406,-218,371,272,748,455,-109,138,156,394,380,203,196,324,516,115,304,202,367,452
108394,334,-121,382,-459,-109,769,-14,258,126,50,301,236,371,-235,334,264,695,400,-139,109,110,327,356,175,171,295,471,81,266,164,323,404
108395,192,10,373,-289,-134,488,-66,269,142,7,146,157,380,-246,277,301,690,364,-132,77,61,272,318,152,164,262,435,48,236,151,302,400
108396,163,109,279,-225,-131,558,-173,87,148,4,132,223,348,-232,255,192,737,327,-143,59,36,218,280,131,144,223,370,-24,209,121,274,337
108397,155,371,391,-349,-110,510,-65,19,151,6,132,316,365,-208,246,150,757,388,-126,60,28,204,406,173,144,226,343,-124,195,111,242,345
108398,90,359,525,-408,-129,465,107,55,108,-18,153,341,333,-224,233,-27,713,379,-137,41,-23,127,486,170,120,190,283,-212,179,44,183,288
108399,157,324,566,-457,-140,453,100,78,96,-36,143,282,320,-222,215,-86,680,354,-151,25,-59,167,426,137,114,158,272,-100,199,55,178,258
108400,157,296,560,-584,-147,494,-60,23,80,-18,150,135,296,-223,216,-56,681,316,-164,4,-45,213,272,116,89,160,298,23,200,65,185,228
108401,125,278,517,-551,-127,591,-128,96,103,-10,118,180,320,-225,205,-67,695,298,-164,-6,-42,213,235,98,88,155,310,19,186,32,169,180
108402,197,100,332,-486,-117,886,-170,-44,107,27,49,337,304,-210,217,25,749,315,-165,12,-24,263,233,110,78,143,308,70,186,53,170,166
108403,34,32,126,-336,-109,615,-122,-184,119,13,33,352,302,-210,218,53,744,297,-152,17,9,177,203,88,83,143,363,26,175,38,160,144
108404,-7,115,288,-286,-89,614,-90,44,124,24,148,162,345,-191,249,100,682,285,-151,37,71,57,236,108,102,192,496,-27,165,33,200,38
108405,-248,90,327,-366,-102,752,-11,40,125,24,220,291,316,-203,236,30,708,333,-154,33,44,138,261,122,103,192,499,-19,176,34,190,-1
108406,-318,118,305,-357,-102,823,69,105,133,9,159,145,281,-213,226,247,746,276,-171,9,0,153,168,81,95,181,424,33,147,10,140,81
108407,-12,188,451,-257,-98,468,44,170,143,-23,100,-71,318,-230,197,191,693,251,-179,0,-43,172,47,77,77,163,336,77,128,18,170,220
108408,168,53,402,-264,-89,731,-12,50,126,12,152,4,304,-214,226,-71,669,280,-176,13,-81,288,74,90,104,156,318,84,169,44,195,220
108409,184,-85,439,-348,-100,863,-47,46,91,34,163,104,265,-221,256,-24,639,237,-189,28,-33,142,154,84,102,160,313,-49,130,42,166,151
108410,174,39,492,-293,-113,583,28,171,125,18,154,249,333,-184,262,8,652,295,-132,65,3,49,260,138,136,212,364,-107,165,73,197,157
108411,167,158,487,-382,-128,499,62,205,134,-2,140,348,372,-162,253,18,633,343,-102,81,24,95,272,168,153,219,385,-48,202,68,218,138
108412,197,193,427,-362,-138,455,-30,144,136,-14,99,400,367,-153,227,60,620,356,-96,76,49,180,227,162,152,233,444,-51,178,72,219,-149
108413,221,196,436,-345,-117,521,-96,125,169,13,148,447,380,-128,268,78,633,376,-80,87,80,201,217,173,173,258,495,-10,182,85,229,-149
108414,267,83,436,-459,-127,717,-170,151,153,18,118,325,377,-136,242,2,611,360,-103,79,30,113,183,133,167,246,428,8,185,90,250,206
108415,247,-44,452,-398,-152,716,-244,183,152,-12,85,167,388,-156,201,-41,696,313,-112,48,-32,82,153,110,142,189,291,5,176,68,215,339
108416,296,-16,496,-507,-110,770,-392,81,150,23,142,100,376,-148,224,0,748,276,-101,54,-6,126,111,117,142,208,277,13,197,92,231,383
108417,252,118,554,-455,-96,610,-425,52,157,39,89,228,390,-159,247,108,647,372,-78,71,31,201,248,148,173,225,327,39,258,145,268,317
108418,114,158,604,-434,-107,663,-325,65,160,43,130,286,405,-167,259,138,630,401,-84,68,22,194,331,171,171,228,349,13,259,154,258,311
108419,85,74,614,-457,-119,804,-231,80,141,59,161,311,400,-179,259,230,635,458,-84,59,11,211,432,196,164,223,329,6,258,136,237,311
108420,86,55,559,-347,-127,770,-146,170,153,52,147,293,388,-206,248,246,639,451,-95,52,-1,233,440,185,143,222,279,-121,232,115,254,249
108421,62,82,272,-231,-110,758,-1,223,168,31,185,333,395,-181,250,155,650,442,-77,72,0,197,470,183,140,225,310,-218,229,119,262,210
108422,103,68,161,-195,-94,629,133,200,178,-6,152,457,384,-169,257,71,694,473,-70,92,35,79,479,207,175,239,354,-104,253,146,302,226
108423,58,70,315,-181,-111,470,48,286,192,1,139,387,419,-145,286,-41,705,470,-63,99,34,194,410,241,171,253,352,-107,257,157,307,301
108424,66,252,456,-231,-120,344,-73,193,185,6,173,305,423,-124,289,-8,691,457,-47,110,52,238,384,242,178,277,388,-43,305,171,322,295
108425,38,233,537,-291,-146,460,-59,112,153,4,153,209,399,-142,259,41,689,401,-68,94,42,157,309,190,187,253,403,13,287,158,301,220
108426,48,218,448,-360,-143,515,37,1,149,3,142,-83,387,-164,278,166,783,398,-80,85,57,116,381,215,175,243,430,76,275,174,296,252
108427,-12,212,272,-247,-112,600,200,-272,150,23,131,32,375,-139,244,186,874,410,-94,89,27,154,336,196,175,242,414,146,291,170,294,153
108428,82,161,282,-403,-119,681,228,-111,124,7,141,145,340,-180,210,-41,731,333,-131,57,-12,154,180,132,141,218,384,154,268,132,244,-67
108429,101,203,413,-448,-107,564,201,114,109,10,172,278,348,-185,243,-155,670,362,-107,77,23,192,212,157,155,250,452,69,230,109,225,28
108430,21,211,453,-475,-113,665,174,152,117,52,226,353,383,-151,295,-48,664,404,-68,123,75,221,318,182,184,281,507,91,259,132,258,165
108431,85,286,469,-408,-108,525,140,182,130,22,223,224,393,-172,293,98,626,405,-74,139,73,229,354,175,197,278,461,166,292,147,286,269
108432,262,251,610,-460,-134,567,141,195,108,21,231,105,415,-181,304,102,642,418,-77,122,60,229,313,179,188,253,432,168,290,153,304,324
108433,327,240,614,-464,-120,641,101,183,136,63,213,399,405,-158,340,129,785,447,-47,134,77,200,343,200,204,292,410,86,308,172,317,383
108434,283,6,517,-505,-133,708,-17,-9,85,60,211,589,346,-175,332,134,856,374,-69,133,71,219,318,195,197,288,364,20,307,186,326,336
108435,237,-75,514,-494,-131,764,-97,-70,64,50,238,428,283,-193,341,100,793,339,-92,141,83,214,348,183,175,276,382,68,297,162,324,298
108436,105,-43,544,-390,-97,883,-207,115,116,66,226,116,364,-178,349,150,726,355,-85,140,134,260,296,172,174,302,453,73,254,144,292,359
108437,92,34,318,-321,-106,884,-343,160,128,64,212,62,384,-201,318,191,688,377,-92,106,115,336,246,145,158,281,437,79,220,120,269,267
108438,171,114,338,-384,-139,832,-353,48,120,36,153,90,336,-219,293,267,677,363,-102,99,60,340,244,122,155,259,351,95,233,104,256,233
108439,191,103,392,-426,-98,713,-234,17,109,17,183,161,340,-222,272,279,765,329,-122,78,-7,233,208,115,141,216,332,95,206,108,248,136
108440,186,-7,479,-415,-102,1002,-261,88,110,21,182,147,353,-200,265,317,720,355,-115,62,-10,279,253,148,140,212,310,96,206,90,232,119
108441,94,188,531,-343,-125,720,-234,88,145,2,122,84,371,-196,225,311,659,419,-96,61,-17,308,343,167,151,202,344,77,222,88,224,252
108442,-276,194,270,-203,-121,544,-24,53,145,-15,185,211,382,-200,230,79,725,416,-86,40,0,102,346,175,147,195,358,-35,205,71,201,287
108443,-448,156,222,-117,-103,522,192,140,147,-35,185,399,421,-174,234,-88,830,429,-74,54,10,204,422,206,167,203,379,-18,228,79,191,223
108444,-143,234,327,-61,-85,327,229,214,183,-42,139,355,448,-158,235,-38,771,430,-60,60,46,226,405,200,156,196,406,10,235,61,188,196
108445,176,275,491,-146,-114,354,183,177,182,-36,160,218,440,-161,232,28,702,423,-55,47,58,120,328,184,148,181,390,45,235,45,182,253
108446,456,358,583,-273,-113,376,203,97,181,-20,153,194,475,-127,242,59,733,479,-29,68,36,156,405,229,172,197,338,73,227,65,160,280
108447,508,366,610,-386,-126,431,182,109,155,-13,172,390,445,-129,258,91,697,489,-37,85,18,263,392,225,172,205,317,124,242,77,199,302
108448,466,329,678,-552,-122,489,116,-54,106,-3,201,443,387,-144,262,99,663,491,-62,94,31,330,318,203,164,221,381,54,235,98,219,279
108449,341,195,572,-579,-120,550,-6,15,101,-23,115,397,373,-173,218,22,691,439,-86,47,0,194,301,156,126,169,341,-59,138,22,133,63
108450,295,79,406,-511,-103,564,-63,253,121,-7,126,376,385,-172,231,13,685,397,-101,41,2,186,272,127,89,172,386,-65,115,-29,99,13
108451,115,-4,285,-201,-104,563,-43,81,135,4,135,428,372,-183,250,42,616,370,-116,52,7,168,191,108,99,176,397,-170,117,-25,96,80
108452,-128,28,268,-144,-111,679,-131,95,126,6,154,438,346,-200,250,52,541,327,-147,29,-24,158,175,104,94,150,305,-189,95,-50,103,209
108453,-155,120,322,-268,-90,786,-256,89,119,15,163,237,329,-196,253,153,613,346,-131,44,-8,233,190,107,103,186,301,-79,119,-12,162,307
108454,-33,192,432,-203,-66,725,-314,101,143,22,192,-52,351,-193,270,206,740,341,-112,102,62,288,155,114,151,247,429,51,149,54,214,211
108455,203,188,343,-255,-102,573,-179,105,141,40,196,-74,351,-198,285,98,736,333,-123,115,74,259,236,125,168,260,473,110,169,56,223,94
108456,347,225,423,-298,-105,567,118,123,150,33,188,-127,392,-168,269,8,743,387,-97,132,88,277,356,167,198,285,455,112,204,90,235,152
108457,476,298,615,-425,-93,587,198,177,147,53,281,11,416,-150,330,70,780,460,-56,172,133,320,460,226,251,323,476,29,236,126,301,349
