,Fp1,Fp2,F7,F3,Fz,F4,F8,FC5,FC1,FC2,FC6,T7,C3,Cz,C4,T8,TP9,CP5,CP1,CP2,CP6,TP10,P7,P3,Pz,P4,P8,PO9,O1,Oz,O2,PO10
208827,153,593,696,28,-76,238,-150,453,-9,58,129,185,283,52,265,179,204,213,129,-15,163,336,441,224,305,322,542,84,258,155,71,33
208828,60,564,607,64,-115,30,-172,459,-31,4,74,198,298,36,256,223,198,199,110,-20,169,338,494,220,282,329,535,116,292,168,83,64
208829,-3,294,603,73,-115,235,-195,495,-32,28,82,213,312,49,257,211,203,189,135,-24,169,350,442,227,305,330,557,251,370,234,116,96
208830,60,267,628,35,-110,400,-208,503,-18,61,137,224,312,58,292,126,196,233,156,-3,168,365,546,323,344,342,576,237,444,278,144,102
208831,71,437,616,25,-124,371,-198,505,-35,43,63,277,309,43,282,-40,217,301,151,-28,182,321,791,310,322,324,553,269,401,239,125,83
208832,110,512,561,31,-116,344,-90,490,-26,53,96,173,307,48,303,-360,235,244,133,-27,240,297,547,240,301,342,581,304,336,222,139,142
208833,129,473,533,22,-115,316,-59,438,-42,74,156,27,267,45,356,-14,160,150,105,4,316,347,249,195,307,370,699,139,307,221,203,379
208834,63,434,498,25,-105,297,24,452,-27,107,251,129,312,48,347,217,221,222,129,13,226,372,623,232,325,368,770,-88,296,255,285,647
208835,13,455,490,26,-103,300,-26,453,-19,82,314,212,297,29,319,-29,217,264,108,-25,97,332,752,223,285,317,603,-219,223,186,182,566
208836,18,482,454,83,-90,372,-197,462,-34,97,331,184,275,49,360,77,209,215,97,-29,136,272,530,197,237,270,430,-52,169,31,-64,-191
208837,43,488,429,29,-105,383,-187,417,-49,98,209,162,261,52,310,215,278,168,91,-57,46,285,417,196,231,189,298,133,227,-6,-178,-689
208838,99,503,419,-48,-129,270,-139,473,-35,64,124,132,270,62,303,167,262,210,121,-42,5,320,440,266,256,168,294,152,336,132,-53,-229
208839,131,449,474,-64,-124,292,-81,446,-43,68,108,129,260,49,293,258,254,173,100,-37,16,291,403,215,246,175,322,285,288,94,-87,-182
208840,140,461,568,-54,-104,273,-74,423,-27,80,181,193,282,75,321,224,299,205,118,-40,48,252,538,219,262,194,344,228,266,110,-78,-149
208841,-9,433,557,-57,-121,260,-116,372,-80,86,180,135,266,68,326,210,236,191,106,-45,49,249,461,225,250,178,334,-38,240,79,-49,-54
208842,-51,439,552,-47,-118,344,-90,338,-95,93,168,40,234,47,323,171,218,137,55,-73,35,265,292,147,212,156,316,45,226,99,-46,-50
208843,-11,411,534,-40,-97,372,-106,345,-72,95,181,39,228,45,347,81,168,156,59,-53,51,260,300,157,215,184,320,32,236,101,-63,-150
208844,-52,364,507,-53,-114,384,-215,334,-82,80,161,91,209,34,297,-45,146,167,62,-73,1,234,408,186,222,161,367,-4,265,91,-39,-248
208845,-50,422,539,-77,-126,319,-203,344,-101,78,159,105,185,15,280,-111,170,179,41,-78,-11,176,453,173,198,138,308,47,230,48,-100,-44
208846,-53,439,569,-84,-105,344,-156,387,-64,67,162,143,218,27,279,-70,215,187,59,-73,15,119,469,187,198,112,264,-5,218,8,-118,2
208847,24,329,545,-1,-103,293,-118,426,-56,62,172,165,230,36,262,-96,221,175,78,-84,-7,157,488,203,205,105,278,84,232,17,-112,-72
208848,144,392,576,19,-89,330,-120,416,-81,66,163,105,209,38,279,50,233,124,70,-62,37,253,391,164,222,154,334,325,269,84,-34,54
208849,168,552,609,4,-115,297,-231,457,-58,53,140,105,235,37,273,113,207,159,64,-48,40,248,464,174,233,192,394,268,288,129,24,148
208850,190,620,618,-5,-99,202,-247,478,-39,65,210,181,278,50,308,135,202,232,87,-34,74,243,605,214,257,218,472,20,270,149,64,223
208851,219,639,575,-3,-107,275,-113,514,-38,80,176,174,299,51,313,172,219,239,111,-21,102,246,576,209,261,239,484,-11,252,186,110,238
208852,214,590,508,-17,-102,389,-39,491,-21,107,176,175,286,55,329,148,187,248,117,2,135,284,497,207,286,266,463,-116,230,201,133,216
208853,213,610,490,17,-103,337,-13,457,-35,108,167,242,247,75,351,-57,174,224,116,2,180,331,399,197,276,299,474,-233,197,184,130,297
208854,205,564,461,19,-107,286,-30,479,-41,84,149,183,281,61,344,-376,219,250,96,-15,247,299,594,174,252,262,445,-121,152,50,-2,218
208855,-6,355,400,35,-103,311,-45,475,-26,83,143,54,295,41,320,-462,168,274,70,-38,206,306,577,168,219,213,400,-179,103,-45,-124,46
208856,-86,306,331,115,-101,301,-55,410,-46,76,143,-33,255,45,291,-343,65,164,41,-69,-40,327,169,124,187,159,292,-238,57,-86,-208,-225
208857,-102,292,299,101,-86,402,-170,430,-52,76,115,-25,253,33,297,-173,5,130,43,-67,-37,259,179,133,185,168,324,-295,128,-14,-127,-173
208858,-9,369,396,-44,-103,512,-208,411,-63,91,101,128,227,3,265,2,56,182,48,-101,-36,135,475,151,194,140,311,-187,146,3,-144,-249
208859,140,467,470,-34,-124,506,-194,418,-74,75,135,195,234,-3,234,-18,13,221,41,-129,-153,68,646,140,166,82,253,-244,85,-65,-202,-445
208860,129,461,454,43,-93,420,-187,426,-37,69,152,117,229,23,255,38,-82,158,42,-86,-49,104,363,116,190,154,371,-179,84,-9,-85,-119
208861,84,433,499,21,-90,365,-181,357,-47,78,117,21,235,30,221,6,-28,125,65,-97,-52,36,277,151,219,143,359,-209,167,71,-18,-4
208862,27,430,527,-58,-95,364,-196,282,-69,65,111,25,222,33,202,2,51,142,52,-117,-90,68,331,134,196,93,256,-195,109,-2,-141,-289
208863,28,415,513,-10,-94,334,-195,269,-45,69,129,15,211,44,201,-75,56,123,63,-106,-89,100,216,121,195,75,173,-5,103,-32,-262,-543
208864,17,443,473,18,-79,217,-192,298,-70,40,153,81,232,67,214,-113,26,125,73,-84,-68,97,238,144,217,110,202,-160,55,-79,-229,-548
208865,-65,447,445,-21,-98,252,-175,302,-78,30,47,65,231,60,207,-72,6,142,92,-89,-66,150,351,186,229,121,242,-345,63,-28,-122,-255
208866,-45,494,442,5,-100,236,-162,309,-51,38,55,-5,217,76,199,-23,-35,125,104,-81,-87,158,193,175,238,99,208,-215,157,32,-113,-131
208867,23,487,446,-26,-111,273,-193,282,-55,68,136,-27,235,111,249,100,15,121,131,-41,-15,82,183,209,258,174,259,-81,203,63,-47,-222
208868,-38,454,411,-71,-120,275,-182,289,-73,58,91,-4,259,90,256,186,37,133,129,-52,10,56,245,189,265,168,288,6,187,34,-71,-193
208869,-144,420,294,-76,-131,247,-195,353,-75,47,95,-40,248,69,213,87,22,128,100,-75,-37,71,226,154,244,133,278,30,152,3,-120,-189
208870,-77,251,206,-50,-118,353,-179,362,-37,85,123,-17,288,111,246,110,11,177,130,-38,12,117,275,215,281,198,367,-26,216,73,-23,-127
208871,-30,138,251,-67,-134,317,-247,295,-60,59,106,0,272,112,257,103,0,193,132,-27,59,131,322,242,301,242,427,33,266,142,5,-125
208872,48,330,320,-84,-134,290,-283,260,-65,52,125,14,262,107,261,65,10,159,119,-27,19,131,319,239,290,224,345,-16,243,105,-23,-161
208873,56,468,362,-89,-114,221,-247,308,-36,59,125,57,275,111,271,1,65,168,137,-12,29,137,396,253,286,217,312,-29,265,117,-54,-178
208874,68,461,400,-64,-106,141,-188,379,-4,50,103,38,293,109,290,-61,77,213,163,-13,71,110,556,257,289,231,346,-102,217,67,-87,-190
208875,-55,389,345,-4,-142,201,-188,372,-16,24,63,-43,267,72,258,-204,4,155,101,-62,45,114,468,207,258,211,318,-130,162,19,-74,-114
208876,-159,324,335,18,-135,289,-279,299,-32,54,82,-108,231,79,262,-221,-55,56,90,-40,16,169,219,168,246,215,337,-65,165,47,-19,18
208877,-222,196,352,-46,-105,321,-294,270,-37,44,34,-93,217,81,263,-106,-44,51,87,-28,54,214,250,158,268,244,367,-91,133,44,35,53
208878,-203,327,359,-30,-94,358,-200,275,-17,37,90,-26,241,67,270,20,-8,109,85,-20,65,129,379,174,270,265,418,-28,182,92,51,-122
208879,4,397,371,-37,-94,339,-174,283,-33,63,102,-35,237,62,267,-10,-42,87,89,-61,35,43,263,158,228,221,372,-30,170,38,-97,-407
208880,195,284,386,-9,-98,298,-193,356,-33,58,82,-60,244,48,238,-14,-32,132,96,-79,15,38,257,179,212,186,328,-187,198,-29,-204,-224
208881,165,228,388,13,-105,312,-236,398,-13,49,71,-75,278,58,236,-114,22,249,91,-66,36,80,505,219,231,207,403,-79,244,64,-65,-27
208882,118,371,391,27,-103,297,-259,393,-19,65,91,-53,264,50,266,-463,12,186,91,-43,110,85,435,184,234,237,450,30,165,39,-17,-9
208883,56,495,408,13,-83,235,-254,306,-44,49,120,26,190,41,311,-296,-6,4,36,-40,194,105,170,60,207,233,460,140,80,15,-32,-93
208884,40,427,490,-19,-73,385,-229,290,-38,67,139,73,196,39,272,58,-55,-20,23,-69,104,151,260,25,190,208,385,-217,8,-52,-109,-170
208885,7,234,430,-49,-102,422,-201,286,-49,64,158,88,215,11,238,45,19,88,35,-82,-58,156,535,105,188,162,288,-302,80,-16,-83,-111
208886,-37,311,336,9,-104,247,-258,319,-34,46,102,66,220,35,254,-83,-5,97,50,-60,53,216,505,147,221,210,332,79,194,85,-13,-21
208887,2,455,347,29,-109,175,-231,393,-18,46,99,68,259,54,267,-244,78,178,82,-37,148,238,671,212,257,247,331,156,220,80,-43,-54
208888,59,401,370,-38,-116,245,-184,395,-30,61,214,18,244,40,273,-192,84,105,69,-28,137,211,462,173,250,216,342,-161,163,-14,-112,-136
208889,118,471,480,-24,-98,133,-123,391,-27,80,203,53,255,65,309,400,119,88,97,6,93,207,368,187,291,273,487,160,289,123,12,-70
208890,118,562,523,32,-78,250,-134,446,0,95,171,90,264,84,317,449,162,128,123,19,33,245,391,265,334,291,579,472,382,196,107,-61
208891,-72,592,479,4,-90,272,-224,481,-21,87,181,76,248,67,311,136,177,164,108,17,140,224,443,274,347,308,576,451,420,229,105,-17
208892,-136,551,474,-10,-83,374,-188,445,-44,86,121,50,225,43,280,190,133,63,51,-20,89,282,218,119,278,230,487,75,171,77,-6,151
208893,-45,476,448,-30,-71,362,-151,413,-67,82,139,87,211,63,302,260,188,118,60,-9,105,318,270,122,295,254,492,-30,140,97,42,214
208894,98,485,529,-54,-83,247,-95,465,-54,59,165,109,244,74,309,171,253,203,60,3,118,299,491,166,298,263,493,-232,146,87,61,181
208895,135,456,632,-72,-99,219,-84,416,-87,42,118,100,222,54,262,209,172,180,41,-30,109,272,477,155,266,236,480,-193,154,91,60,214
208896,107,435,600,-136,-108,285,-64,312,-109,51,107,80,183,45,269,146,136,95,38,-47,117,305,221,131,263,250,516,-113,161,122,98,287
208897,163,447,587,-171,-99,210,10,281,-99,86,154,133,199,62,297,232,187,121,53,-5,138,330,296,169,275,259,543,-116,182,109,83,261
208898,174,343,588,-128,-111,152,-6,294,-91,61,164,136,194,50,265,219,185,115,23,-43,103,329,339,144,230,187,415,-247,132,11,-54,-57
208899,85,277,534,-95,-121,247,-50,305,-94,72,205,115,172,18,276,48,186,92,-2,-60,106,371,305,76,191,165,396,-75,54,-20,-127,-131
208900,-60,259,430,-32,-103,396,-148,374,-92,103,227,111,202,44,293,-77,163,162,18,-45,112,331,431,108,208,190,455,-116,74,-10,-86,68
208901,-72,334,338,-12,-72,434,-200,358,-76,108,204,117,196,41,284,-159,114,208,24,-78,118,281,458,135,194,175,444,-180,110,-24,-66,-41
208902,27,420,280,0,-76,408,-147,378,-65,72,119,152,198,23,241,-68,166,202,-4,-110,24,341,448,106,162,112,380,-117,69,-62,-163,-325
208903,58,511,332,1,-86,331,-95,387,-70,55,116,200,216,19,238,36,193,151,-4,-107,10,367,396,95,173,107,396,-1,104,-33,-112,-246
208904,33,543,433,3,-77,265,-79,407,-72,53,113,193,198,17,223,-375,146,178,-1,-125,51,296,492,110,170,112,396,-73,131,-20,-101,-136
208905,8,509,455,-14,-94,313,-114,413,-80,58,92,140,178,-1,211,-490,218,173,-14,-125,108,102,545,86,136,117,352,-55,133,-15,-103,-120
208906,104,504,468,-38,-75,314,-129,394,-77,53,119,57,166,-9,212,179,119,81,-23,-110,91,93,322,74,113,103,351,68,158,1,-106,-143
208907,160,544,519,-51,-56,410,-48,388,-57,85,213,36,170,6,215,294,126,83,-7,-120,-61,194,298,97,125,82,327,167,218,47,-92,-136
208908,129,538,541,-38,-57,488,-49,424,-53,105,244,80,203,32,238,230,193,186,12,-98,-11,177,559,114,147,99,329,185,222,81,-50,-101
208909,-9,494,523,51,-50,378,-50,454,-44,78,250,130,230,41,246,216,120,210,26,-89,10,152,494,127,148,96,310,54,177,31,-77,-104
208910,-194,438,561,69,-39,277,-81,528,-13,92,233,160,259,52,269,103,117,165,41,-58,77,184,320,156,185,151,363,-189,162,30,-90,-42
208911,-158,464,596,93,-30,373,-59,476,-19,89,175,149,226,26,252,-9,111,90,28,-76,77,194,200,110,186,139,376,-76,167,33,-104,-106
208912,3,566,570,80,-46,407,-86,419,-28,88,181,167,260,37,232,-104,158,177,65,-87,54,207,373,164,181,126,320,20,226,33,-141,-113
208913,137,625,600,87,-36,388,-76,467,-13,96,225,146,307,41,270,47,162,179,92,-62,82,245,358,144,210,174,380,176,215,90,-51,77
208914,187,557,664,20,-41,287,-98,463,-23,103,215,166,312,58,274,239,129,167,95,-49,77,285,314,141,235,230,495,118,219,105,40,167
208915,260,396,675,-26,-57,341,-116,437,-23,88,132,198,287,39,241,274,148,144,86,-72,76,299,319,133,223,225,506,-153,135,65,28,165
208916,342,402,635,55,-52,281,-85,489,8,61,83,286,342,40,184,55,209,262,85,-122,-7,205,702,153,173,119,308,-478,17,-96,-215,-112
208917,372,477,585,93,-39,299,-86,539,-12,60,81,229,348,23,191,-219,139,258,67,-123,52,123,657,136,144,94,260,-478,-31,-182,-303,-467
208918,299,421,543,55,-44,363,-98,519,-25,58,113,90,311,12,218,-192,101,152,65,-84,181,164,232,145,174,171,428,-269,69,-83,-154,-313
208919,266,384,593,27,-64,375,-50,503,-5,48,157,100,325,35,209,292,119,133,78,-107,47,223,182,139,180,107,375,-163,88,-51,-159,-48
208920,203,452,665,80,-45,294,-14,482,2,70,158,153,352,44,188,441,111,138,91,-128,-157,291,135,121,196,80,318,-107,80,22,-87,53
208921,43,426,630,108,-46,278,-10,455,-8,62,163,146,356,65,194,165,118,146,111,-94,-26,201,180,159,234,148,317,-151,116,61,-20,67
208922,27,397,605,104,-66,223,-40,413,-24,47,137,130,348,66,192,163,138,179,121,-91,-1,157,292,190,240,156,289,-113,160,76,-37,-26
208923,117,447,578,39,-56,170,-52,411,4,36,124,75,367,71,196,70,181,225,142,-70,-13,188,383,224,239,146,295,-87,182,48,-100,-134
208924,159,434,575,-14,-57,259,-84,492,-9,42,123,68,382,64,200,-26,186,303,161,-71,-41,230,465,251,256,132,258,-89,170,-48,-210,-230
208925,197,447,534,-25,-103,288,-140,468,-34,10,113,104,352,33,183,-105,107,229,132,-90,-22,177,373,217,232,125,265,-80,138,-88,-241,-246
208926,98,515,534,31,-103,248,-154,410,-35,33,81,131,341,65,222,-358,140,205,167,-55,59,154,377,246,283,195,325,-35,206,18,-141,-167
208927,52,506,548,22,-91,296,-167,449,-24,39,73,162,364,76,263,-315,163,237,197,-16,154,166,442,293,318,231,367,-3,264,60,-97,-134
208928,58,394,513,0,-103,355,-204,456,-45,30,96,170,339,65,243,175,142,227,169,-32,82,166,480,272,312,217,350,16,254,49,-86,-124
208929,99,294,408,-22,-98,380,-224,487,-53,52,155,235,352,69,218,198,144,277,186,-30,-69,180,643,336,315,187,298,-66,283,90,-40,-84
208930,-4,330,354,-44,-120,277,-256,565,-39,60,156,207,399,88,264,123,163,405,236,-2,82,129,932,428,363,262,400,-140,345,135,23,-25
208931,-209,381,387,-46,-107,285,-175,499,-62,61,193,184,362,91,305,-45,145,274,181,32,170,193,530,273,343,325,534,316,363,227,131,155
208932,-185,449,483,-21,-82,231,-268,397,-44,55,188,170,329,67,277,-53,139,201,166,9,81,265,338,245,304,268,474,115,294,126,13,-5
208933,-6,407,561,-9,-83,364,-277,394,-53,86,265,158,331,65,325,-161,154,225,147,0,112,189,422,272,300,243,395,14,261,84,-66,-122
208934,148,458,654,1,-95,348,-231,372,-25,108,352,113,335,77,377,58,172,221,157,37,186,194,394,255,312,292,426,182,284,159,46,111
208935,178,515,678,0,-99,232,-161,379,-51,56,245,105,329,76,311,128,152,234,143,1,143,238,409,219,288,268,463,126,288,131,50,99
208936,190,560,679,0,-69,396,-61,405,-61,80,168,205,339,51,298,228,150,286,131,-21,133,290,545,238,284,264,450,146,283,99,-14,-57
208937,216,571,733,-20,-47,477,12,468,-52,112,240,247,335,69,314,320,151,306,134,-3,114,352,662,257,284,276,440,171,298,99,-9,-105
208938,252,571,756,-30,-53,400,27,500,-40,101,236,146,303,53,309,305,130,220,116,-3,145,414,362,234,305,290,509,183,327,168,78,104
208939,233,586,732,-17,-63,226,79,487,-68,83,230,100,295,35,321,297,171,186,129,-5,163,421,272,219,314,312,550,82,326,215,153,187
208940,237,639,711,21,-14,247,92,486,-41,111,267,235,332,71,336,355,184,258,174,34,237,395,417,271,369,376,614,100,378,230,180,108
208941,218,549,681,49,-34,439,92,464,-36,118,289,263,326,60,333,334,204,228,140,27,226,391,405,281,350,357,591,109,348,206,62,-13
208942,184,610,697,55,-47,448,156,548,-3,110,306,241,326,62,344,328,249,212,140,37,232,443,407,263,331,340,578,221,349,259,143,268
208943,233,674,679,16,-58,380,154,511,-13,87,302,301,305,43,359,163,325,299,133,33,295,444,569,293,339,367,623,207,349,251,205,345
208944,253,688,702,10,-41,369,109,501,-9,119,289,340,334,66,372,-124,294,395,163,47,382,446,681,376,373,381,646,-50,374,217,175,270
208945,247,672,749,74,-33,233,99,575,3,87,277,304,355,48,371,-25,256,334,146,33,358,482,577,331,348,365,664,164,387,202,97,55
208946,232,547,720,107,-31,313,116,583,-7,69,294,299,321,44,318,264,351,256,110,-4,113,564,550,253,315,329,699,578,420,281,160,171
208947,303,433,606,23,-24,440,103,539,5,92,304,295,317,56,334,102,367,342,141,7,161,581,685,351,357,345,651,310,489,351,275,492
208948,320,378,559,17,-43,546,108,491,-11,114,200,242,281,44,335,-220,324,286,104,-10,243,573,511,277,323,350,647,247,457,368,287,554
208949,259,491,622,7,-33,477,134,484,-36,100,223,238,246,8,324,75,295,235,85,-25,258,557,520,217,295,313,660,250,333,243,190,342
208950,229,573,665,59,-28,421,148,544,-35,101,316,319,285,32,311,537,354,285,81,-47,197,526,684,227,266,277,619,159,252,155,47,172
208951,147,595,696,89,-44,362,118,602,-41,101,347,320,275,39,291,549,368,278,79,-55,82,429,639,216,223,214,483,134,230,55,-86,-157
208952,-46,518,700,151,-24,332,-12,580,-33,103,368,235,261,33,313,487,350,236,75,-40,159,460,450,223,257,266,560,328,337,159,35,-72
208953,-97,453,717,111,-21,433,-112,532,-26,99,362,249,257,52,313,455,364,236,79,-36,187,514,503,214,255,272,603,180,301,173,81,183
208954,123,568,749,2,-36,408,-69,505,-48,89,350,305,277,42,295,419,391,297,84,-51,186,523,690,235,264,256,649,155,293,174,125,305
208955,299,651,823,13,-48,419,-9,527,-52,77,290,350,290,27,250,354,434,339,102,-58,165,515,833,284,256,231,636,199,324,137,50,104
208956,411,750,823,-19,-44,356,101,470,-61,37,194,319,272,27,231,308,425,267,75,-100,143,534,569,235,216,184,565,254,296,126,-36,-85
208957,409,684,846,-8,-50,336,112,452,-73,41,207,275,256,48,213,284,383,225,91,-102,109,551,416,210,251,196,540,72,268,158,57,121
208958,349,559,824,52,-42,294,6,525,-55,62,223,209,286,63,221,250,363,261,134,-63,164,488,459,256,276,256,617,54,311,235,165,400
208959,282,641,778,-10,-50,265,27,524,-58,47,239,179,304,46,247,121,328,268,126,-23,235,474,474,224,283,297,676,284,343,284,227,544
208960,263,754,741,-60,-39,232,90,507,-55,46,220,198,312,66,243,48,320,274,145,-23,217,483,451,261,309,279,617,164,320,216,136,349
208961,244,671,664,-25,-37,344,52,458,-49,82,266,210,310,52,255,75,341,233,158,-33,169,435,397,269,303,245,488,159,315,178,30,-32
208962,195,571,580,13,-59,371,23,431,-38,93,224,212,327,59,259,165,311,294,170,-31,173,397,515,304,308,252,469,73,374,197,51,-86
208963,107,581,567,-17,-67,349,-28,474,-16,82,181,218,369,88,269,285,320,370,193,-17,194,381,669,332,342,281,496,160,388,222,97,-12
208964,98,540,454,-96,-85,348,-61,433,-38,86,182,128,339,113,284,240,222,257,188,3,170,375,416,305,371,308,505,279,387,272,124,35
208965,69,499,340,-84,-106,205,-65,339,-49,65,165,90,356,120,286,48,178,251,211,38,203,395,363,348,407,362,565,129,411,278,174,40
208966,-40,420,430,-59,-120,121,-124,355,-41,48,131,155,352,121,265,-14,193,251,227,30,159,376,499,353,409,355,536,44,379,219,124,-25
208967,-48,315,496,-57,-125,180,-131,357,-70,46,86,125,325,119,250,-62,199,169,197,10,73,378,396,281,364,293,444,308,399,297,143,172
208968,55,340,489,-75,-120,289,-82,354,-112,60,116,112,305,91,258,-44,183,165,160,-15,44,271,376,249,326,212,333,281,338,167,-52,-36
208969,184,432,493,-115,-118,330,-43,344,-98,80,165,125,324,112,277,137,196,190,166,-1,84,174,441,279,347,235,360,301,346,166,-69,-130
208970,211,509,495,-121,-113,310,7,304,-76,87,188,91,321,121,319,111,173,183,163,25,183,197,430,273,349,251,422,208,282,123,-40,-115
208971,221,559,536,-77,-91,297,4,326,-47,102,160,124,329,121,341,-195,156,192,181,40,268,201,413,241,354,294,433,54,245,103,-33,-125
208972,178,510,481,-87,-101,266,-45,360,-52,81,146,104,298,99,346,-348,66,146,154,25,234,173,350,197,323,284,397,-149,174,73,-35,-103
208973,164,494,475,-19,-88,305,-99,386,-31,88,184,108,312,102,339,68,104,132,176,13,53,152,343,199,322,245,376,-215,141,26,-49,-93
208974,105,427,472,-33,-99,373,-95,334,-34,86,180,54,297,81,299,246,153,183,141,-2,32,188,381,212,323,222,334,-112,163,-4,-109,-121
208975,26,341,462,-17,-88,378,-75,329,-54,91,199,7,309,79,299,292,125,219,145,1,-17,218,462,253,338,231,308,-201,151,-45,-166,-159
208976,10,300,458,-4,-77,352,-112,341,-74,90,200,-3,302,79,328,283,89,188,136,19,71,223,462,237,347,240,350,-175,193,21,-105,-120
