,Fp1,Fp2,F7,F3,Fz,F4,F8,FC5,FC1,FC2,FC6,T7,C3,Cz,C4,T8,TP9,CP5,CP1,CP2,CP6,TP10,P7,P3,Pz,P4,P8,PO9,O1,Oz,O2,PO10
92629,-371,-357,74,-365,-133,-41,-8,28,-38,88,518,-382,-48,-50,-150,33,74,14,-97,-119,-254,105,174,-148,146,-185,63,110,357,43,-259,-71
92630,-350,-345,109,-339,-122,-26,14,71,-23,87,552,-369,-21,-53,-133,58,82,10,-79,-105,-240,140,132,-163,176,-149,91,12,316,1,-262,-57
92631,-335,-339,139,-344,-112,-3,59,102,-23,91,586,-344,-25,-36,-124,122,86,38,-60,-86,-175,202,120,-155,196,-125,113,-105,265,3,-253,-31
92632,-366,-355,109,-344,-145,-14,56,71,-30,83,604,-348,-38,-51,-122,134,58,4,-76,-81,-170,207,99,-176,175,-135,112,-148,216,-28,-291,-44
92633,-367,-369,174,-315,-143,-18,40,116,-12,83,607,-330,9,-32,-95,115,92,27,-48,-60,-160,197,151,-166,213,-85,161,-56,296,-2,-217,-5
92634,-376,-397,213,-335,-169,-45,0,135,-10,79,555,-310,29,-29,-109,85,140,55,-29,-52,-156,102,192,-129,237,-55,165,66,346,42,-207,8
92635,-369,-407,182,-335,-169,-63,-11,138,8,78,562,-314,14,-12,-111,66,117,50,-24,-51,-169,64,162,-123,259,-70,127,53,330,19,-232,-52
92636,-406,-432,114,-354,-175,-75,6,97,17,77,575,-348,19,7,-99,57,103,20,-10,-29,-163,122,142,-137,266,-63,142,15,308,17,-234,-39
92637,-421,-465,114,-370,-201,-79,-21,89,-8,74,531,-357,8,-19,-117,30,47,-14,-36,-40,-208,89,84,-175,245,-82,123,-73,228,-42,-290,-61
92638,-422,-482,116,-365,-191,-98,-27,104,5,75,508,-365,18,-18,-139,2,53,-37,-38,-60,-232,52,84,-183,235,-105,86,-37,234,-51,-305,-106
92639,-439,-488,35,-403,-186,-92,-46,49,-3,63,501,-406,-13,-16,-150,-12,51,-52,-40,-64,-240,53,55,-188,230,-119,65,-78,233,-53,-315,-92
92640,-419,-493,48,-371,-184,-87,-88,61,-4,67,492,-413,-23,-15,-165,-2,17,-57,-47,-64,-256,59,47,-188,230,-130,82,-23,258,-30,-313,-82
92641,-394,-482,79,-359,-190,-115,-50,99,-17,40,462,-415,-23,-41,-223,-23,-43,-77,-76,-104,-305,15,16,-233,201,-166,53,-86,211,-102,-372,-138
92642,-388,-472,86,-362,-177,-101,-45,100,-3,53,462,-429,-15,-13,-234,-52,-62,-64,-76,-101,-303,12,36,-220,188,-175,14,1,261,-54,-339,-144
92643,-384,-473,86,-353,-179,-92,-42,78,-10,72,448,-454,-38,-30,-243,-72,-59,-80,-80,-127,-331,1,28,-247,153,-205,10,0,231,-68,-328,-136
92644,-352,-458,141,-323,-171,-114,-95,110,6,45,424,-395,-5,-14,-250,-49,-35,-61,-65,-117,-310,54,35,-233,176,-164,43,-13,241,-34,-275,-87
92645,-367,-468,136,-316,-160,-126,-151,116,28,38,415,-395,14,0,-253,-69,-21,-43,-27,-85,-297,49,47,-213,197,-172,33,18,270,-3,-262,-64
92646,-397,-507,118,-339,-190,-135,-114,77,-10,32,425,-436,2,-6,-258,-113,-55,-65,-46,-123,-322,-5,15,-225,202,-206,-28,-29,232,-65,-302,-140
92647,-384,-502,94,-343,-181,-119,-117,91,0,40,434,-419,18,23,-242,-87,-25,-45,-9,-96,-314,12,45,-202,223,-193,-4,-105,229,-107,-350,-168
92648,-370,-491,91,-330,-181,-108,-107,99,0,57,449,-423,26,6,-217,-62,-47,-40,-15,-68,-297,63,29,-207,225,-207,16,-160,228,-89,-340,-136
92649,-415,-512,103,-351,-186,-116,-140,84,-14,47,437,-416,4,-14,-233,-67,-65,-36,-26,-100,-322,5,31,-200,199,-227,-13,-156,213,-118,-380,-182
92650,-407,-501,139,-341,-150,-112,-130,113,-1,61,437,-392,19,-4,-212,-61,-8,5,-6,-90,-322,2,104,-141,230,-190,-11,-23,273,-95,-358,-172
92651,-391,-496,165,-322,-153,-92,-133,149,7,59,443,-355,41,-4,-212,-73,55,41,3,-86,-300,-17,193,-111,251,-161,-27,77,324,-42,-337,-141
92652,-399,-505,150,-328,-167,-100,-110,141,-4,56,456,-329,48,-2,-203,-61,54,48,-1,-63,-295,-43,200,-126,244,-173,-14,-238,214,-103,-364,-164
92653,-379,-459,146,-311,-169,-62,-65,149,-15,91,502,-351,70,4,-169,-5,23,45,17,-33,-246,22,132,-123,264,-153,23,-315,161,-143,-340,-158
92654,-361,-446,174,-310,-153,-92,-36,166,0,89,535,-328,64,30,-144,24,35,52,25,-28,-222,63,114,-98,276,-126,36,-291,196,-102,-290,-130
92655,-384,-464,175,-324,-176,-120,-37,160,2,94,555,-335,64,24,-164,26,19,53,30,-27,-229,73,99,-96,283,-114,43,-190,239,-45,-284,-96
92656,-356,-462,198,-302,-178,-50,-21,165,0,103,579,-325,87,5,-135,25,20,44,17,-32,-218,52,115,-97,267,-132,73,-52,277,-43,-314,-129
92657,-350,-473,190,-316,-165,-62,0,156,-1,89,549,-353,62,-16,-132,31,15,28,-9,-55,-232,31,66,-141,209,-163,31,-49,251,-90,-357,-162
92658,-350,-487,194,-322,-166,-47,5,172,-1,92,525,-352,51,-14,-136,24,19,29,-30,-40,-223,44,61,-157,189,-146,66,-85,241,-98,-339,-109
92659,-356,-479,230,-331,-168,-49,-11,174,-9,98,536,-325,48,-14,-133,17,39,19,-22,-56,-212,76,52,-153,185,-113,106,-98,234,-61,-275,-83
92660,-349,-427,228,-307,-181,-14,-4,199,-20,115,559,-312,55,-22,-121,47,48,32,-32,-80,-194,125,84,-129,194,-110,96,-77,244,-33,-279,-94
92661,-306,-402,266,-299,-171,-22,28,223,-23,109,571,-313,50,-24,-120,63,81,47,-44,-62,-189,153,105,-130,188,-97,103,-41,262,-15,-256,-74
92662,-334,-392,254,-318,-159,-102,11,195,-21,101,588,-287,33,-13,-98,64,108,46,-29,-38,-178,158,101,-117,199,-91,125,8,308,14,-236,-44
92663,-349,-414,230,-299,-152,-51,45,205,-25,123,586,-272,44,-20,-109,77,88,53,-25,-41,-173,122,113,-129,201,-97,115,12,279,-5,-261,-40
92664,-326,-375,240,-298,-144,-5,77,185,-3,84,596,-296,25,-16,-142,74,90,40,-41,-63,-192,70,79,-162,185,-114,91,-85,214,-40,-288,-81
92665,-324,-379,251,-334,-158,-45,37,195,-25,57,596,-307,8,-31,-147,68,93,24,-57,-89,-200,111,72,-168,180,-114,81,-60,231,-48,-280,-83
92666,-308,-375,297,-303,-150,-61,16,229,-15,37,590,-290,41,-24,-171,75,118,41,-50,-80,-197,105,106,-155,185,-126,60,54,279,-21,-278,-87
92667,-291,-371,291,-262,-138,-51,9,214,0,25,565,-298,40,-27,-192,77,134,41,-36,-79,-211,84,119,-135,198,-118,81,128,319,-11,-255,-66
92668,-271,-371,273,-244,-137,-45,24,217,-17,19,551,-303,27,-59,-195,77,126,10,-38,-99,-204,105,114,-147,223,-109,82,56,324,-4,-249,-49
92669,-239,-305,283,-228,-115,-26,48,230,-18,20,552,-310,22,-61,-187,80,97,5,-55,-94,-212,120,59,-158,224,-130,79,-95,264,-41,-307,-72
92670,-222,-286,306,-229,-87,-28,50,250,15,26,555,-277,48,-44,-174,95,155,68,-27,-77,-208,153,129,-115,242,-112,116,121,334,7,-248,-14
92671,-215,-289,303,-231,-92,6,74,242,16,48,576,-271,74,-49,-165,100,169,61,-23,-62,-194,122,124,-125,229,-110,130,142,321,17,-228,6
92672,-188,-257,333,-218,-85,11,79,257,12,58,593,-303,40,-69,-153,63,114,13,-49,-89,-213,120,39,-171,211,-125,96,-105,237,-38,-261,12
92673,-215,-264,333,-231,-71,20,72,253,9,62,588,-309,37,-75,-147,-53,97,34,-36,-70,-218,171,64,-163,242,-115,84,-97,257,-18,-241,0
92674,-233,-278,283,-238,-96,16,74,211,12,82,632,-304,50,-62,-128,-77,85,27,-18,-48,-209,142,86,-164,245,-106,64,-121,242,-43,-300,-59
92675,-281,-302,246,-272,-106,16,33,187,13,94,638,-314,44,-54,-141,-30,79,17,-22,-58,-196,91,101,-178,241,-118,69,-111,250,-36,-310,-51
92676,-294,-340,228,-299,-123,21,25,152,-15,95,609,-329,3,-45,-146,19,95,-4,-34,-56,-227,100,95,-179,231,-128,61,-101,252,-26,-302,-52
92677,-333,-390,171,-315,-153,-5,0,121,-38,99,564,-344,-7,-56,-145,35,95,-25,-52,-65,-244,65,99,-186,223,-138,53,-64,274,-56,-337,-91
92678,-346,-401,160,-306,-139,3,-16,102,-28,102,553,-346,-3,-66,-147,22,107,-2,-55,-76,-248,11,104,-189,220,-164,24,-34,282,-51,-345,-130
92679,-336,-367,143,-321,-131,13,10,88,-37,103,529,-339,-4,-66,-164,13,90,3,-69,-115,-276,24,113,-203,185,-196,12,-12,279,-46,-368,-145
92680,-341,-376,123,-314,-137,9,10,109,-25,79,520,-370,-15,-66,-206,3,61,-26,-101,-147,-311,2,121,-217,160,-227,-39,2,249,-85,-430,-198
92681,-304,-387,152,-286,-116,-72,0,122,-13,61,529,-381,2,-56,-216,-1,89,-25,-94,-127,-312,-20,151,-205,139,-241,-39,80,268,-97,-423,-200
92682,-297,-390,157,-268,-108,-45,-6,124,0,71,538,-374,4,-38,-219,-7,106,-13,-79,-126,-309,-6,146,-207,133,-249,-37,48,267,-100,-411,-178
92683,-308,-363,153,-258,-126,-1,-9,101,-10,74,555,-382,0,-36,-219,-10,74,-8,-89,-154,-324,40,102,-226,116,-276,-43,-82,215,-138,-436,-178
92684,-316,-383,133,-274,-131,-37,-31,106,-8,57,533,-383,-3,-52,-228,-28,83,-6,-83,-158,-328,-3,108,-195,127,-260,-31,-82,228,-117,-411,-143
92685,-309,-373,197,-273,-134,-46,-14,133,-12,24,514,-357,4,-62,-237,-39,100,-14,-79,-170,-327,-66,132,-187,136,-269,-34,-38,250,-109,-399,-149
92686,-287,-343,213,-267,-128,-44,-8,163,5,41,538,-343,27,-52,-212,-17,123,3,-45,-134,-314,-14,136,-173,153,-247,-49,-15,250,-119,-405,-206
92687,-262,-335,227,-252,-133,-52,13,189,11,36,553,-309,65,-55,-218,0,149,59,-36,-143,-309,46,167,-155,167,-237,-57,-37,235,-145,-433,-212
92688,-196,-298,260,-219,-87,-39,15,230,35,33,570,-251,112,-44,-218,24,197,126,-8,-129,-283,111,244,-98,186,-190,14,21,299,-72,-344,-97
92689,-214,-300,271,-216,-76,-17,31,279,24,31,526,-227,110,-47,-223,28,219,143,-13,-139,-286,90,285,-93,177,-204,27,34,318,-64,-334,-126
92690,-208,-299,271,-220,-92,-14,19,287,4,31,540,-206,108,-66,-221,19,256,149,-8,-156,-294,48,312,-80,168,-214,26,79,342,-70,-330,-123
92691,-202,-262,298,-202,-71,12,43,288,14,47,557,-179,138,-59,-202,34,313,184,5,-129,-275,85,352,-35,193,-201,50,132,378,-27,-295,-93
92692,-235,-292,264,-204,-78,-13,32,234,9,52,532,-182,113,-50,-202,46,313,178,14,-107,-270,126,353,-40,205,-182,63,128,379,-8,-292,-74
92693,-269,-317,246,-256,-126,-56,1,194,-3,44,517,-193,104,-50,-219,34,289,152,-9,-127,-289,81,350,-67,182,-219,29,96,328,-49,-304,-72
92694,-300,-361,240,-275,-114,-41,-21,201,-7,43,525,-212,90,-48,-198,15,291,155,-9,-126,-269,39,367,-51,191,-198,17,151,366,-34,-286,-60
92695,-306,-393,232,-265,-130,-53,-63,225,10,62,523,-198,91,-55,-193,0,305,155,-5,-125,-276,-7,395,-48,179,-200,17,284,409,-1,-294,-71
92696,-357,-424,195,-283,-138,-36,-85,197,-14,53,519,-231,78,-55,-193,12,290,122,-41,-134,-293,3,358,-81,176,-214,-9,330,402,-20,-354,-112
92697,-386,-438,165,-289,-138,-44,-85,180,-16,39,499,-245,71,-52,-183,0,283,122,-40,-120,-297,8,347,-102,162,-213,-10,409,412,0,-341,-124
92698,-378,-450,179,-292,-140,-62,-106,175,-19,31,490,-249,34,-47,-190,-2,268,95,-59,-114,-295,-44,324,-130,142,-241,-15,294,356,-54,-374,-162
92699,-364,-427,172,-305,-140,-76,-94,141,-28,31,506,-274,21,-61,-206,6,198,45,-101,-157,-317,-56,209,-187,104,-286,-71,-24,186,-194,-508,-260
92700,-365,-417,170,-304,-147,-72,-82,137,-28,40,503,-283,26,-58,-215,-34,206,53,-81,-164,-303,-54,234,-172,95,-258,-44,69,231,-169,-478,-236
92701,-363,-415,170,-319,-165,-49,-84,114,-46,35,490,-301,5,-49,-221,-100,152,10,-89,-184,-337,-96,166,-224,73,-282,-76,-68,158,-201,-535,-291
92702,-372,-443,154,-345,-165,-66,-92,87,-57,28,475,-327,-14,-61,-229,-149,82,-16,-129,-215,-363,-80,69,-275,49,-305,-104,-235,85,-225,-562,-289
92703,-351,-432,170,-341,-165,-55,-101,71,-42,34,473,-313,-13,-64,-229,-130,95,0,-131,-196,-350,-43,83,-268,65,-306,-105,-270,88,-258,-526,-272
92704,-335,-412,179,-328,-161,-35,-75,72,-32,31,500,-309,-17,-46,-213,-74,117,2,-108,-187,-330,-27,110,-241,72,-283,-50,-169,137,-223,-472,-237
92705,-339,-402,192,-339,-154,-32,-71,67,-38,64,530,-316,20,-45,-186,-19,102,13,-90,-136,-301,36,115,-231,96,-230,8,-137,168,-176,-452,-187
92706,-349,-455,154,-357,-174,-54,-96,63,-49,58,495,-318,4,-62,-185,-7,88,23,-80,-140,-287,10,151,-210,128,-222,34,-60,217,-123,-427,-153
92707,-312,-441,189,-330,-169,-90,-91,74,-34,54,493,-304,23,-49,-198,-6,88,28,-81,-139,-278,-17,135,-197,129,-195,23,-61,225,-143,-425,-142
92708,-293,-413,231,-309,-156,-64,-116,100,-13,51,478,-300,29,-21,-218,-28,80,22,-76,-133,-295,14,127,-195,133,-214,-7,-84,197,-155,-435,-161
92709,-301,-432,220,-308,-134,-86,-125,94,-3,50,477,-287,31,-19,-209,-16,94,47,-48,-102,-290,26,175,-144,186,-203,35,27,258,-104,-391,-128
92710,-320,-444,233,-303,-141,-96,-118,132,-9,48,480,-228,70,1,-195,0,161,93,-15,-85,-273,34,210,-111,216,-163,36,128,314,-74,-348,-105
92711,-375,-460,193,-340,-166,-82,-79,127,-22,56,504,-235,65,3,-193,13,186,111,-1,-59,-269,82,228,-109,232,-142,43,154,304,-73,-346,-112
92712,-393,-452,193,-343,-154,-57,-33,132,-13,53,535,-259,81,3,-181,43,186,98,9,-34,-248,104,214,-115,251,-136,63,115,300,-50,-352,-129
92713,-383,-448,175,-354,-175,-76,-38,102,-27,46,529,-281,40,-6,-192,25,152,52,-17,-68,-278,85,144,-147,220,-182,32,-44,235,-105,-402,-163
92714,-333,-403,204,-340,-166,-105,-7,110,-7,58,550,-295,41,-4,-181,29,92,22,-12,-53,-275,96,74,-173,222,-174,37,-232,186,-130,-398,-143
92715,-319,-389,230,-317,-138,-123,-10,117,9,80,548,-280,65,5,-184,22,82,31,2,-51,-263,48,92,-160,216,-190,31,-192,188,-120,-393,-133
92716,-356,-403,167,-348,-145,-74,-22,61,-2,83,524,-334,40,8,-200,-14,26,18,-23,-76,-312,27,74,-169,199,-202,4,-123,211,-125,-422,-174
92717,-358,-414,112,-381,-165,-85,-48,25,-28,56,487,-365,26,-1,-222,-37,-3,-20,-30,-108,-334,17,49,-183,191,-213,-6,-105,210,-124,-390,-147
92718,-368,-396,81,-388,-182,-91,-80,-1,-32,63,447,-413,6,-3,-236,-81,-54,-40,-41,-121,-335,-24,6,-206,164,-233,-28,-128,210,-140,-393,-140
92719,-361,-375,74,-398,-170,-80,-90,-14,-44,71,446,-423,0,-10,-237,-78,-81,-62,-56,-100,-349,-36,-50,-232,161,-251,-13,-270,152,-176,-430,-151
92720,-348,-364,68,-405,-177,-65,-52,-18,-36,81,480,-423,-6,-18,-215,-49,-87,-64,-48,-114,-344,-6,-43,-248,156,-243,-33,-233,130,-206,-455,-213
92721,-327,-383,123,-377,-150,-19,-24,34,-17,99,519,-384,16,-20,-181,-19,-40,-38,-32,-105,-321,-3,18,-220,179,-224,-42,-133,174,-170,-424,-219
92722,-318,-378,130,-363,-156,-14,-33,35,-12,87,530,-363,40,-23,-183,8,-3,-23,-28,-94,-287,10,37,-213,171,-215,-3,-87,207,-128,-392,-174
92723,-268,-306,154,-347,-143,-4,10,59,-10,85,535,-362,36,-30,-170,15,-6,-11,-24,-109,-280,49,38,-208,162,-215,6,-89,219,-118,-390,-138
92724,-249,-355,186,-358,-160,-23,-27,74,-23,67,522,-353,24,-46,-204,-7,19,5,-19,-127,-276,-9,57,-175,169,-203,-2,-1,253,-99,-390,-125
92725,-277,-362,187,-352,-154,-54,-33,67,-11,76,534,-322,45,-30,-194,-20,41,16,-23,-121,-282,-73,99,-163,165,-196,-21,7,266,-90,-351,-127
92726,-263,-321,212,-315,-140,-61,-19,87,2,68,533,-329,47,-43,-190,-31,46,45,-33,-122,-288,-92,106,-164,163,-211,-34,-53,246,-91,-351,-149
92727,-207,-303,264,-282,-129,-27,2,122,-2,48,553,-286,67,-48,-184,2,58,57,-6,-110,-274,-26,119,-155,180,-202,-27,-67,246,-71,-345,-158
92728,-218,-299,278,-274,-126,-50,-24,139,8,44,523,-265,66,-53,-194,-21,87,80,-15,-113,-294,-44,112,-146,186,-209,-30,-89,236,-81,-383,-194
92729,-227,-271,284,-282,-124,-41,-28,147,-18,51,528,-238,61,-68,-198,-24,86,91,-18,-133,-305,-56,121,-139,168,-225,-30,-91,241,-99,-388,-183
92730,-184,-246,310,-274,-101,-21,5,178,-6,50,551,-218,75,-59,-191,-7,127,113,12,-111,-292,-58,150,-125,180,-217,-36,-101,253,-127,-413,-191
92731,-173,-247,325,-275,-112,-30,22,176,7,65,566,-230,105,-25,-183,-8,156,133,19,-92,-294,-71,173,-110,190,-235,-42,-46,269,-119,-436,-193
92732,-175,-256,279,-280,-122,-36,0,149,-14,68,545,-260,83,-32,-179,-26,129,118,1,-106,-273,-57,138,-144,175,-239,-36,-71,240,-144,-436,-187
92733,-185,-258,267,-286,-129,-41,12,131,-34,73,551,-252,62,-58,-166,-14,131,78,-19,-107,-267,-22,145,-153,204,-207,-20,-77,236,-121,-395,-169
92734,-162,-234,291,-284,-139,-43,40,114,-42,55,565,-244,55,-65,-187,2,127,91,-30,-113,-276,19,161,-143,212,-208,3,-59,258,-105,-402,-150
92735,-123,-208,327,-275,-140,-38,26,140,-27,54,561,-192,63,-50,-188,8,192,136,0,-105,-256,33,228,-108,218,-187,14,37,323,-73,-398,-143
92736,-123,-211,338,-260,-112,-18,58,166,-25,63,563,-133,75,-44,-163,29,262,184,14,-90,-245,82,280,-71,211,-172,17,122,337,-65,-369,-141
92737,-91,-196,365,-261,-106,-7,80,167,-22,74,572,-128,72,-56,-143,61,266,189,5,-88,-235,106,281,-89,195,-157,31,71,334,-54,-367,-110
92738,-77,-173,420,-234,-101,-2,79,205,-22,65,581,-102,89,-78,-132,65,314,213,-8,-90,-209,108,290,-67,204,-161,80,84,361,-21,-338,-54
92739,-74,-144,424,-212,-76,25,115,251,-14,71,612,-78,86,-80,-130,71,335,214,-8,-112,-194,98,278,-73,204,-166,94,60,328,-26,-321,-48
92740,-81,-168,419,-230,-68,23,119,241,-5,84,626,-76,100,-71,-118,117,354,194,-2,-110,-190,160,287,-98,172,-157,107,115,308,-67,-351,-68
92741,-85,-184,395,-232,-91,2,94,218,-12,95,621,-96,75,-85,-117,102,354,192,-36,-118,-194,157,312,-111,167,-165,101,218,359,-51,-318,-67
92742,-98,-164,369,-219,-86,33,105,204,-31,89,625,-114,95,-69,-111,109,329,192,-29,-102,-188,134,303,-94,165,-157,112,211,330,-54,-318,-72
92743,-114,-192,368,-244,-88,17,128,194,-35,98,615,-108,85,-67,-117,106,275,180,-38,-111,-191,135,267,-110,155,-172,92,155,303,-97,-363,-93
92744,-125,-240,398,-244,-90,4,95,198,-35,83,623,-101,75,-68,-135,102,262,173,-32,-89,-190,142,241,-131,159,-160,96,61,292,-62,-353,-41
92745,-155,-269,382,-230,-105,-8,49,221,-23,97,600,-73,62,-59,-141,77,330,183,-25,-103,-180,153,284,-108,168,-161,110,165,332,-52,-355,-18
92746,-200,-287,324,-272,-119,-3,32,193,-45,80,606,-126,33,-80,-144,86,309,139,-59,-105,-197,125,263,-134,144,-168,94,175,288,-106,-381,-89
92747,-207,-300,302,-294,-120,-3,34,137,-55,82,587,-177,4,-93,-149,68,262,98,-78,-133,-224,93,169,-184,117,-188,75,1,215,-180,-423,-132
92748,-208,-270,277,-319,-127,-12,46,131,-55,86,587,-216,6,-64,-141,58,223,51,-90,-132,-229,99,110,-230,90,-184,62,-149,161,-209,-426,-145
92749,-205,-300,260,-322,-121,-24,10,117,-63,104,570,-229,14,-71,-161,29,188,6,-104,-137,-254,57,65,-252,70,-202,35,-218,123,-225,-421,-171
92750,-199,-317,244,-339,-110,-33,1,80,-58,95,542,-267,-20,-88,-191,0,172,-28,-132,-127,-281,-8,50,-270,42,-218,-7,-163,154,-207,-423,-193
92751,-209,-301,247,-331,-115,-42,16,47,-79,93,548,-283,-58,-90,-194,22,145,-39,-130,-130,-279,-3,80,-266,69,-216,-3,-142,169,-201,-437,-182
92752,-185,-265,289,-327,-121,-18,34,57,-74,98,567,-225,-32,-62,-169,38,148,-11,-108,-110,-252,62,125,-235,115,-188,36,-79,209,-156,-389,-143
92753,-154,-232,341,-311,-117,-51,46,92,-68,80,589,-186,-38,-50,-178,56,222,13,-96,-112,-235,103,180,-198,136,-152,88,-36,257,-91,-342,-72
92754,-141,-217,371,-290,-104,-116,80,105,-52,74,601,-181,-16,-62,-179,78,251,47,-77,-97,-221,132,190,-183,169,-124,120,-18,300,-20,-282,-26
92755,-152,-229,381,-307,-150,-63,54,101,-54,51,584,-181,-4,-59,-171,72,246,35,-73,-92,-223,137,189,-171,187,-131,119,17,341,-5,-262,-23
92756,-168,-225,383,-293,-133,-49,61,121,-74,76,585,-185,-26,-31,-151,64,246,31,-51,-86,-203,146,227,-146,209,-112,147,64,363,12,-242,-3
92757,-203,-266,337,-335,-133,-65,64,100,-90,58,580,-199,-42,-40,-159,39,232,20,-62,-89,-213,131,206,-154,203,-132,125,69,342,-17,-243,-7
92758,-190,-261,297,-340,-126,-45,42,74,-93,51,561,-218,-51,-61,-173,46,212,-12,-78,-130,-241,101,181,-185,175,-177,99,23,304,-68,-291,-67
92759,-182,-206,298,-316,-113,-19,76,79,-81,88,583,-239,-29,-43,-172,68,208,-10,-82,-104,-237,126,159,-199,174,-171,96,-50,291,-63,-319,-82
92760,-204,-217,276,-341,-99,-4,59,72,-87,69,580,-266,-56,-63,-181,22,193,-8,-86,-129,-273,115,125,-191,161,-178,73,-54,279,-73,-320,-77
92761,-206,-206,284,-321,-101,31,34,58,-87,78,587,-281,-71,-61,-171,22,220,-47,-91,-152,-283,61,119,-183,160,-179,59,-28,294,-47,-285,-67
92762,-202,-209,291,-311,-106,20,47,29,-73,89,587,-331,-65,-52,-182,-15,222,-65,-98,-149,-301,-29,119,-210,161,-202,26,-42,285,-60,-299,-123
92763,-230,-236,256,-383,-104,7,13,-10,-86,96,557,-360,-62,-59,-197,-43,162,-51,-112,-147,-332,14,104,-203,142,-244,-46,-37,259,-106,-353,-148
92764,-204,-224,244,-379,-115,-47,-1,-27,-106,84,554,-368,-81,-82,-219,-73,136,-66,-111,-158,-371,26,38,-228,133,-253,-65,-70,198,-114,-379,-187
92765,-218,-220,226,-359,-120,-85,-10,-27,-95,89,566,-403,-79,-41,-238,-76,92,-87,-114,-163,-343,23,0,-254,120,-238,-43,-133,179,-138,-360,-154
92766,-199,-203,249,-353,-103,29,33,0,-71,121,601,-356,-27,-30,-196,-68,100,-50,-91,-131,-313,23,38,-196,162,-223,-21,-15,227,-112,-362,-157
92767,-237,-276,221,-368,-132,14,19,-4,-85,90,564,-350,-21,-42,-199,-37,86,-31,-70,-126,-316,16,60,-175,179,-229,-38,38,253,-111,-368,-193
92768,-217,-244,247,-325,-127,26,46,27,-78,107,556,-330,-25,-28,-190,-2,48,-24,-61,-101,-295,61,29,-166,189,-200,-22,-90,226,-93,-366,-166
92769,-191,-228,252,-330,-131,11,95,27,-86,104,576,-336,-28,-47,-187,11,44,-7,-58,-116,-292,46,-2,-175,188,-194,-7,-189,191,-83,-355,-143
92770,-158,-182,273,-307,-122,8,124,48,-75,84,589,-328,-18,-30,-185,26,68,-6,-51,-94,-271,78,3,-172,206,-145,31,-154,230,-48,-310,-103
92771,-108,-133,358,-250,-112,33,140,103,-40,88,625,-292,43,-14,-163,59,188,56,-15,-54,-224,141,95,-124,256,-97,99,27,351,47,-222,-56
92772,-108,-136,348,-251,-122,19,134,107,-35,86,625,-274,68,-28,-132,98,217,81,0,-27,-184,198,131,-74,282,-62,161,126,409,110,-159,34
92773,-102,-111,343,-265,-107,58,179,123,-25,125,660,-217,81,-11,-83,134,237,80,23,14,-118,248,144,-74,314,-23,207,33,388,114,-130,88
92774,-83,-61,365,-254,-92,74,203,156,-36,119,691,-174,92,3,-58,145,243,89,40,33,-102,228,151,-69,316,1,232,-17,401,128,-103,99
92775,-66,-41,414,-233,-79,111,238,190,-25,115,700,-142,99,3,-32,182,252,135,47,30,-87,235,164,-75,314,7,237,-37,405,114,-87,108
92776,-63,-18,442,-209,-60,135,261,234,-1,140,729,-90,123,1,-24,194,298,169,58,27,-77,247,237,-50,322,27,287,73,444,156,-62,145
92777,-69,-19,463,-212,-67,127,244,230,-9,141,717,-89,115,-8,-35,178,315,179,59,0,-101,206,268,-42,298,16,273,191,486,179,-59,131
92778,-77,-43,417,-209,-79,122,244,197,-16,144,709,-120,88,-15,-46,148,290,190,29,11,-120,199,265,-47,294,-4,214,282,512,157,-97,104
