,Fp1,Fp2,F7,F3,Fz,F4,F8,FC5,FC1,FC2,FC6,T7,C3,Cz,C4,T8,TP9,CP5,CP1,CP2,CP6,TP10,P7,P3,Pz,P4,P8,PO9,O1,Oz,O2,PO10
259216,95,385,457,353,-49,310,378,527,231,87,686,238,523,461,701,681,425,518,495,256,306,721,761,458,580,657,948,522,710,517,475,527
259217,57,326,387,301,-40,252,379,531,191,31,633,192,477,369,643,657,362,469,415,161,244,654,769,416,510,578,841,550,695,468,429,543
259218,-25,204,338,232,-23,168,329,484,91,-60,539,87,403,269,552,591,244,378,301,63,158,520,712,310,388,478,706,389,544,288,241,348
259219,-104,139,302,166,-16,96,315,375,27,-153,409,-31,309,186,466,473,214,271,220,-8,89,548,600,194,307,418,619,320,439,183,91,122
259220,-150,117,294,163,-24,75,206,369,7,-178,328,-72,288,161,434,340,193,206,173,-52,20,495,480,151,273,391,513,249,406,171,83,114
259221,-83,121,309,199,-40,66,185,417,41,-139,264,6,328,180,443,366,159,231,204,0,29,542,459,138,287,404,519,130,379,147,98,146
259222,-64,144,343,253,-37,156,216,450,89,-85,404,15,381,248,515,378,163,291,264,54,63,599,503,174,343,449,585,130,360,152,142,209
259223,-1,199,421,329,-49,198,277,525,162,-32,433,33,450,292,580,369,226,372,313,89,83,596,560,242,377,470,568,180,389,192,160,276
259224,65,246,473,403,-45,237,297,589,242,26,467,125,518,354,647,439,259,423,379,147,146,619,618,311,439,576,658,278,462,279,246,294
259225,98,255,478,408,-42,271,278,574,253,41,515,142,552,377,666,487,267,434,415,169,202,627,615,330,458,610,738,341,494,336,297,365
259226,115,187,424,369,-45,287,200,564,238,41,523,130,551,361,667,434,327,443,403,157,202,622,675,329,454,565,671,406,544,347,284,314
259227,18,190,338,326,-37,195,153,512,192,-14,501,92,504,321,634,387,288,427,364,123,172,555,691,330,429,541,613,437,554,323,245,205
259228,-43,175,270,232,-38,126,156,463,98,-99,419,19,433,237,552,387,158,369,287,57,112,486,583,248,365,472,550,266,441,201,159,208
259229,-102,178,246,170,-31,75,180,383,31,-157,313,-44,353,170,478,378,104,275,198,-14,33,436,439,161,264,391,487,62,261,78,61,192
259230,-130,133,240,162,-29,56,111,332,11,-187,310,-62,347,151,458,305,98,236,184,-53,13,442,430,154,251,365,527,136,304,103,55,140
259231,-103,128,252,201,-44,105,137,377,37,-144,317,-13,366,178,478,251,159,273,219,-52,33,489,505,175,258,380,542,226,368,145,61,148
259232,-39,261,337,267,-47,119,207,446,85,-103,331,42,432,202,520,335,217,345,259,-26,51,488,569,230,299,395,517,279,439,178,91,185
259233,77,413,457,333,-38,219,314,502,160,-31,389,118,493,271,554,442,279,433,317,30,111,576,666,283,365,459,606,373,511,247,180,238
259234,160,456,524,383,-64,258,363,571,197,3,490,155,511,310,584,562,343,477,356,65,151,662,728,314,396,484,652,353,516,285,254,381
259235,208,468,544,449,-45,286,397,623,237,42,555,213,547,343,609,576,403,491,392,85,176,625,721,329,403,498,642,366,522,297,239,355
259236,191,461,570,440,-42,267,360,630,221,37,560,196,532,325,614,479,378,468,364,62,148,633,644,294,395,472,649,436,544,274,227,295
259237,158,415,542,389,-37,233,327,620,150,-33,529,156,472,248,561,465,348,407,283,-14,77,534,585,229,308,400,606,422,507,225,150,264
259238,111,292,476,313,-43,199,270,533,59,-107,440,88,376,173,502,425,282,318,187,-95,10,364,520,136,219,319,517,411,440,170,99,183
259239,52,237,430,236,-26,128,200,468,-6,-190,363,32,295,94,423,329,199,250,102,-161,-58,343,455,61,144,231,441,288,355,88,65,83
259240,24,249,414,232,-33,91,129,456,-14,-204,235,-1,281,110,395,402,171,228,100,-175,-87,341,429,52,143,213,397,201,345,109,79,150
259241,27,291,415,294,-40,129,154,466,23,-154,372,34,296,137,405,271,122,211,115,-164,-106,225,405,38,148,229,329,176,325,81,22,133
259242,94,310,464,324,-40,199,115,495,63,-110,434,105,339,159,438,265,133,250,149,-112,-63,422,421,63,174,246,376,202,324,53,-27,36
259243,128,373,511,382,-65,252,158,582,121,-58,492,167,400,226,529,332,212,295,209,-51,26,494,450,107,229,349,549,186,334,124,58,208
259244,148,469,608,468,-48,305,288,692,188,-2,557,182,460,282,591,355,210,333,237,-4,63,531,489,128,251,340,528,215,341,111,44,180
259245,167,461,642,503,-38,314,379,721,202,19,571,211,465,322,582,413,150,329,253,3,64,535,475,111,244,328,529,149,306,74,10,184
259246,156,424,622,478,-32,297,338,689,211,-2,507,182,456,312,561,381,150,323,260,15,38,482,490,126,254,349,524,203,366,122,46,236
259247,156,321,547,393,-34,232,243,614,135,-60,373,88,410,249,511,264,130,285,227,-45,-33,396,457,92,226,298,464,185,352,112,44,172
259248,59,200,456,307,-32,110,115,538,50,-153,240,10,354,191,410,219,136,256,171,-103,-113,388,407,24,180,235,403,118,283,27,-32,105
259249,-9,125,377,233,-20,41,42,463,-9,-219,183,-36,299,139,339,190,94,196,122,-158,-183,323,354,-30,115,165,297,56,215,-67,-167,-11
259250,-34,126,351,183,-30,42,45,405,-12,-220,211,-75,271,135,335,233,42,159,96,-139,-142,301,318,-6,121,193,307,60,247,-34,-121,-46
259251,-21,167,404,200,-43,55,78,436,35,-178,251,-49,308,184,393,281,72,195,168,-97,-64,347,356,66,191,291,406,165,323,56,1,28
259252,32,225,446,271,-40,112,66,495,81,-113,301,29,368,248,464,283,150,281,239,-25,-11,386,457,119,263,373,485,258,437,146,95,178
259253,96,305,434,342,-30,192,142,559,156,-31,338,132,450,337,537,326,248,379,326,65,63,510,588,201,366,475,574,340,490,241,214,283
259254,138,302,443,386,-44,229,156,590,221,26,465,185,508,394,568,345,269,438,389,134,140,544,650,280,455,539,649,389,550,312,297,369
259255,160,244,458,390,-54,231,142,623,231,26,451,239,537,419,589,384,351,473,431,159,150,526,706,332,506,557,680,440,575,294,236,296
259256,133,206,492,382,-47,223,188,619,214,10,383,185,533,415,600,434,343,491,453,173,172,605,671,331,493,563,775,428,557,287,235,220
259257,60,212,465,319,-45,171,174,538,159,-28,375,113,479,367,556,397,283,434,394,126,161,566,596,273,423,528,723,409,476,232,161,154
259258,23,169,393,240,-30,126,44,482,91,-96,322,69,401,289,508,322,278,380,324,46,72,469,552,211,358,436,569,295,360,101,-6,28
259259,-75,90,325,169,-17,62,-34,380,8,-157,314,-8,323,216,485,332,198,286,246,-1,31,438,501,161,315,396,474,240,363,128,47,64
259260,-123,117,274,147,-12,55,30,330,-13,-168,326,-53,315,207,467,451,137,248,231,10,47,447,458,136,300,389,488,152,335,122,14,-25
259261,-77,154,267,165,-37,100,103,344,12,-119,382,-14,321,230,515,499,202,278,257,50,95,466,451,148,323,436,593,104,310,118,78,103
259262,-44,218,285,241,-35,193,142,442,77,-48,512,39,383,276,589,502,270,328,308,96,137,536,479,160,360,456,578,154,321,168,151,231
259263,-30,267,308,314,-46,258,203,520,136,-17,520,96,435,333,625,463,263,360,345,144,175,635,504,201,400,483,569,201,377,223,201,367
259264,9,316,375,363,-59,281,317,560,182,38,527,138,493,385,678,450,304,395,378,170,191,591,567,241,423,512,593,245,412,208,171,265
259265,58,332,421,387,-49,316,391,587,220,86,499,190,523,416,706,487,416,437,428,196,240,670,633,295,481,580,729,319,495,295,308,334
259266,-11,303,395,380,-57,311,410,561,189,60,548,161,494,388,691,510,429,425,381,173,219,718,644,289,457,570,746,339,498,291,294,335
259267,-93,251,324,311,-53,284,373,493,128,18,550,108,438,318,624,429,409,359,309,106,168,620,634,238,400,517,673,401,491,269,264,304
259268,-190,166,221,232,-49,175,269,394,47,-72,411,4,351,210,509,340,264,267,227,22,88,536,585,163,319,436,603,376,448,236,231,312
259269,-229,96,208,179,-35,110,212,334,-10,-150,361,-88,279,150,447,306,124,205,133,-51,14,505,503,62,233,356,544,262,343,154,155,298
259270,-226,100,209,177,-31,86,163,341,-39,-184,349,-97,249,134,448,342,88,169,119,-75,21,458,397,1,181,327,560,121,252,82,99,262
259271,-126,150,279,208,-31,135,160,381,13,-155,338,-27,303,184,465,417,143,188,151,-46,45,546,391,29,195,334,553,8,247,83,50,148
259272,-67,266,362,276,-42,207,229,415,70,-104,425,27,359,233,516,420,203,234,178,-15,71,691,388,76,228,386,517,178,354,136,111,199
259273,31,282,414,338,-50,248,338,495,132,-40,498,32,418,287,584,485,283,296,235,30,166,728,445,140,316,465,597,342,444,217,137,282
259274,77,265,451,401,-19,307,372,574,199,6,583,118,482,337,640,592,334,367,311,115,243,783,529,224,373,526,688,283,425,261,219,379
259275,125,257,490,419,-51,300,407,610,215,27,572,198,505,351,628,673,349,431,351,118,255,801,610,250,384,550,700,292,484,252,255,401
259276,139,231,475,388,-62,319,431,579,191,37,622,190,502,348,648,609,327,421,326,125,235,705,616,263,380,541,691,394,518,259,239,379
259277,83,186,426,328,-41,272,297,512,132,-22,481,120,450,286,588,515,258,352,283,65,184,634,484,186,316,455,656,358,438,207,153,287
259278,36,171,349,243,-38,202,118,437,53,-94,417,30,372,203,529,405,194,290,204,-37,97,562,410,115,240,375,576,194,328,92,56,57
259279,-30,168,283,174,-45,87,70,374,-24,-174,359,-56,305,122,455,403,119,218,144,-110,27,540,353,55,164,333,543,96,259,58,78,195
259280,-38,213,321,206,-30,91,131,398,-23,-194,300,-36,328,118,441,507,134,216,131,-122,46,506,379,53,149,332,572,113,267,67,70,236
259281,11,294,386,242,-22,124,188,457,24,-160,392,13,367,159,479,501,178,273,176,-79,82,615,444,118,196,361,626,188,315,69,42,148
259282,114,377,479,309,-11,185,292,539,116,-92,450,79,448,240,520,446,229,347,250,-11,113,724,526,189,272,414,650,263,394,129,95,187
259283,151,402,526,391,-22,249,328,604,169,-33,478,140,506,296,555,470,273,411,298,8,116,640,590,220,298,423,614,323,430,189,164,235
259284,185,440,540,445,-47,266,397,651,195,3,482,171,551,341,568,479,289,463,328,30,125,682,636,281,328,447,530,384,472,223,185,282
259285,190,436,569,478,-30,283,403,678,230,26,464,210,585,367,563,506,315,489,375,55,127,708,693,319,371,463,590,448,514,272,229,366
259286,175,408,593,467,-44,273,312,673,240,18,474,233,569,350,565,524,330,485,363,62,126,604,696,304,364,437,611,453,504,261,185,258
259287,139,369,554,395,-31,225,266,579,180,-28,462,170,493,277,521,515,211,424,264,6,104,577,622,241,302,415,633,360,449,199,121,137
259288,61,295,447,336,-19,150,202,558,103,-114,405,82,405,199,444,413,123,338,165,-87,14,506,547,155,229,330,541,378,440,189,135,166
259289,-74,210,357,257,-45,64,113,465,6,-192,294,49,314,137,355,299,100,250,75,-170,-96,408,512,82,139,221,388,313,354,99,46,87
259290,-148,138,348,258,-55,31,67,451,-2,-217,279,61,298,107,327,211,133,220,56,-210,-137,398,498,1,84,171,363,171,198,-74,-98,-13
259291,-96,122,362,290,-38,84,105,527,45,-189,297,4,350,142,369,229,207,271,103,-145,-75,506,486,23,116,247,487,136,203,1,43,248
259292,18,225,382,342,-28,154,229,575,95,-146,307,23,394,198,411,293,275,295,146,-91,-30,578,514,85,157,288,495,228,232,37,40,222
259293,135,356,504,437,-36,215,316,662,197,-54,374,155,482,283,476,398,389,394,223,-18,48,638,622,173,233,351,527,456,422,173,94,216
259294,194,465,615,503,-44,256,355,721,243,15,465,258,531,340,560,572,441,447,273,46,157,685,632,202,290,418,597,297,365,147,125,277
259295,226,430,668,499,-48,293,298,736,258,40,537,277,560,360,619,681,419,459,323,101,218,734,648,235,337,480,690,256,362,193,192,343
259296,234,353,679,466,-35,325,249,717,262,60,570,229,587,380,660,599,432,482,351,133,219,751,674,277,396,534,705,420,503,300,253,406
259297,147,271,586,389,-38,272,210,649,192,8,551,204,550,342,607,478,432,448,302,79,162,708,644,257,354,490,638,467,512,285,231,385
259298,27,162,461,301,-46,157,190,548,102,-76,464,120,464,272,512,356,308,347,215,33,81,633,513,143,260,404,589,285,338,154,152,351
259299,-59,78,314,213,-50,69,147,486,26,-157,333,-14,371,193,438,268,157,235,138,-60,-20,510,385,25,200,313,495,108,198,65,57,242
259300,-42,135,306,186,-18,46,213,446,30,-154,322,-51,347,190,437,260,63,197,154,-68,-1,513,335,18,204,302,444,63,206,74,38,148
259301,-45,152,353,235,-25,81,265,479,62,-133,324,-33,377,228,449,262,38,223,182,-53,-10,439,341,58,229,312,397,74,231,54,-18,50
259302,-9,223,376,295,-38,126,239,525,113,-93,342,10,425,286,481,304,98,251,247,-6,21,464,404,112,291,354,441,173,330,133,42,130
259303,93,358,467,381,-28,176,273,590,176,-37,364,61,511,366,521,372,205,327,316,75,102,564,500,211,360,435,577,312,446,223,96,217
259304,179,421,542,415,-32,234,371,634,234,25,471,98,534,409,572,461,250,392,368,119,142,396,527,248,386,461,620,297,467,203,86,161
259305,187,387,547,415,-38,278,369,628,232,53,506,90,530,416,592,471,216,393,370,134,132,466,489,223,383,457,625,138,371,160,136,199
259306,169,374,514,383,-54,254,378,577,235,33,440,87,523,410,575,466,229,379,361,125,106,587,497,235,372,452,583,161,392,165,119,234
259307,45,280,413,286,-64,196,337,472,141,-25,421,-25,436,347,517,439,130,308,302,51,49,506,454,179,303,386,477,162,390,136,62,166
259308,-34,178,311,236,-35,133,227,417,68,-102,357,-111,376,265,467,389,92,240,223,-34,-26,451,430,110,241,312,440,111,336,78,5,94
259309,-112,149,204,151,-35,69,173,316,-4,-149,292,-177,287,186,417,270,53,176,149,-87,-67,390,401,45,186,255,435,70,282,8,-35,29
259310,-141,186,171,135,-28,85,186,311,-29,-154,257,-199,266,172,407,267,47,175,125,-84,-45,403,411,46,171,262,415,143,278,18,-57,67
259311,-83,150,217,156,-29,111,188,316,10,-134,254,-133,297,208,437,367,77,203,154,-69,-13,448,466,80,181,289,440,147,273,44,-43,79
259312,-74,217,220,190,-37,178,235,335,53,-87,374,-126,316,247,492,432,60,238,175,-27,36,479,479,98,199,323,448,194,322,63,-3,97
259313,-5,314,268,233,-41,244,196,379,104,-49,396,-120,351,300,537,397,119,257,218,16,60,564,481,127,237,357,469,275,377,118,49,186
259314,42,397,255,299,-34,293,254,412,164,37,489,-126,403,360,618,437,229,312,287,71,107,594,543,191,280,407,516,287,423,150,70,147
259315,41,382,265,294,-45,304,279,408,170,63,561,-130,421,393,667,502,179,335,306,144,170,593,555,215,344,464,614,281,466,183,89,178
259316,48,336,282,274,-49,281,253,383,151,52,519,-134,415,374,648,406,152,330,321,141,161,562,549,249,389,500,652,312,491,256,182,270
259317,-11,247,249,246,-27,250,244,378,131,14,492,-175,375,347,596,349,131,306,287,101,123,476,508,229,343,451,573,305,468,224,148,208
259318,-76,160,175,184,-29,199,127,320,55,-48,396,-236,324,288,531,319,44,255,223,35,66,491,439,175,277,408,546,229,413,183,137,173
259319,-172,57,96,97,-45,88,-57,237,0,-123,340,-354,249,183,447,279,-71,159,140,-57,-1,435,342,100,184,326,511,107,331,127,123,239
259320,-246,-109,90,89,-35,87,-90,260,-24,-142,370,-340,240,157,457,155,-105,118,126,-85,-50,345,320,74,163,298,473,61,262,95,98,311
259321,-246,-105,107,154,-37,112,-86,317,11,-125,311,-300,264,187,445,270,-76,147,131,-72,-17,413,336,63,169,289,494,92,264,28,-26,179
259322,-116,68,173,212,-36,182,35,371,51,-67,420,-227,311,231,499,252,-31,221,175,-27,46,501,408,113,215,344,569,177,357,92,40,181
259323,-5,203,260,294,-31,300,188,432,104,5,506,-178,382,293,603,382,45,274,230,37,95,504,471,167,254,377,576,314,421,155,38,145
259324,93,318,303,345,-36,309,277,468,162,37,506,-120,429,321,631,459,104,311,265,59,116,556,496,192,277,378,565,346,460,167,34,102
259325,142,395,387,356,-60,273,313,495,165,4,454,-64,428,319,589,407,95,316,249,50,94,601,463,163,255,356,485,216,381,133,53,171
259326,193,432,439,350,-40,274,365,501,161,15,468,-42,430,317,584,442,114,340,260,33,92,619,520,179,264,363,487,298,444,169,89,236
259327,137,407,381,305,-32,202,345,456,103,-34,390,-66,362,256,525,359,108,296,197,-44,20,499,501,133,210,288,443,318,392,89,-18,114
259328,31,332,284,234,-29,138,252,377,32,-108,283,-106,295,191,455,300,67,223,141,-114,-41,432,459,54,143,220,402,299,333,34,-52,34
259329,-42,241,229,162,-35,72,178,296,-26,-172,227,-183,228,133,394,277,-6,176,66,-152,-78,373,409,-3,118,208,406,249,284,46,-14,88
259330,-40,216,232,134,-32,39,177,283,-43,-174,250,-212,209,141,396,315,-6,161,64,-164,-96,391,389,-14,106,195,383,161,273,27,-48,112
259331,33,259,311,175,-17,129,280,333,-27,-118,335,-151,270,170,443,358,57,188,87,-135,-58,489,339,-19,112,208,352,79,190,-90,-211,-40
259332,104,287,334,222,-57,199,317,412,36,-81,379,-72,322,224,496,375,129,234,132,-67,-8,526,377,4,156,265,395,89,217,-56,-136,-26
259333,170,356,466,345,-56,260,319,564,124,-5,458,40,444,320,606,471,261,321,226,29,99,658,475,133,266,365,518,149,286,31,3,168
259334,192,379,575,389,-36,316,306,634,196,60,494,141,511,385,657,536,335,408,312,97,163,687,529,203,345,442,600,221,325,109,81,262
259335,246,386,615,410,-48,333,280,677,205,63,471,165,524,391,644,493,382,414,337,119,181,664,562,224,370,475,665,290,371,153,129,262
259336,249,422,628,400,-45,330,351,683,180,61,547,137,498,368,646,482,339,371,324,115,192,643,559,219,354,487,701,278,390,175,166,220
259337,199,368,631,364,-44,270,386,630,153,-12,536,90,458,336,608,390,266,333,262,79,142,584,505,173,325,444,671,238,363,148,140,239
259338,111,291,559,312,-43,212,304,572,74,-77,451,17,422,276,549,284,248,298,228,37,85,473,504,131,283,384,537,225,344,116,66,168
259339,23,222,462,262,-40,101,161,527,30,-150,376,-38,353,211,486,221,184,250,158,-14,15,437,454,64,227,354,445,180,338,141,73,243
259340,-5,158,423,260,-30,98,99,545,66,-159,365,-27,389,194,501,257,199,272,170,-9,48,456,506,109,249,380,512,285,438,242,177,302
259341,26,190,479,292,-31,133,247,576,74,-147,367,19,426,226,503,329,206,312,210,22,49,390,543,144,265,371,498,413,491,232,144,118
259342,85,273,556,339,-41,153,371,630,120,-107,390,97,485,271,531,425,235,373,248,60,107,444,607,199,328,426,513,506,570,251,129,124
259343,190,385,626,443,-42,248,508,758,205,-3,482,139,567,345,617,620,287,437,330,114,196,549,620,230,387,503,634,285,498,243,196,290
259344,246,457,641,473,-54,298,587,777,249,29,568,125,583,402,689,664,300,456,365,155,276,603,596,234,403,529,706,224,408,211,204,321
259345,263,457,665,479,-57,324,562,746,262,52,561,180,610,411,715,534,324,508,382,189,292,627,666,273,431,578,762,346,493,281,262,321
259346,249,407,659,492,-62,306,481,762,253,38,521,180,606,389,688,466,318,486,363,170,244,653,669,270,410,567,783,294,464,296,277,374
259347,152,358,608,419,-64,239,328,689,201,-19,474,95,562,347,601,401,290,439,309,99,143,604,699,243,346,470,670,240,400,197,151,228
259348,111,320,553,309,-47,124,259,598,114,-95,403,-19,465,263,518,360,234,350,218,13,70,507,591,159,281,375,532,174,351,149,66,174
259349,65,217,464,219,-43,49,240,523,35,-166,327,-101,382,198,450,327,138,248,152,-56,-6,454,381,61,200,293,453,192,291,100,46,156
259350,29,234,423,192,-39,21,207,451,5,-185,325,-142,334,170,427,309,18,179,116,-82,-24,418,292,15,183,272,445,192,301,98,55,171
259351,89,342,473,235,-27,68,232,480,43,-119,373,-99,386,227,482,312,3,241,190,-18,48,496,361,95,238,313,495,224,350,153,76,167
259352,146,346,485,287,-51,152,277,528,97,-66,396,-69,439,261,517,367,66,302,241,27,85,525,446,154,292,361,540,299,426,210,86,171
259353,204,404,517,356,-54,220,383,578,156,-14,449,14,489,329,588,491,157,359,314,83,161,636,551,208,353,438,633,389,502,279,168,255
259354,278,449,601,386,-43,254,450,621,193,45,530,57,544,383,652,542,209,371,348,125,216,655,572,235,393,484,689,371,486,278,187,294
259355,318,443,657,402,-43,314,491,637,204,67,579,49,541,396,662,611,178,349,339,131,220,606,506,209,384,488,680,274,459,280,199,370
259356,291,447,630,426,-40,338,505,641,199,55,555,-4,523,363,652,629,174,332,289,85,189,533,458,170,337,446,605,276,411,239,132,248
259357,197,421,555,373,-39,271,462,584,118,-18,499,-50,437,277,599,611,97,248,201,-10,115,518,394,96,248,341,517,197,333,146,33,109
259358,148,298,469,302,-23,191,332,546,54,-100,321,-89,357,197,513,543,7,192,136,-80,47,479,358,44,184,289,449,217,335,111,28,93
259359,57,250,421,220,-40,116,346,452,-47,-186,418,-175,249,105,465,350,-89,80,21,-178,-63,348,247,-63,75,160,356,32,163,-26,-54,6
259360,50,292,399,215,-40,116,383,441,-57,-196,482,-179,228,85,466,345,-97,64,15,-175,-67,445,190,-99,44,152,356,-63,71,-97,-122,11
259361,100,292,458,250,-35,169,387,477,1,-147,444,-132,279,114,475,431,-12,125,48,-119,-4,568,245,-75,108,228,434,40,138,-56,-110,56
259362,170,355,516,313,-35,231,401,543,56,-86,494,-62,353,176,523,447,98,204,126,-76,33,574,341,-13,172,273,490,151,225,38,-1,167
259363,224,404,572,393,-31,270,441,628,137,-25,555,47,454,258,595,516,186,296,228,3,104,630,442,107,253,363,584,214,328,126,104,257
259364,219,401,635,444,-36,305,472,679,200,31,609,73,517,335,649,564,248,385,306,87,178,729,528,220,343,451,692,313,420,204,197,262
259365,211,386,615,450,-37,322,504,688,214,39,563,67,523,351,652,523,338,406,316,91,176,655,590,260,366,458,658,412,466,245,182,281
