,Fp1,Fp2,F7,F3,Fz,F4,F8,FC5,FC1,FC2,FC6,T7,C3,Cz,C4,T8,TP9,CP5,CP1,CP2,CP6,TP10,P7,P3,Pz,P4,P8,PO9,O1,Oz,O2,PO10
169638,-371,-108,94,-135,-190,293,12,62,125,-104,115,-117,255,71,14,-8,185,64,111,-151,-97,366,48,26,229,-48,187,29,40,68,-76,40
169639,-287,-103,89,-145,-171,286,-45,57,154,-85,191,-100,250,82,16,21,175,60,104,-150,-81,327,71,33,223,-41,235,43,48,62,-91,46
169640,-299,-102,59,-190,-190,297,-78,8,128,-95,253,-116,240,71,40,75,221,55,97,-148,-39,288,94,31,251,-24,282,44,63,60,-69,44
169641,-289,-44,48,-183,-192,272,-109,49,137,-95,240,-117,253,82,58,54,247,76,120,-132,-55,209,89,38,238,-29,264,-100,25,16,-161,-111
169642,-241,53,93,-160,-193,257,-41,97,141,-109,143,-91,273,81,59,59,226,116,132,-114,-62,259,156,86,259,0,273,-53,80,51,-94,-108
169643,-293,-7,51,-196,-195,178,-12,73,119,-128,110,-123,287,69,55,44,193,135,137,-113,-61,352,245,96,269,4,243,35,142,87,-40,80
169644,-343,-133,-16,-195,-200,322,34,71,130,-79,157,-142,282,80,67,65,157,96,125,-132,-60,244,225,89,248,-23,185,-84,71,55,-42,33
169645,-384,-180,-131,-238,-215,340,-1,28,104,-82,114,-157,244,87,58,124,100,70,100,-130,-34,294,146,58,237,-19,218,-71,62,63,-84,45
169646,-416,-214,-89,-261,-193,335,-28,20,109,-79,138,-108,246,74,48,22,108,67,100,-136,-72,332,113,47,232,-15,217,-88,54,74,-72,48
169647,-431,-181,-26,-184,-177,288,-30,23,105,-91,121,-100,241,63,13,-28,79,52,101,-152,-107,316,93,40,224,-40,189,-77,30,53,-77,13
169648,-386,-139,14,-173,-169,262,6,2,112,-89,87,-154,212,79,21,1,90,32,87,-159,-82,322,68,28,197,-34,200,-18,22,17,-129,-25
169649,-317,-79,42,-212,-193,253,10,-18,101,-94,61,-213,197,75,6,-31,122,18,69,-173,-100,339,57,-9,178,-51,179,-184,-30,-11,-180,-148
169650,-318,-114,19,-225,-214,227,-29,-26,83,-98,46,-225,198,72,14,-47,108,16,61,-154,-80,344,40,-6,202,-40,249,-160,0,1,-153,-275
169651,-344,-109,15,-216,-213,228,24,-68,88,-92,97,-270,184,85,54,14,23,-22,75,-123,-22,367,8,-20,224,0,342,-95,-13,27,-98,-130
169652,-360,-179,-4,-266,-221,244,56,-101,66,-66,117,-290,161,90,80,44,-17,-32,65,-122,-39,335,-6,-42,218,-1,274,-116,-10,52,-99,-52
169653,-364,-217,-59,-294,-233,257,29,-49,58,-76,91,-261,151,66,59,1,-43,-41,48,-134,-37,337,-62,-51,213,-19,258,-145,-51,13,-124,-12
169654,-374,-119,-70,-278,-198,285,0,52,68,-73,91,-231,181,63,57,-11,24,-12,69,-125,-45,338,-14,-7,233,-29,223,-79,-11,40,-82,49
169655,-440,-88,-121,-222,-199,281,39,57,73,-58,136,-227,185,76,50,-53,29,36,81,-128,-81,245,29,-19,222,-49,125,-111,4,37,-108,49
169656,-457,-51,-85,-215,-207,266,0,33,110,-59,128,-126,215,89,75,-36,98,54,124,-109,-45,331,64,11,254,-5,191,-34,43,98,-53,145
169657,-378,-17,-42,-210,-192,271,-59,115,97,-72,89,-69,249,74,62,32,118,90,94,-122,-40,281,97,17,228,-3,210,-157,35,90,-64,143
169658,-312,49,0,-202,-203,245,-34,126,76,-82,107,2,259,55,39,62,106,118,89,-122,-50,255,143,46,218,-24,178,-140,71,47,-98,-3
169659,-269,124,124,-190,-205,254,37,42,92,-87,166,62,253,62,71,71,167,140,104,-105,-1,327,204,78,236,11,261,-18,121,93,-44,66
169660,-326,73,175,-154,-183,277,66,34,120,-73,169,68,277,90,95,112,204,178,139,-83,16,403,249,110,255,70,318,-54,127,131,0,161
169661,-406,52,176,-164,-192,211,91,6,118,-86,112,4,279,98,66,106,216,156,136,-82,-2,405,201,108,270,48,294,-111,113,125,-14,180
169662,-336,75,219,-161,-202,194,91,28,102,-91,105,-28,274,99,63,93,213,169,145,-98,8,322,189,121,272,31,311,28,127,146,-3,128
169663,-219,63,234,-138,-198,194,58,46,109,-97,106,-66,274,101,61,27,201,169,134,-102,-17,317,184,96,285,36,285,141,137,157,-1,122
169664,-235,-18,195,-159,-200,215,95,26,106,-87,101,-129,262,97,80,15,162,132,125,-101,-9,407,119,69,264,29,267,104,102,143,-28,119
169665,-241,1,172,-186,-199,246,215,-1,96,-105,141,-179,242,55,61,48,122,64,89,-132,-17,367,16,22,207,10,257,-3,0,83,-76,24
169666,-255,-15,159,-155,-187,239,120,22,101,-92,135,-169,236,48,34,29,160,69,82,-149,-11,289,25,10,197,12,292,87,38,102,-33,114
169667,-341,-76,59,-148,-206,247,-36,49,105,-71,109,-157,244,72,38,35,125,66,76,-146,-33,270,0,15,181,-11,287,51,22,89,-70,159
169668,-484,-120,-67,-140,-210,276,-174,64,98,-76,213,-177,228,72,27,-12,137,48,56,-160,-63,258,-24,-16,164,-25,232,2,2,68,-63,138
169669,-496,-128,-125,-179,-203,335,-176,82,97,-64,204,-220,239,69,30,-39,80,20,70,-176,-94,264,-19,9,164,-21,179,131,56,79,-45,78
169670,-440,-275,-124,-179,-208,355,-92,74,78,-88,47,-167,247,60,5,-74,81,42,74,-176,-127,278,0,20,173,-55,171,158,84,95,-66,35
169671,-318,-333,-55,-159,-194,313,-24,61,91,-84,56,-123,243,64,-5,-57,73,46,68,-175,-95,302,11,30,176,-41,181,71,71,80,-71,30
169672,-227,-271,4,-151,-186,301,-25,72,105,-82,60,-112,237,54,-18,-64,76,58,54,-188,-123,293,24,27,166,-76,106,2,31,35,-104,-68
169673,-280,-209,-19,-138,-209,315,-53,57,116,-98,12,-165,249,75,-17,-54,19,51,71,-198,-137,314,70,36,168,-79,96,-6,58,47,-116,-44
169674,-329,-161,-10,-134,-192,328,-14,72,123,-90,30,-173,262,79,9,1,122,68,101,-147,-109,365,115,67,218,-17,174,16,88,93,-63,38
169675,-248,-22,60,-126,-188,252,23,105,122,-90,89,-141,268,85,21,3,121,96,107,-139,-103,265,83,59,215,-33,174,-92,32,53,-66,4
169676,-159,74,117,-184,-204,197,45,91,124,-114,87,-132,262,101,22,-25,109,87,103,-144,-81,284,79,66,209,-28,186,-88,30,67,-69,71
169677,-149,-14,185,-172,-199,236,49,73,116,-95,82,-104,263,115,58,-9,118,124,119,-113,-67,282,115,110,237,19,207,117,130,129,23,93
169678,-140,-11,180,-185,-185,253,93,59,116,-83,144,-58,286,120,65,6,143,137,155,-96,-56,221,101,130,246,29,200,158,148,153,40,-44
169679,-162,-25,129,-172,-198,205,1,116,119,-86,176,-58,295,123,91,30,91,127,146,-87,-10,324,40,109,271,50,289,50,115,157,34,-41
169680,-194,-98,137,-148,-208,245,-190,159,118,-71,169,-92,303,126,112,78,118,110,146,-75,6,396,17,94,282,77,348,-41,74,115,-22,33
169681,-209,-154,118,-160,-212,290,-154,142,107,-73,216,-98,291,132,99,19,173,122,155,-80,-28,296,97,104,289,73,270,-36,80,110,-4,54
169682,-221,-113,131,-174,-211,277,-106,83,111,-82,182,-103,284,119,83,50,177,142,163,-78,-14,301,161,122,314,60,287,-32,128,154,29,15
169683,-197,-30,225,-158,-190,209,-3,86,118,-82,123,-58,310,114,82,48,245,165,160,-66,-8,375,225,146,299,74,336,-73,157,160,13,-16
169684,-178,69,262,-139,-176,183,38,81,132,-78,144,-53,309,117,82,68,326,181,158,-73,-11,343,259,132,297,70,332,-72,175,176,35,22
169685,-185,87,261,-166,-188,176,43,84,119,-98,108,-49,296,119,83,41,286,189,156,-87,-54,355,287,146,305,59,264,203,234,202,52,108
169686,-184,101,265,-166,-189,157,77,87,109,-124,85,-44,297,118,77,66,156,184,158,-83,-24,386,251,146,320,71,266,178,246,235,77,155
169687,-280,91,237,-135,-179,194,113,68,125,-102,111,4,301,124,80,74,171,191,170,-82,-1,457,231,148,322,92,296,109,239,263,128,203
169688,-496,30,127,-103,-182,182,106,97,127,-105,101,87,303,114,47,24,233,188,149,-101,-48,462,235,144,306,74,282,149,214,246,83,222
169689,-580,-5,4,-50,-186,220,157,159,137,-92,93,123,312,112,44,-50,240,175,148,-111,-59,436,198,108,296,61,298,123,169,178,37,236
169690,-437,51,29,-39,-208,222,116,221,135,-95,77,73,346,114,74,-40,250,173,161,-94,-37,446,200,104,301,51,351,140,171,203,57,235
169691,-330,67,42,-58,-211,202,101,242,163,-99,131,-10,346,105,98,104,239,163,163,-65,43,489,209,115,307,98,481,125,179,231,95,299
169692,-235,30,69,-71,-187,242,135,213,141,-100,184,-16,316,99,90,120,306,173,167,-90,22,495,202,96,304,79,427,160,171,206,44,219
169693,-235,-25,144,-122,-197,258,108,114,126,-75,191,-5,279,100,108,131,342,144,140,-90,22,479,185,97,298,65,319,113,171,195,63,186
169694,-177,-11,207,-138,-191,229,80,88,119,-94,186,-20,261,91,111,176,161,146,129,-75,67,562,151,106,310,96,390,61,172,234,74,334
169695,-190,-84,218,-167,-189,239,11,70,103,-94,218,-23,280,93,97,162,231,189,138,-84,65,510,229,145,317,106,409,274,253,299,161,388
169696,-142,-38,259,-156,-165,278,75,36,139,-68,270,23,299,104,119,175,289,195,153,-81,83,497,260,178,329,128,415,365,324,333,203,297
169697,-119,35,259,-167,-156,285,122,19,141,-64,280,24,307,106,92,154,252,205,151,-74,56,428,238,156,319,121,424,346,284,299,143,182
169698,-118,43,255,-179,-161,270,144,33,130,-89,178,0,298,111,89,99,313,155,132,-88,0,338,190,135,284,74,373,276,237,245,116,282
169699,-142,0,194,-167,-181,266,111,33,116,-96,66,-42,280,92,54,92,277,137,116,-120,-27,356,167,116,260,43,317,209,198,219,84,270
169700,-155,5,166,-159,-169,314,159,29,126,-81,141,-89,271,90,73,89,237,130,115,-100,-10,388,158,105,268,62,337,111,175,214,78,245
169701,-181,32,100,-149,-188,304,114,37,127,-87,128,-83,257,93,73,57,233,87,90,-119,-22,479,108,57,251,50,340,40,119,154,23,238
169702,-216,84,0,-110,-195,188,69,83,131,-101,75,-36,272,102,54,48,269,127,100,-124,-27,473,153,66,253,22,284,33,102,119,10,150
169703,-267,84,42,-127,-201,152,69,107,123,-119,88,5,305,101,52,-19,272,161,140,-102,-54,422,225,111,268,25,247,121,150,157,27,138
169704,-341,-6,78,-161,-198,215,100,135,137,-113,97,15,293,120,67,51,204,159,145,-96,-29,451,246,113,276,34,301,52,153,180,40,230
169705,-413,-62,83,-142,-213,257,111,168,129,-98,138,-29,283,111,79,101,129,137,125,-114,-32,400,233,95,267,17,291,-30,128,149,3,184
169706,-338,-93,66,-170,-210,283,26,167,103,-92,176,-132,250,98,85,125,166,106,104,-141,-12,355,179,66,256,26,330,0,116,144,-13,166
169707,-236,-43,62,-185,-187,262,28,137,102,-63,229,-151,235,85,98,120,200,67,105,-109,-14,363,121,36,254,35,364,109,116,140,-5,171
169708,-222,-57,98,-202,-209,312,-1,56,112,-75,162,-165,222,85,71,74,198,36,77,-139,-42,389,75,15,239,-8,308,135,112,128,-12,152
169709,-213,-214,159,-193,-217,350,-104,19,119,-64,144,-132,225,84,64,60,229,34,59,-153,-55,368,65,17,216,-24,261,120,85,97,-45,84
169710,-191,-159,179,-216,-203,272,-59,8,125,-69,188,-121,239,101,85,53,209,66,91,-132,-21,444,98,32,221,7,298,110,96,126,-19,168
169711,-192,-29,155,-272,-187,254,26,-41,100,-68,180,-113,227,106,70,55,207,71,94,-145,-35,439,100,20,231,0,290,81,98,121,-4,155
169712,-247,-58,135,-208,-204,242,30,1,108,-89,181,-120,216,102,76,71,223,56,98,-138,-10,406,105,41,249,30,353,147,128,133,-14,107
169713,-276,-163,83,-207,-231,232,61,30,94,-99,173,-124,200,97,75,85,251,46,98,-130,-22,405,121,44,261,36,375,194,133,149,24,188
169714,-272,-123,8,-184,-219,250,108,56,105,-89,167,-110,223,106,95,101,264,71,117,-99,1,468,147,71,280,61,359,262,181,206,80,299
169715,-354,-37,28,-174,-188,238,190,77,111,-83,188,-95,234,106,115,81,241,91,135,-107,-3,472,166,97,293,77,350,191,198,209,60,287
169716,-460,10,15,-183,-216,181,161,55,82,-101,101,-97,234,110,68,30,249,103,124,-120,-46,421,171,70,274,41,313,75,142,147,16,174
169717,-464,-9,4,-138,-223,140,28,54,118,-119,-13,-92,245,116,39,24,278,103,115,-116,-58,389,162,64,277,27,295,-11,114,125,-25,12
169718,-382,8,52,-127,-210,122,17,76,126,-122,-19,-86,261,107,19,45,239,97,122,-125,-50,345,125,49,275,15,293,-182,62,85,-65,21
169719,-420,36,51,-136,-215,113,26,94,122,-133,11,-112,244,98,8,24,149,62,98,-147,-65,313,114,21,266,-14,261,-114,50,107,-46,128
169720,-387,49,88,-146,-207,162,59,94,112,-109,56,-113,218,112,44,19,132,67,111,-133,-38,277,106,39,272,18,263,12,73,123,-13,74
169721,-271,15,73,-186,-196,183,71,51,111,-89,84,-120,235,141,61,100,134,87,122,-100,-5,329,56,54,292,36,348,9,76,122,-11,79
169722,-288,-38,50,-238,-239,157,-2,-19,101,-105,71,-124,224,120,53,59,81,70,104,-108,-39,340,42,36,260,19,368,-44,65,114,-28,169
169723,-330,-93,63,-267,-245,199,-77,-13,80,-89,150,-113,228,101,60,29,114,73,103,-123,-53,345,31,49,255,0,307,27,88,126,-39,191
169724,-354,-136,46,-226,-210,321,-135,-30,95,-35,319,-129,219,115,99,49,73,72,110,-120,-57,306,7,41,257,-19,241,8,39,74,-57,122
169725,-390,-195,37,-220,-217,357,-56,-27,92,-72,222,-167,193,107,72,48,26,34,93,-131,-83,321,-48,0,229,-44,190,8,10,42,-101,71
169726,-384,-194,28,-190,-203,382,-2,23,100,-68,184,-138,213,94,84,45,61,66,86,-140,-101,354,-4,3,220,-66,164,81,29,16,-106,-17
169727,-335,-144,-64,-200,-202,350,82,8,95,-60,177,-156,196,82,53,28,25,39,67,-155,-114,363,-61,-14,192,-87,177,8,-5,8,-131,55
169728,-281,-31,-25,-199,-206,346,66,30,86,-75,115,-148,215,100,35,46,73,32,60,-169,-122,344,-24,-27,184,-78,176,15,-26,4,-131,68
169729,-272,14,12,-193,-204,268,55,63,84,-89,53,-152,199,99,30,5,-11,24,66,-169,-128,297,-66,-65,167,-111,142,-91,-72,-51,-187,-26
169730,-274,46,18,-170,-190,213,106,87,107,-98,70,-141,221,103,23,-4,-3,19,76,-170,-131,334,-71,-41,195,-92,143,-140,-58,-43,-179,-72
169731,-284,61,44,-154,-209,150,120,138,107,-115,40,-112,235,100,-2,-24,96,60,79,-166,-153,310,-7,-6,206,-93,129,-32,-4,4,-129,-70
169732,-311,76,89,-158,-198,152,165,203,115,-115,59,-78,256,114,18,-6,122,83,104,-140,-153,346,48,15,221,-67,163,-21,18,-3,-147,-79
169733,-367,44,66,-171,-211,149,130,103,95,-106,69,-93,257,97,10,1,144,72,95,-146,-129,332,56,17,239,-45,173,-26,41,19,-113,-51
169734,-343,-30,128,-225,-225,197,115,-23,79,-96,96,-103,222,103,23,42,148,79,90,-161,-120,224,77,26,236,-38,165,6,68,60,-65,-14
169735,-413,-63,156,-208,-202,250,72,4,89,-84,141,-102,215,101,49,80,98,71,87,-146,-121,163,78,23,237,-62,117,1,53,42,-114,-68
169736,-517,-69,136,-199,-204,262,18,-27,96,-70,141,-125,206,96,57,29,70,45,76,-160,-118,229,41,0,215,-58,146,-27,20,17,-113,-58
169737,-378,-66,84,-198,-233,238,-18,-8,92,-80,109,-123,199,81,39,-56,75,43,62,-174,-134,234,13,4,206,-77,149,-19,15,23,-130,-47
169738,-275,-98,82,-191,-184,301,8,26,79,-73,102,-106,221,83,17,-47,113,56,73,-172,-148,204,69,24,216,-82,135,40,49,-1,-127,-77
169739,-190,-45,97,-229,-182,240,43,49,97,-75,90,-115,213,97,9,-41,98,52,82,-176,-144,203,43,16,207,-80,124,0,18,-23,-158,-45
169740,-159,-43,85,-253,-192,198,48,31,104,-85,4,-151,230,96,-17,-84,58,42,80,-187,-178,208,22,11,208,-106,83,-34,-6,-22,-167,-63
169741,-253,-61,49,-214,-194,236,6,34,109,-85,48,-141,244,95,4,-61,67,51,83,-188,-150,278,63,5,187,-93,152,-12,20,0,-129,-24
169742,-302,-14,24,-184,-219,259,12,35,110,-82,83,-125,228,60,6,-41,111,55,68,-199,-150,267,83,16,163,-80,121,39,32,8,-139,-50
169743,-274,14,98,-157,-197,281,136,39,106,-62,101,-64,248,57,20,-19,138,77,80,-179,-125,271,104,34,186,-65,153,34,44,40,-115,13
169744,-244,13,197,-185,-170,282,184,62,116,-52,140,-12,249,90,41,-9,160,74,90,-181,-119,230,83,27,199,-61,178,-23,20,11,-107,38
169745,-279,0,207,-187,-180,290,92,33,98,-61,110,13,242,76,41,21,224,97,86,-184,-95,271,95,17,202,-58,199,-68,26,22,-143,77
169746,-338,12,212,-156,-193,277,71,43,88,-79,79,-3,237,79,35,29,177,106,90,-189,-106,287,102,27,194,-74,212,-119,22,14,-155,95
169747,-299,78,124,-179,-203,263,71,55,82,-64,68,-58,231,88,35,-3,88,65,101,-175,-99,319,94,34,202,-50,264,-95,49,44,-95,95
169748,-246,27,-5,-215,-208,292,59,78,83,-39,81,-146,222,89,15,20,75,28,82,-178,-95,311,62,12,172,-75,257,-175,-11,20,-126,57
169749,-203,47,3,-227,-198,275,32,77,96,-63,106,-130,222,96,12,-13,85,57,79,-206,-139,230,56,11,166,-107,209,-112,-20,-22,-141,-119
169750,-227,128,81,-232,-187,263,14,52,103,-47,153,-105,235,102,28,-22,121,85,103,-191,-128,174,91,29,171,-94,181,-82,11,-15,-142,-115
169751,-292,10,133,-206,-197,299,-116,43,83,-47,190,-130,234,89,8,-25,133,56,93,-205,-127,208,101,20,148,-125,148,-55,19,-33,-171,-156
169752,-493,-104,109,-184,-199,386,-112,64,83,-47,190,-172,241,73,12,-53,70,29,82,-222,-174,200,60,-5,123,-128,140,-104,-15,-54,-186,-98
169753,-522,-83,49,-164,-188,398,-16,94,117,-16,124,-136,258,87,46,-46,52,49,95,-188,-165,244,42,14,172,-101,133,-85,8,-25,-165,-77
169754,-311,-89,78,-135,-183,314,62,133,132,-57,44,-114,275,115,15,-84,70,78,122,-191,-171,193,68,27,189,-101,100,-39,34,-10,-134,-49
169755,-224,-119,134,-147,-168,307,85,130,127,-83,52,-129,267,104,3,-91,52,46,107,-189,-187,136,30,-12,165,-141,71,-21,-28,-79,-239,-130
169756,-251,-24,113,-161,-177,249,74,126,116,-105,31,-142,250,91,1,-55,66,41,88,-195,-177,149,21,-13,149,-121,92,19,-6,-60,-229,-123
169757,-244,88,187,-131,-177,205,108,98,138,-86,51,-76,291,99,7,-70,107,109,115,-195,-145,212,117,33,173,-81,133,18,59,20,-136,-24
169758,-148,157,201,-172,-170,203,137,26,144,-90,84,-42,287,120,33,-80,134,106,111,-181,-124,268,143,54,192,-58,147,-89,36,39,-119,8
169759,-118,180,258,-150,-167,199,151,16,152,-89,39,-53,284,119,65,-25,142,78,136,-138,-91,386,112,53,221,-41,190,-114,28,50,-69,69
169760,-128,156,223,-154,-194,208,119,13,140,-72,67,-67,287,114,70,-21,141,82,132,-106,-102,330,101,70,245,-6,216,18,44,98,-39,142
169761,-148,177,237,-150,-185,250,149,80,141,-56,146,-19,308,119,113,16,164,114,156,-97,-59,423,116,93,272,45,271,74,87,130,3,219
169762,-186,168,202,-151,-186,243,210,110,137,-67,183,-13,291,113,106,19,207,126,162,-108,-41,427,128,98,276,53,292,60,111,141,-4,236
169763,-198,140,216,-143,-190,237,155,121,132,-68,126,-7,315,109,86,2,226,142,159,-102,-17,440,137,116,292,69,319,137,172,191,55,319
169764,-180,133,243,-120,-192,235,133,111,143,-72,133,27,305,122,118,60,156,129,170,-83,32,527,106,112,308,82,370,68,179,199,64,348
169765,-146,111,258,-115,-174,267,129,139,172,-47,166,112,330,144,137,79,185,153,184,-69,33,515,178,148,307,97,380,90,182,206,65,282
169766,-164,25,230,-127,-189,284,133,174,152,-59,147,141,332,115,103,45,233,159,170,-90,8,471,191,139,291,81,366,117,181,190,49,275
169767,-189,-35,207,-114,-177,308,41,174,149,-48,131,72,322,142,99,105,266,146,178,-82,5,502,172,152,300,64,356,152,203,191,46,265
169768,-256,-86,165,-98,-196,257,-43,138,146,-56,175,-18,316,133,90,45,221,111,179,-91,-14,473,112,115,281,40,308,106,145,157,26,186
169769,-317,-172,113,-69,-200,286,-38,155,152,-61,175,-51,301,127,78,16,141,103,167,-105,-46,412,73,89,272,28,276,42,119,137,9,158
169770,-253,-209,37,-119,-201,297,-36,178,150,-58,196,-24,326,156,101,56,189,121,176,-94,-18,453,107,113,303,48,335,125,144,167,25,283
169771,-270,-221,-35,-129,-202,295,-11,232,171,-46,184,16,355,181,119,96,253,171,231,-52,23,472,180,157,335,92,411,267,257,261,119,369
169772,-421,-179,-6,-126,-237,219,70,197,148,-57,166,-12,357,162,118,69,232,193,217,-53,23,452,218,179,342,99,380,246,281,269,126,276
169773,-413,-61,71,-130,-236,255,69,164,144,-61,166,-24,323,158,109,63,196,164,184,-48,41,411,206,154,330,103,375,73,229,224,56,132
169774,-236,106,121,-155,-210,278,113,131,151,-60,172,32,309,164,125,193,166,177,197,-32,98,387,225,150,334,127,435,-54,175,171,65,36
169775,-205,98,172,-163,-228,251,164,82,148,-81,162,43,307,146,123,147,119,167,174,-51,62,344,184,150,312,92,451,8,183,150,40,-12
169776,-207,49,148,-143,-207,296,164,107,160,-53,163,47,313,155,137,99,169,181,181,-59,52,418,182,152,329,91,386,71,189,182,43,103
169777,-167,102,230,-122,-187,277,206,109,168,-73,182,11,310,166,136,141,159,163,188,-46,45,473,157,144,325,74,275,105,172,163,6,131
169778,-162,134,259,-140,-194,254,144,108,157,-64,204,-15,316,150,135,103,205,141,201,-63,28,483,117,131,308,59,291,172,177,173,44,170
169779,-167,109,242,-156,-217,234,57,108,146,-78,154,0,327,144,110,116,248,155,169,-68,0,509,107,116,307,37,296,222,188,172,11,194
169780,-155,130,239,-119,-208,236,109,162,180,-85,157,11,337,160,110,129,287,164,163,-68,7,503,125,119,284,31,288,193,166,142,-39,136
169781,-175,108,171,-89,-198,209,101,294,170,-91,164,23,354,140,110,122,285,185,170,-100,-28,427,140,118,254,5,254,170,158,120,-16,128
169782,-220,38,167,-96,-190,259,87,308,156,-69,174,34,361,145,109,160,264,196,164,-78,-9,388,161,118,252,-4,265,155,168,136,-2,158
169783,-223,28,166,-148,-191,303,-38,269,162,-55,243,23,331,127,117,107,136,157,164,-103,-31,370,143,104,247,-37,262,13,139,107,-41,119
169784,-209,31,216,-133,-206,329,-71,258,146,-56,281,24,335,127,104,43,164,159,147,-112,-60,364,167,101,234,-31,271,32,129,107,-35,42
169785,-263,-36,262,-126,-218,369,2,155,141,-55,263,24,335,118,94,6,269,174,139,-112,-40,417,200,97,236,-24,279,154,143,119,-44,121
169786,-248,-50,221,-120,-205,326,90,132,149,-68,227,4,324,132,88,35,270,154,141,-128,-45,390,181,95,243,-34,250,150,155,114,-41,49
169787,-172,-36,194,-131,-199,300,177,121,142,-78,135,-1,314,137,67,12,246,149,144,-135,-72,299,165,91,237,-44,226,166,150,92,-55,13
