,Fp1,Fp2,F7,F3,Fz,F4,F8,FC5,FC1,FC2,FC6,T7,C3,Cz,C4,T8,TP9,CP5,CP1,CP2,CP6,TP10,P7,P3,Pz,P4,P8,PO9,O1,Oz,O2,PO10
24925,-59,264,361,-33,65,252,333,509,-80,405,339,288,422,243,336,210,667,269,208,361,94,264,483,281,260,363,532,33,286,206,193,133
24926,-129,327,387,-45,77,332,384,349,-77,425,364,409,418,228,329,276,707,247,188,365,99,370,488,269,247,366,557,41,271,200,182,164
24927,-197,266,351,-9,72,295,366,359,-101,423,318,371,397,222,319,279,716,203,158,332,90,446,442,239,199,333,521,128,296,202,195,142
24928,-269,207,311,-28,88,327,366,351,-96,426,301,346,382,207,310,239,708,179,154,316,84,533,376,194,173,340,523,136,277,185,166,103
24929,-186,202,296,41,109,358,346,414,-68,438,355,347,427,211,356,235,707,211,172,360,144,371,378,232,200,365,593,123,277,207,194,194
24930,-12,248,303,2,116,396,366,436,-72,435,379,360,444,218,384,260,698,242,183,377,188,311,399,245,226,406,635,164,322,257,269,240
24931,38,318,360,3,94,338,375,459,-77,439,357,386,434,212,371,233,771,201,189,374,195,425,289,217,230,399,641,214,305,227,256,137
24932,68,331,434,20,101,316,389,465,-60,450,351,398,447,246,390,313,786,209,201,386,199,466,280,221,239,419,646,160,268,193,233,116
24933,48,336,449,127,136,338,488,526,-35,456,407,179,474,241,411,319,757,205,190,406,181,403,323,230,246,398,598,137,262,160,186,147
24934,-120,266,293,140,120,317,463,568,-44,419,379,34,455,230,365,281,713,196,162,380,172,376,352,204,225,381,551,137,246,153,145,9
24935,-95,249,205,101,108,306,400,479,-42,416,333,-86,454,234,367,298,753,206,171,382,169,372,384,218,232,402,559,183,274,180,162,-114
24936,-35,303,215,118,98,321,381,276,-61,416,353,-202,452,223,371,349,799,249,187,405,155,418,413,251,252,433,597,199,294,196,183,34
24937,-116,378,300,122,107,307,397,503,-54,408,385,-20,477,228,366,365,637,318,206,418,174,409,391,267,263,458,606,93,289,227,231,224
24938,-50,445,321,174,115,343,367,598,-46,443,387,166,494,248,370,351,577,347,211,413,168,381,337,282,268,456,578,107,312,244,261,301
24939,47,319,366,72,111,385,387,541,-57,438,399,334,439,248,379,326,656,290,205,428,187,510,319,292,267,447,570,201,356,271,279,354
24940,60,212,392,45,82,529,313,503,-65,447,339,437,409,247,385,414,762,190,170,431,224,479,281,264,269,465,605,256,364,282,286,345
24941,-103,89,347,181,89,632,218,334,-69,439,229,548,391,257,361,504,785,179,164,416,225,508,295,246,247,464,613,240,345,270,250,294
24942,-87,176,356,32,102,449,216,280,-67,444,317,610,363,266,361,332,750,193,179,419,192,524,353,274,261,466,579,238,350,253,245,262
24943,-162,159,307,-11,101,457,254,430,-66,451,316,458,392,272,360,172,698,161,197,424,180,407,362,285,267,467,571,221,364,255,245,233
24944,-275,232,263,-68,54,309,283,400,-96,420,297,332,375,257,326,130,737,157,176,388,154,407,350,272,255,440,567,203,342,237,212,208
24945,-216,218,322,-81,70,235,306,393,-82,433,292,289,397,253,346,166,742,221,207,420,154,424,375,302,263,460,597,200,343,262,234,131
24946,-92,154,313,-68,56,262,303,365,-64,436,320,271,428,251,343,176,725,261,233,414,180,372,405,304,273,469,638,190,381,277,244,70
24947,-88,191,297,-80,51,253,273,388,-67,410,295,261,430,249,345,264,667,269,229,404,178,339,435,331,266,468,638,138,372,257,236,121
24948,73,336,391,-50,64,316,314,370,-58,433,314,283,454,249,358,319,671,255,218,398,182,331,412,283,229,452,614,126,297,226,232,206
24949,286,562,540,50,124,386,449,434,-32,461,390,349,479,240,393,342,770,255,215,403,198,309,385,272,220,422,586,174,283,215,231,198
24950,268,631,547,100,127,353,468,503,-28,441,391,369,459,237,384,331,807,252,201,405,201,404,376,259,219,450,603,258,325,245,255,251
24951,208,581,514,143,121,380,390,514,-32,438,390,282,453,238,380,229,743,248,208,394,187,481,393,271,244,454,622,295,348,288,302,348
24952,54,492,488,206,113,407,372,579,-22,429,380,38,515,232,373,131,793,271,220,391,183,455,472,310,249,453,631,298,367,312,312,364
24953,21,481,481,261,122,465,398,618,12,426,385,90,533,230,372,145,796,275,233,398,183,475,493,315,254,442,652,247,360,314,307,313
24954,42,494,506,272,104,387,391,592,-22,386,345,193,476,195,312,166,741,245,169,358,137,435,492,262,189,380,605,140,315,259,246,139
24955,233,561,511,206,120,319,416,636,-19,408,358,306,486,214,354,254,797,300,187,388,154,406,587,266,205,393,595,147,304,223,226,185
24956,219,627,402,238,140,369,435,603,-21,419,346,326,486,220,343,258,777,295,184,393,163,422,518,272,203,393,590,154,319,222,227,280
24957,148,592,381,226,136,328,420,582,-38,414,320,206,445,197,308,245,658,195,145,365,111,426,316,178,166,363,516,184,247,188,204,228
24958,181,533,395,205,99,404,408,545,-41,408,329,218,446,204,297,192,641,190,131,324,76,420,248,170,143,342,503,252,235,165,141,50
24959,313,560,499,184,121,432,438,546,-31,416,328,262,443,221,315,223,651,235,148,340,112,206,418,233,167,345,535,88,223,164,138,-7
24960,388,603,548,123,111,384,482,556,-55,398,322,133,427,189,271,261,727,186,113,329,124,271,378,208,156,338,577,115,201,134,139,141
24961,274,648,550,156,106,381,466,573,-55,378,343,180,408,174,278,253,759,123,98,303,97,369,201,156,118,324,531,226,197,148,138,204
24962,298,630,571,112,125,438,457,508,-64,399,346,194,392,179,279,268,769,110,86,306,85,341,181,147,130,329,476,188,193,144,126,89
24963,247,579,498,148,119,489,428,513,-47,387,335,132,401,175,278,301,706,118,82,314,115,344,158,136,154,337,524,182,189,143,147,68
24964,172,467,449,247,96,384,378,518,-47,383,316,102,427,177,274,407,740,83,95,329,105,375,125,135,150,330,529,156,199,105,107,19
24965,229,437,392,210,107,385,343,527,-46,394,317,93,464,194,274,441,740,98,112,332,103,389,123,131,163,327,522,131,182,125,102,46
24966,132,405,374,102,128,511,352,550,-22,414,339,59,486,216,297,364,704,168,152,343,99,356,121,140,192,351,489,106,191,133,126,180
24967,158,430,385,155,106,454,322,482,-18,403,350,126,464,205,284,266,695,209,147,329,74,277,155,170,180,335,430,99,194,92,79,54
24968,278,574,399,114,87,412,325,239,-67,407,364,418,449,205,283,199,745,217,150,331,100,329,239,180,155,323,483,52,191,118,77,-89
24969,116,569,462,199,122,456,414,279,-39,418,381,590,476,208,322,202,821,243,180,360,138,364,347,222,176,359,534,29,227,139,104,-7
24970,202,560,488,292,140,387,375,636,-12,385,324,495,470,189,317,257,794,230,161,350,147,394,385,210,180,374,565,103,269,141,125,37
24971,224,501,456,203,140,356,248,635,-36,387,284,428,468,189,305,399,805,221,152,352,170,487,347,210,163,374,603,179,284,167,124,57
24972,185,505,457,168,143,381,214,547,-27,405,337,502,490,203,301,473,860,273,179,359,181,503,422,245,199,386,596,184,305,200,165,134
24973,152,557,511,221,126,431,232,551,-21,408,365,629,490,192,319,288,801,299,162,357,135,459,501,247,188,372,553,105,321,198,160,223
24974,322,549,545,124,122,422,322,434,-53,412,376,708,463,190,337,196,702,321,154,348,115,394,544,252,171,366,490,10,298,187,159,253
24975,399,496,570,83,114,375,388,461,-64,403,378,512,457,183,338,239,661,329,120,328,100,334,585,235,163,345,447,72,271,155,137,146
24976,327,494,557,49,106,295,402,529,-75,378,343,308,445,174,307,231,682,256,111,310,83,358,484,192,134,335,468,134,261,155,137,24
24977,317,583,531,-10,86,293,376,552,-83,371,303,264,425,178,279,179,634,222,90,298,65,343,371,154,137,347,488,125,254,157,139,82
24978,306,565,506,2,100,350,368,544,-77,398,314,276,413,171,250,172,669,178,86,309,36,316,311,144,130,322,480,81,235,168,152,190
24979,335,604,595,34,118,362,384,526,-71,391,367,254,410,201,264,146,820,151,117,326,57,352,277,174,170,358,506,203,274,214,223,245
24980,203,530,557,70,111,340,311,527,-92,377,313,110,420,168,242,68,822,154,107,309,42,268,316,168,160,325,491,215,298,213,220,42
24981,167,483,381,104,109,321,330,529,-84,391,286,120,401,156,237,39,798,172,98,316,45,256,305,139,148,346,505,191,265,182,176,-82
24982,196,536,414,247,160,352,357,665,-22,422,305,-47,444,180,265,96,722,145,109,319,67,325,233,140,157,344,535,174,253,164,180,67
24983,169,622,408,134,143,382,377,580,-51,410,312,86,403,173,277,163,673,93,88,332,78,325,132,124,141,347,534,118,230,147,175,111
24984,43,501,359,211,133,426,389,478,-51,407,327,277,393,181,292,200,586,113,87,340,84,315,110,137,145,342,497,112,218,128,141,97
24985,4,374,398,218,133,465,363,494,-46,420,318,266,426,186,284,297,561,126,101,335,106,362,126,142,158,330,532,52,197,124,158,122
24986,56,396,387,192,112,414,313,498,-59,401,306,275,407,192,275,280,631,125,102,323,83,348,185,130,142,311,490,19,167,94,117,43
24987,78,437,348,138,79,302,304,459,-73,375,296,339,383,190,262,199,683,149,107,334,79,364,235,121,151,333,481,18,178,120,127,-59
24988,101,500,404,-16,65,292,303,451,-97,389,294,279,398,188,291,207,678,160,108,359,130,152,226,134,165,352,546,33,195,128,156,20
24989,23,453,439,20,98,470,295,461,-69,433,363,342,453,213,345,227,696,211,155,386,166,226,293,191,195,394,570,60,229,181,180,141
24990,107,454,440,5,99,446,280,455,-62,427,416,374,430,201,358,268,767,220,158,394,182,393,333,207,192,403,596,85,275,225,223,190
24991,173,489,426,-52,104,458,264,436,-50,418,362,298,433,214,365,339,788,218,163,395,214,377,323,200,216,429,599,177,313,232,231,147
24992,11,541,359,46,132,439,320,449,-43,432,408,267,447,199,371,325,694,191,155,394,204,370,278,191,206,409,587,114,242,188,219,139
24993,72,563,356,62,133,450,378,279,-62,427,425,273,444,218,355,304,569,223,157,387,176,372,315,189,197,391,552,17,220,173,178,167
24994,143,558,353,34,95,384,374,66,-96,410,421,190,382,201,325,220,439,229,122,352,143,360,266,153,183,369,551,-14,188,140,139,43
24995,58,592,353,47,75,376,337,258,-97,395,340,159,385,186,300,179,490,176,110,340,130,362,169,131,172,361,575,-2,161,141,145,34
24996,47,487,337,125,95,420,346,468,-75,409,338,125,386,218,297,208,558,100,124,346,125,329,165,146,176,385,589,-23,173,178,182,181
24997,81,445,270,84,85,377,330,494,-91,393,346,178,373,198,298,185,576,59,119,345,138,351,205,139,169,372,568,-25,168,178,183,224
24998,105,419,321,66,90,355,324,549,-86,411,342,282,398,213,300,167,593,109,123,354,147,368,206,140,180,380,584,7,186,172,164,116
24999,156,436,400,76,96,427,258,491,-80,426,322,212,397,224,316,218,642,164,150,376,171,359,295,178,220,394,576,-25,190,133,153,17
25000,120,497,343,53,115,358,209,428,-84,425,293,172,388,253,337,323,689,180,167,391,170,410,322,210,234,410,536,-134,198,150,156,105
25001,198,505,278,113,101,355,261,476,-71,423,315,223,376,252,313,474,709,174,138,371,149,425,262,188,214,369,502,-56,193,127,125,106
25002,272,514,254,119,119,346,289,483,-68,423,319,308,401,251,310,480,731,212,166,382,157,342,327,236,231,372,522,-18,213,158,147,57
25003,224,471,257,151,124,386,347,501,-46,404,325,349,436,260,307,165,693,230,172,375,118,323,323,227,227,370,521,22,221,174,149,-4
25004,189,339,345,166,91,380,356,566,-78,393,300,292,394,232,287,25,579,172,132,350,83,291,269,193,192,351,469,3,212,143,146,50
25005,164,425,432,106,74,388,352,494,-116,417,318,299,392,206,300,112,620,137,116,339,92,224,292,202,183,351,454,50,220,131,127,93
25006,135,436,534,67,93,443,365,508,-81,423,324,34,404,232,304,157,662,155,131,343,83,305,296,194,189,330,434,78,243,153,124,139
25007,38,394,551,29,81,514,311,447,-90,429,321,43,382,217,280,237,729,159,116,342,81,402,286,172,166,332,421,209,236,153,126,151
25008,-47,450,524,45,76,403,279,184,-112,431,335,264,351,216,298,403,714,184,88,342,161,239,209,171,172,336,500,274,250,161,154,146
25009,23,462,522,28,89,357,293,304,-76,415,337,356,381,217,297,347,722,243,120,345,163,230,280,208,170,348,537,262,268,184,166,132
25010,-72,432,471,83,73,400,277,401,-67,404,316,310,381,197,253,249,715,253,105,311,97,264,347,200,138,338,535,216,255,139,141,39
25011,-88,525,414,53,76,422,304,422,-78,395,337,358,327,177,238,206,723,199,98,311,113,302,325,192,141,329,583,242,275,145,166,43
25012,191,587,452,23,96,461,333,522,-68,415,361,494,372,204,290,235,739,177,101,343,152,356,316,207,165,364,657,257,284,155,159,55
25013,213,515,458,-12,87,402,292,496,-103,403,301,517,372,169,274,212,761,170,76,303,100,292,317,181,137,334,628,218,254,131,134,-79
25014,109,441,534,28,82,395,344,496,-92,390,283,456,355,152,269,285,677,170,56,291,105,253,331,153,112,334,601,228,216,105,134,40
25015,144,465,527,17,62,367,372,432,-103,389,282,322,368,182,279,298,640,164,49,305,104,263,279,127,104,314,546,198,189,55,92,147
25016,100,551,506,48,62,296,414,405,-90,388,288,303,418,161,270,287,666,194,69,297,86,269,262,124,75,292,504,133,140,16,46,164
25017,191,551,441,87,52,385,421,519,-79,405,342,239,429,179,280,304,635,195,76,286,76,308,232,125,71,281,498,115,140,-3,34,179
25018,281,561,400,93,58,378,388,507,-90,402,343,161,382,169,280,251,669,83,27,277,78,353,154,82,39,252,520,66,104,4,33,265
25019,291,584,422,141,121,356,357,548,-54,413,303,272,380,208,292,251,714,46,46,307,140,445,201,104,75,297,596,154,165,57,100,358
25020,199,577,317,144,114,392,308,518,-63,411,307,506,354,206,288,230,723,84,50,306,129,408,284,106,80,310,562,219,188,75,97,327
25021,281,616,396,47,91,336,217,535,-88,413,270,488,381,201,271,247,794,171,55,295,105,374,391,113,70,281,489,183,211,32,46,167
25022,300,606,542,88,97,306,147,560,-51,412,231,221,440,242,276,200,838,250,82,311,101,439,513,160,105,286,507,116,200,57,71,237
25023,237,565,622,81,104,329,192,566,-43,405,231,149,438,220,259,241,832,235,91,293,57,438,449,138,79,268,495,47,160,23,38,253
25024,255,483,660,-18,74,298,271,507,-85,383,175,236,413,193,219,295,771,221,67,277,30,427,352,107,44,249,502,88,161,11,55,249
25025,232,407,713,18,99,390,335,513,-58,408,200,404,437,224,226,189,798,293,104,294,44,444,491,150,87,253,504,85,193,62,62,179
25026,153,485,627,43,119,399,359,600,-34,415,273,435,451,227,230,172,824,286,108,304,54,423,579,178,91,248,499,46,191,30,37,-2
25027,69,467,512,30,102,414,325,581,-60,399,280,301,431,208,260,194,830,226,92,281,56,380,484,169,79,222,496,90,161,6,-4,34
25028,124,490,465,96,85,415,284,560,-56,394,243,231,443,204,233,218,820,179,67,251,40,327,280,131,68,222,495,243,170,1,14,93
25029,216,582,504,102,132,268,277,546,-33,397,258,313,436,208,228,213,862,172,80,270,42,343,233,150,88,240,506,328,197,42,65,144
25030,170,534,482,122,148,328,281,469,-25,403,273,150,428,211,248,213,911,140,110,279,47,388,215,148,97,257,505,345,203,62,80,240
25031,64,506,491,206,133,330,306,431,-26,402,279,25,424,199,258,180,936,136,84,278,32,420,187,141,104,258,450,303,205,46,108,233
25032,136,468,491,121,120,320,272,491,-66,385,253,104,394,169,242,107,828,149,61,263,23,468,241,146,92,254,430,215,172,31,82,171
25033,76,539,458,125,115,373,270,533,-57,385,274,245,408,165,254,112,750,181,71,281,69,296,302,151,102,276,500,192,163,27,102,170
25034,99,522,483,162,110,391,250,524,-62,375,246,332,395,150,243,161,696,211,56,277,78,231,298,151,96,265,512,149,170,37,137,182
25035,159,565,551,159,133,384,261,600,-64,380,256,405,409,157,267,187,618,233,95,282,79,206,295,170,96,277,490,95,168,47,121,147
25036,27,522,512,163,132,393,247,593,-72,380,253,349,413,160,259,217,700,206,85,305,86,197,310,170,114,283,505,101,176,45,105,133
25037,97,456,437,139,90,391,256,562,-90,401,241,144,374,151,235,180,738,148,47,283,67,264,250,126,88,270,504,64,88,0,36,-56
25038,113,524,361,71,83,398,291,493,-92,399,231,273,383,171,255,195,683,153,47,291,72,319,267,113,79,297,539,96,99,-3,21,-360
25039,144,524,351,12,56,363,271,425,-104,397,229,366,374,199,260,219,703,213,67,309,85,321,306,133,121,329,570,112,122,12,74,-257
25040,178,450,274,50,66,385,251,161,-114,399,235,523,337,197,261,284,778,228,86,316,65,290,325,137,113,315,499,78,115,7,53,-80
25041,115,486,258,141,56,386,208,377,-83,401,202,505,381,187,235,262,846,191,92,287,22,277,302,133,98,273,408,88,117,4,26,74
25042,174,504,339,190,64,270,105,566,-80,384,120,386,420,198,211,286,830,200,113,275,24,216,292,131,90,244,380,106,138,3,41,124
25043,146,413,326,181,74,403,-11,495,-69,387,142,341,417,200,209,320,846,240,100,261,-11,236,245,130,89,237,322,124,138,14,27,90
25044,142,431,358,191,75,445,24,546,-78,397,258,33,392,179,216,170,890,170,85,289,-20,313,227,119,76,237,325,87,125,16,36,30
25045,10,420,489,201,84,437,128,513,-73,395,251,33,388,174,226,84,898,172,97,288,13,299,336,143,117,275,415,96,152,66,61,80
25046,121,462,618,111,109,407,246,544,-53,414,245,202,401,232,244,190,782,225,130,325,46,308,443,201,173,321,458,131,221,102,99,168
25047,220,476,634,-10,99,414,289,584,-78,423,255,315,435,252,259,216,781,293,162,353,61,271,518,245,174,334,445,138,231,119,117,163
25048,271,511,580,79,100,329,279,624,-63,409,252,372,467,249,265,46,836,337,165,365,49,273,597,272,209,365,452,75,196,119,146,129
25049,247,530,533,144,114,331,338,700,-30,440,298,331,504,265,304,89,814,306,178,398,110,287,515,265,232,406,486,-6,208,158,167,77
25050,185,393,433,74,81,389,404,586,-49,431,326,251,442,230,306,215,797,263,155,381,111,263,392,230,228,405,490,78,205,162,151,0
25051,118,392,405,84,108,408,402,592,-45,425,338,121,453,234,320,271,846,259,156,384,144,334,390,248,248,404,523,93,215,161,168,69
25052,107,478,384,51,139,375,449,645,-19,452,341,304,487,219,352,289,932,323,191,419,209,511,459,287,275,446,584,148,284,223,230,139
25053,137,585,395,48,122,374,425,577,-32,436,301,404,470,215,359,305,917,313,204,403,216,359,459,294,263,436,594,205,302,214,239,232
25054,165,654,454,62,114,372,367,514,-82,418,317,479,389,198,319,257,860,264,160,375,160,236,443,253,215,386,546,186,259,186,192,207
25055,224,659,363,213,129,399,359,392,-29,424,293,680,413,191,312,266,941,273,156,361,138,290,445,252,210,381,544,218,270,184,180,80
25056,275,512,316,208,124,448,264,159,-61,433,298,859,389,194,295,198,946,249,140,341,107,285,335,220,178,354,542,263,241,171,164,121
25057,181,478,318,126,130,406,244,208,-77,418,296,691,393,200,275,128,856,236,105,332,64,228,273,180,160,314,467,249,195,121,133,173
25058,114,545,431,155,117,350,248,551,-54,415,293,369,405,212,268,95,810,222,111,326,33,220,271,176,139,290,391,205,189,104,131,136
25059,95,535,546,193,106,355,176,596,-41,402,250,215,435,213,261,101,781,221,123,312,40,255,302,195,129,285,404,144,174,110,121,107
25060,107,518,614,163,104,346,137,577,-37,391,226,86,482,201,245,257,793,256,135,317,36,298,327,208,152,295,427,72,207,140,108,97
25061,142,535,569,225,121,372,155,566,-23,392,255,-72,481,222,243,329,794,267,134,324,46,313,342,193,150,303,436,15,187,129,113,110
25062,252,542,545,105,109,411,185,605,-14,400,235,75,480,222,260,359,878,261,148,326,89,342,407,201,168,314,457,40,177,151,158,141
25063,201,571,404,123,126,348,176,666,-11,400,221,352,454,216,258,269,889,253,137,333,78,364,445,199,152,302,459,145,205,159,166,40
25064,69,548,307,164,131,359,173,593,-28,415,260,549,435,210,235,154,832,256,117,316,48,333,436,191,124,301,466,171,215,151,144,-33
25065,170,531,357,228,128,375,156,600,-35,407,243,533,429,195,238,119,844,222,102,304,52,353,364,184,110,319,509,187,197,158,126,6
25066,346,507,505,157,141,416,175,612,-31,429,262,499,442,217,277,138,904,243,125,344,90,362,422,226,154,359,568,247,251,209,196,-7
25067,309,472,510,-13,112,511,225,540,-76,457,293,450,413,214,303,171,864,240,123,357,118,297,398,259,179,352,582,278,312,240,236,147
25068,227,462,449,-55,109,439,224,252,-95,446,300,364,392,223,316,217,916,220,130,366,142,294,384,270,176,383,600,296,320,249,263,271
25069,141,383,252,133,121,480,186,329,-53,444,298,-152,379,206,322,226,990,141,121,356,144,390,323,215,175,373,626,227,276,231,250,197
25070,217,458,180,203,142,434,189,580,-39,438,261,-470,407,210,303,356,825,161,119,365,139,433,314,218,168,373,662,276,294,240,229,208
25071,26,561,263,176,132,289,225,549,-19,434,233,-119,485,234,300,250,742,251,157,382,164,424,368,256,200,392,662,298,331,246,248,278
25072,51,595,327,222,127,258,283,618,-7,430,228,163,507,234,322,111,725,278,183,374,164,446,471,289,199,379,587,150,326,247,243,278
25073,192,584,546,112,136,350,354,530,-48,446,299,294,485,240,360,143,697,250,185,407,164,399,488,313,223,409,559,154,332,273,264,310
25074,169,483,665,83,146,374,316,479,-59,441,300,392,429,246,339,210,778,271,188,404,193,220,497,318,220,446,585,224,357,292,309,212
