,Fp1,Fp2,F7,F3,Fz,F4,F8,FC5,FC1,FC2,FC6,T7,C3,Cz,C4,T8,TP9,CP5,CP1,CP2,CP6,TP10,P7,P3,Pz,P4,P8,PO9,O1,Oz,O2,PO10
149369,93,220,-478,-262,-63,-270,70,-59,-30,153,89,-85,1184,-112,-125,-87,-285,-497,-11,64,-158,202,67,-288,128,-30,73,-162,213,-44,-301,75
149370,213,336,-321,-123,-78,-145,199,55,105,290,234,-14,1311,9,-16,42,-122,-394,91,198,-17,365,197,-175,246,88,215,-95,317,76,-156,219
149371,275,445,-234,-17,-86,-69,251,187,218,375,251,93,1417,120,60,109,45,-275,217,280,52,466,330,-59,347,199,289,3,436,176,-40,352
149372,348,513,-176,68,-79,13,230,262,288,424,285,124,1496,178,141,152,127,-187,281,351,101,515,391,13,407,247,341,23,493,215,13,390
149373,365,425,-179,65,-74,29,145,268,296,443,380,136,1500,198,178,148,145,-166,302,370,114,495,460,54,431,253,354,150,569,291,59,393
149374,266,263,-297,-26,-59,-49,55,181,211,392,269,91,1414,124,86,122,79,-221,226,302,40,382,388,7,367,177,316,39,498,248,34,384
149375,108,134,-528,-196,-51,-195,-33,10,79,238,157,-61,1271,-15,-60,-80,-77,-377,113,162,-76,258,227,-141,220,54,243,-175,346,97,-94,346
149376,-73,-48,-651,-334,-51,-357,-234,-142,-72,93,-15,-230,1123,-156,-216,-199,-287,-538,-23,39,-211,115,89,-299,75,-99,72,-268,233,-68,-318,131
149377,-162,-145,-702,-415,-53,-454,-301,-223,-155,26,-96,-330,1043,-241,-299,-242,-365,-627,-129,-41,-306,-9,-1,-368,-8,-198,-94,-418,173,-154,-425,-50
149378,-109,-79,-689,-377,-57,-368,-212,-197,-97,82,-18,-288,1098,-186,-233,-166,-345,-556,-84,9,-236,9,54,-306,53,-139,-24,-293,257,-74,-313,45
149379,-5,6,-606,-286,-66,-273,-80,-103,-4,191,81,-158,1203,-71,-142,-35,-222,-463,10,102,-139,17,177,-215,143,-44,110,-129,371,30,-230,4
149380,92,130,-536,-179,-63,-163,29,15,115,311,229,-31,1330,78,7,104,-72,-314,181,263,11,202,367,-39,322,117,262,33,561,210,-32,181
149381,147,226,-438,-71,-71,-46,125,125,240,406,290,65,1449,201,124,140,70,-191,327,378,83,373,485,81,447,221,305,81,672,337,84,315
149382,203,251,-386,-22,-98,23,133,166,295,464,406,82,1519,256,209,255,176,-160,378,435,185,399,476,131,488,292,329,153,735,378,86,306
149383,261,272,-341,-29,-82,25,100,167,309,488,475,103,1540,268,231,256,183,-149,393,455,225,361,480,162,539,336,362,197,754,411,129,384
149384,183,179,-430,-112,-92,-71,42,105,226,399,333,6,1459,201,148,66,33,-219,303,386,95,346,435,73,461,231,301,63,668,347,66,312
149385,-27,18,-647,-255,-77,-232,-90,-71,79,249,164,-202,1296,25,-19,-97,-186,-385,168,248,-56,231,262,-75,330,78,185,-67,532,202,-106,136
149386,-186,-119,-812,-387,-72,-410,-260,-208,-54,112,-3,-363,1151,-113,-180,-272,-356,-534,33,106,-220,-7,103,-215,185,-86,-23,-163,376,24,-337,-101
149387,-250,-223,-878,-476,-69,-502,-366,-288,-126,44,-89,-430,1095,-167,-244,-357,-397,-617,-47,31,-333,-151,30,-287,122,-168,-144,-256,299,-58,-469,-183
149388,-232,-145,-827,-392,-54,-453,-224,-203,-56,96,-73,-424,1162,-101,-205,-302,-380,-550,23,88,-289,-38,53,-239,161,-122,-112,-196,348,-19,-445,-184
149389,-132,-131,-726,-296,-62,-342,-166,-99,36,186,-25,-333,1252,-33,-104,-248,-266,-466,143,189,-200,79,152,-167,268,-18,-30,-68,416,80,-317,-106
149390,42,24,-552,-152,-42,-173,-33,26,175,326,118,-162,1404,111,49,-68,-120,-316,303,340,-31,238,339,22,449,150,134,214,614,281,-65,163
149391,156,177,-421,-40,-68,-102,62,161,265,409,207,-38,1478,201,112,129,-59,-223,365,423,84,347,365,100,531,252,241,169,676,404,86,391
149392,271,278,-319,34,-78,-44,136,254,338,454,273,70,1534,254,173,210,37,-148,433,475,145,364,380,161,590,315,327,13,641,400,71,381
149393,258,235,-306,38,-60,16,176,241,348,472,336,55,1531,263,190,139,99,-161,426,484,149,439,352,132,579,330,367,-6,603,364,58,339
149394,182,143,-348,-28,-72,-71,53,192,250,406,244,0,1464,177,91,-30,-38,-251,344,406,54,399,290,40,477,244,315,-2,578,323,6,270
149395,42,3,-455,-164,-74,-263,-83,60,89,240,38,-99,1297,9,-74,-197,-152,-377,197,259,-111,209,224,-78,326,116,176,-5,481,200,-76,151
149396,-49,-115,-577,-292,-61,-369,-177,-63,-41,118,-32,-208,1191,-110,-196,-225,-215,-497,65,112,-197,92,118,-212,209,12,90,-149,327,77,-213,28
149397,-82,-145,-595,-378,-61,-466,-258,-106,-118,41,-95,-224,1133,-192,-287,-260,-203,-580,-31,44,-240,125,71,-282,130,-61,31,-216,249,38,-245,71
149398,-9,-78,-522,-326,-83,-466,-340,-41,-69,46,-58,-126,1184,-158,-241,-172,-122,-502,12,87,-208,118,149,-239,158,-27,54,-150,315,112,-156,182
149399,111,0,-452,-232,-72,-314,-394,80,16,202,152,-7,1287,-28,-114,24,-34,-352,139,197,-82,240,265,-127,282,101,185,-79,406,219,-27,291
149400,199,166,-370,-129,-77,-132,-199,170,132,348,318,61,1396,96,15,157,41,-261,260,343,100,399,338,-26,420,271,397,-81,472,339,151,459
149401,285,380,-273,-33,-64,-62,120,257,244,437,484,121,1473,205,137,242,122,-176,369,461,248,613,426,81,539,397,541,66,623,500,348,683
149402,389,448,-154,41,-79,-11,295,364,332,516,484,245,1567,302,193,278,278,-79,458,540,295,693,528,166,626,477,594,231,673,563,391,699
149403,378,411,-144,38,-74,-15,337,353,334,519,455,222,1569,288,214,312,291,-117,458,531,294,662,524,149,608,445,563,210,613,491,310,599
149404,270,284,-243,-53,-82,-85,249,241,239,444,366,129,1512,193,120,253,204,-194,375,433,206,541,472,63,508,342,441,211,538,385,177,432
149405,108,114,-401,-198,-72,-223,104,76,81,321,226,-31,1352,41,6,99,-25,-330,195,306,43,300,306,-100,371,204,287,-30,380,261,69,339
149406,-27,-38,-556,-346,-72,-350,-25,-63,-47,170,113,-204,1183,-111,-136,-6,-214,-515,5,138,-88,194,80,-282,203,50,147,-319,161,69,-79,201
149407,-89,-77,-629,-404,-69,-415,-102,-158,-136,68,18,-299,1113,-194,-232,-51,-306,-581,-73,27,-194,229,-52,-365,105,-58,96,-348,88,-16,-181,72
149408,-2,30,-538,-338,-45,-373,-57,-118,-82,114,110,-230,1171,-137,-160,9,-239,-506,5,102,-141,147,33,-280,165,-4,120,-165,202,83,-102,110
149409,75,138,-456,-225,-59,-274,0,-17,27,215,204,-150,1290,-43,-79,155,-144,-442,106,203,-41,233,165,-172,277,81,161,2,344,178,-17,227
149410,166,251,-380,-115,-94,-172,128,109,130,315,308,-79,1392,77,44,211,-32,-345,193,284,66,437,278,-74,366,167,253,127,495,301,61,344
149411,317,352,-244,8,-100,-42,239,223,241,398,415,17,1479,177,112,211,59,-268,276,384,132,521,319,-10,461,246,336,62,515,343,102,348
149412,405,397,-147,82,-72,21,333,293,328,482,480,96,1559,237,187,259,131,-221,342,450,181,538,385,75,528,313,473,116,583,404,160,411
149413,429,367,-146,75,-73,-6,319,311,322,461,454,119,1571,221,177,195,145,-194,353,444,167,514,421,89,516,300,485,139,622,383,122,375
149414,340,244,-208,16,-91,-97,196,231,238,367,282,42,1496,140,71,163,32,-277,278,353,75,434,346,31,431,188,361,3,568,322,55,339
149415,203,116,-332,-133,-86,-231,13,48,93,242,222,-95,1339,14,-52,41,-162,-409,155,221,-65,221,187,-86,295,60,165,-157,421,205,-64,271
149416,74,40,-493,-279,-64,-395,-117,-52,-48,93,46,-240,1214,-135,-208,-111,-368,-566,23,89,-218,155,50,-241,158,-64,-1,-259,303,100,-135,203
149417,1,-11,-521,-336,-54,-490,-233,-58,-85,27,-61,-279,1175,-167,-272,-114,-362,-625,-41,39,-251,153,29,-278,111,-92,-20,-292,257,29,-217,107
149418,47,23,-443,-320,-69,-432,-181,-64,-43,66,31,-213,1213,-115,-246,-121,-245,-543,11,71,-230,167,120,-243,135,-89,-26,-230,312,28,-294,32
149419,101,117,-339,-228,-71,-328,-91,31,33,136,88,-82,1306,-35,-144,-110,-102,-422,86,157,-147,126,241,-120,235,25,69,-81,435,144,-146,102
149420,230,241,-287,-89,-70,-211,-11,157,179,266,187,62,1446,94,-37,23,77,-261,213,276,-13,198,381,15,368,151,184,53,582,272,-52,199
149421,314,309,-219,8,-69,-80,85,266,277,401,307,188,1542,197,99,154,154,-153,320,391,99,335,481,102,458,235,281,157,682,329,-59,259
149422,381,285,-118,75,-75,-21,140,367,331,486,390,274,1614,266,190,241,254,-70,418,473,174,358,568,193,559,302,393,297,801,425,47,265
149423,362,316,-161,47,-78,18,96,328,307,504,436,265,1574,256,206,273,254,-82,423,481,205,387,577,203,541,298,354,294,770,398,61,272
149424,259,233,-277,-44,-89,-82,42,213,238,400,317,184,1475,153,90,177,141,-199,310,391,82,284,492,92,472,189,204,145,668,298,-42,251
149425,133,88,-462,-199,-69,-215,-167,45,75,246,142,16,1336,21,-65,-58,-69,-369,150,205,-128,64,301,-88,300,12,-10,-63,501,122,-230,12
149426,-12,5,-601,-330,-59,-351,-251,-117,-57,106,9,-155,1172,-132,-193,-209,-291,-534,7,32,-260,-63,92,-278,122,-157,-172,-226,324,-76,-451,-236
149427,-131,-78,-728,-397,-59,-454,-260,-230,-127,45,-67,-274,1096,-199,-268,-275,-408,-653,-113,-37,-327,-224,-36,-397,12,-224,-226,-332,209,-157,-498,-280
149428,-82,-66,-740,-370,-69,-432,-233,-232,-97,95,-83,-298,1092,-144,-233,-300,-335,-637,-78,14,-288,-127,-23,-363,58,-160,-154,-342,197,-109,-414,-149
149429,16,41,-621,-294,-70,-325,-104,-101,-3,174,43,-201,1176,-44,-142,-230,-261,-553,-10,127,-210,0,31,-318,149,-76,-34,-357,254,-42,-361,-95
149430,168,161,-457,-151,-67,-169,45,36,128,318,210,-84,1315,96,16,-70,-144,-439,129,285,-50,204,142,-189,304,99,180,-209,395,113,-213,17
149431,292,228,-300,-46,-65,-39,121,103,216,430,349,9,1412,167,121,80,-31,-336,243,378,72,310,247,-89,425,240,309,-46,536,283,-20,202
149432,400,342,-7,62,-82,12,158,266,290,494,375,108,1493,237,149,93,68,-242,299,425,94,405,351,17,493,277,363,35,605,344,86,309
149433,406,397,-115,46,-81,12,182,269,303,473,393,156,1506,236,154,152,133,-202,303,405,113,454,400,66,515,287,366,127,676,396,136,401
149434,304,354,-488,-76,-81,-56,99,129,218,406,347,99,1429,150,110,157,21,-266,226,342,60,360,340,-3,433,224,320,89,632,390,108,398
149435,177,242,-472,-187,-83,-203,-67,21,76,244,160,-52,1279,-12,-67,21,-164,-424,45,176,-96,249,159,-193,253,72,167,-92,414,197,-34,244
149436,81,64,-579,-317,-78,-349,-175,-81,-65,104,0,-173,1134,-164,-240,-60,-207,-559,-119,36,-228,132,37,-320,115,-62,39,-231,261,0,-209,51
149437,30,-3,-619,-379,-43,-440,-213,-142,-139,33,-55,-195,1094,-212,-310,-159,-239,-613,-185,-17,-267,89,14,-358,61,-103,-27,-248,205,-58,-301,-28
149438,77,34,-567,-340,-52,-370,-104,-100,-80,89,63,-144,1150,-158,-242,-127,-170,-528,-106,72,-190,165,94,-286,132,-8,105,-180,284,48,-152,189
149439,193,126,-457,-245,-70,-269,5,13,10,168,156,-22,1228,-61,-124,-17,-77,-417,-13,169,-68,252,190,-203,237,78,268,-89,368,130,-73,298
149440,350,289,-307,-119,-61,-142,129,155,138,317,283,115,1376,86,24,122,77,-254,154,321,81,460,381,-48,376,245,432,115,536,289,116,491
149441,441,442,-217,-25,-85,-27,284,247,216,424,412,188,1462,174,124,223,171,-155,243,410,146,514,478,29,441,312,426,213,600,354,129,457
149442,501,505,-140,58,-72,50,384,315,293,492,472,240,1513,217,212,339,255,-130,283,440,251,621,494,79,493,375,499,180,617,395,206,574
149443,494,469,-139,48,-76,43,367,289,291,491,512,214,1496,184,197,325,223,-177,283,409,245,589,455,42,465,338,477,205,572,310,120,424
149444,425,359,-194,-28,-59,-18,257,230,226,399,425,154,1426,107,124,211,127,-222,190,330,134,387,387,-34,375,230,312,197,505,235,14,204
149445,263,212,-384,-194,-73,-171,57,127,73,275,260,6,1280,-47,-32,39,5,-364,72,192,-26,232,250,-160,239,67,158,96,401,155,-90,233
149446,103,43,-521,-345,-76,-317,-137,-46,-76,131,56,-139,1138,-180,-188,-88,-125,-502,-59,60,-165,120,158,-281,106,-71,36,47,279,22,-246,99
149447,16,-37,-549,-406,-70,-395,-182,-165,-163,36,-21,-189,1052,-246,-276,-204,-214,-592,-174,-31,-257,-10,26,-353,32,-159,-58,-224,125,-109,-380,-6
149448,87,10,-513,-350,-52,-338,-93,-101,-102,97,103,-140,1116,-184,-198,-85,-140,-558,-117,12,-200,101,18,-331,72,-123,-76,-397,63,-142,-387,75
149449,188,99,-405,-283,-62,-236,-2,-12,2,181,205,-39,1224,-86,-83,46,-95,-445,-15,138,-89,236,122,-230,164,-32,-46,-251,167,-37,-286,174
149450,326,189,-232,-158,-88,-86,130,132,135,319,344,147,1374,35,49,172,36,-297,124,291,49,323,282,-100,312,80,48,-112,302,68,-197,137
149451,444,351,-94,-40,-75,0,262,277,238,454,547,292,1508,173,204,338,160,-168,260,402,195,458,417,37,450,195,174,50,434,189,-90,248
149452,566,443,7,50,-80,64,318,399,322,496,536,396,1617,265,271,442,258,-59,363,487,284,649,539,145,556,290,302,247,595,328,23,382
149453,584,434,20,66,-75,88,393,420,340,518,549,463,1633,272,291,432,345,-14,388,524,298,738,595,182,579,347,374,312,630,373,64,426
149454,508,387,-83,-35,-66,1,335,352,249,443,526,387,1552,193,232,370,313,-97,322,452,236,646,558,118,519,284,349,326,615,344,22,368
149455,347,209,-236,-187,-67,-175,146,205,115,277,333,206,1406,51,58,190,125,-210,202,290,74,405,419,-8,396,123,207,169,502,228,-80,265
149456,181,36,-344,-324,-58,-309,-4,50,-25,137,165,85,1289,-93,-101,38,10,-337,73,144,-58,120,240,-170,246,2,83,-129,314,54,-219,165
149457,96,-49,-408,-371,-65,-387,-74,-26,-102,36,82,22,1212,-186,-181,-67,-152,-445,-35,53,-156,142,119,-253,153,-64,14,-292,201,-56,-324,69
149458,98,-15,-407,-313,-71,-366,-77,83,-37,69,106,64,1256,-139,-171,-57,-91,-391,31,88,-121,209,173,-177,189,-38,50,-243,264,-2,-288,74
149459,204,115,-275,-218,-66,-254,-50,176,65,196,289,169,1347,-25,-62,47,7,-282,158,199,-11,264,330,-63,298,58,160,-104,417,106,-134,206
149460,354,240,-129,-109,-69,-153,58,297,186,313,365,271,1481,91,71,222,157,-144,290,339,120,429,474,61,426,203,310,130,585,265,40,341
149461,424,295,-82,-11,-86,-80,192,365,286,404,362,330,1557,196,162,296,287,-67,386,440,216,515,513,158,531,302,438,224,700,383,179,437
149462,506,383,7,56,-68,13,308,439,359,484,484,409,1635,295,245,323,412,12,486,523,273,565,619,248,619,389,523,305,813,471,242,489
149463,466,357,0,79,-67,27,309,438,376,477,509,403,1640,299,243,356,388,26,484,503,246,534,679,256,611,369,481,398,838,489,235,509
149464,346,256,-155,-6,-82,-44,195,334,288,389,357,318,1556,212,145,286,251,-60,385,417,160,402,587,149,517,275,393,356,761,420,132,430
149465,209,119,-346,-163,-70,-198,3,149,130,243,181,139,1382,41,-10,164,82,-236,236,249,3,318,417,-16,364,131,251,111,542,236,-37,270
149466,46,-153,-504,-307,-43,-330,-145,-30,0,130,93,-1,1263,-90,-135,-55,-48,-381,83,114,-137,160,259,-160,232,8,108,-90,380,98,-171,148
149467,-38,-277,-591,-405,-55,-408,-215,-115,-100,40,-31,-89,1151,-183,-241,-193,-162,-489,19,34,-238,-34,138,-268,125,-85,62,-196,287,3,-240,49
149468,59,-127,-505,-340,-65,-394,-182,-78,-67,80,-11,-69,1195,-138,-195,-209,-226,-463,47,66,-189,32,148,-255,174,-27,161,-114,331,24,-193,67
149469,154,-17,-391,-238,-63,-299,-88,45,23,172,87,19,1297,-31,-84,-86,-100,-362,115,165,-98,120,232,-158,265,67,236,-8,444,92,-118,148
149470,269,111,-259,-108,-55,-193,45,198,167,293,222,175,1426,96,39,65,94,-228,248,306,52,330,397,-4,413,206,328,158,597,300,84,355
149471,366,239,-149,24,-75,-90,130,306,281,406,321,300,1546,217,146,192,275,-116,364,448,188,501,523,122,555,356,508,270,735,497,284,559
149472,450,334,-68,86,-80,-7,268,368,358,502,437,356,1624,297,220,309,328,-50,427,542,278,563,556,191,661,468,646,278,776,533,366,625
149473,478,376,-64,102,-54,-27,275,393,370,505,438,387,1644,291,226,301,295,-29,421,531,239,521,547,186,656,446,559,245,741,500,322,502
149474,417,292,-127,30,-60,-140,119,347,279,398,264,321,1562,204,102,120,148,-108,337,399,87,331,459,100,572,302,348,151,659,351,153,306
149475,230,64,-290,-126,-55,-296,-82,187,135,253,80,171,1406,50,-92,-109,-24,-267,170,270,-110,180,293,-68,412,113,100,-52,504,158,-117,54
149476,62,-115,-479,-285,-58,-435,-240,6,0,136,-63,-21,1246,-75,-231,-219,-157,-428,73,142,-248,43,115,-255,270,-22,-7,-234,341,11,-231,-37
149477,-17,-242,-574,-379,-66,-538,-344,-104,-89,39,-158,-154,1139,-156,-324,-290,-286,-547,1,47,-342,-40,4,-364,183,-109,-74,-341,212,-89,-285,-113
149478,-18,-177,-536,-330,-67,-477,-327,-61,-63,72,-100,-116,1173,-118,-268,-221,-278,-512,9,90,-298,-44,46,-344,199,-82,-52,-290,254,-27,-234,-86
149479,140,-13,-435,-227,-69,-374,-244,20,40,161,11,-67,1277,-23,-173,-115,-221,-442,76,171,-222,53,119,-248,277,-11,48,-162,345,67,-151,2
149480,269,65,-301,-99,-78,-248,-139,146,168,285,89,11,1393,87,-71,-55,-153,-351,170,261,-131,182,183,-152,376,100,111,-98,417,150,-80,84
149481,406,157,18,47,-81,-143,13,322,285,394,226,121,1501,201,18,-17,-32,-268,282,354,-40,238,284,-60,459,176,181,-27,492,216,-24,175
149482,455,221,-7,97,-78,-72,121,340,341,454,290,171,1561,245,87,91,20,-229,337,398,29,353,329,-5,508,252,298,43,527,269,72,280
149483,380,215,-373,7,-86,-32,124,229,314,473,326,156,1512,238,87,125,41,-241,314,383,49,250,316,-27,471,224,302,9,478,244,57,254
149484,327,167,-339,-44,-66,-97,44,177,230,385,226,59,1430,132,-17,41,-40,-339,219,279,-28,209,230,-111,371,113,242,-36,394,144,-48,152
149485,169,12,-470,-198,-73,-249,-68,12,58,230,59,-134,1249,-29,-162,-98,-317,-500,26,108,-174,153,54,-289,191,-49,65,-125,236,7,-197,-3
149486,47,-144,-570,-345,-80,-385,-207,-126,-78,105,-89,-260,1108,-177,-289,-290,-400,-618,-90,-23,-327,-63,-67,-408,58,-204,-133,-234,108,-116,-295,-85
149487,-19,-194,-637,-416,-56,-447,-254,-191,-147,21,-183,-337,1027,-256,-357,-348,-478,-714,-181,-96,-400,-150,-159,-503,-39,-297,-206,-406,-30,-244,-386,-86
149488,62,-76,-576,-354,-62,-389,-228,-109,-106,45,-76,-254,1082,-219,-280,-188,-393,-667,-149,-37,-309,-48,-108,-498,-3,-245,-96,-401,-20,-229,-355,57
149489,204,105,-418,-226,-47,-250,-99,31,4,165,96,-103,1206,-112,-135,-14,-194,-503,-22,69,-173,141,71,-351,112,-110,32,-211,145,-94,-271,152
149490,306,234,-286,-134,-63,-92,64,137,104,303,253,28,1338,9,23,174,-47,-366,114,195,-2,347,212,-180,240,18,145,-55,302,29,-157,137
149491,469,282,-199,-50,-88,-15,195,216,205,399,408,133,1430,122,125,313,4,-272,208,310,130,459,313,-79,366,136,270,71,450,172,-1,305
149492,555,339,-110,13,-86,70,307,292,282,470,501,238,1488,195,204,448,109,-190,264,376,188,480,368,7,456,223,337,200,542,249,61,414
149493,526,421,-96,14,-64,107,323,321,287,492,536,226,1504,211,198,481,189,-173,289,404,199,548,451,32,464,249,339,338,613,258,51,421
149494,453,403,-158,-42,-57,30,160,253,225,406,407,181,1446,129,105,337,137,-186,238,350,134,464,498,28,437,213,303,541,698,319,62,368
149495,310,209,-333,-186,-70,-181,11,83,56,249,217,58,1306,-37,-70,105,7,-330,56,166,-14,276,393,-83,295,61,158,437,584,204,-95,198
149496,180,33,-495,-314,-58,-257,-49,-33,-66,126,116,-113,1157,-174,-198,-55,-139,-497,-56,55,-151,226,191,-254,148,-66,46,31,362,-13,-269,42
149497,107,-3,-548,-394,-42,-360,-53,-103,-148,36,65,-214,1072,-245,-263,-77,-226,-608,-119,-3,-200,219,32,-374,73,-124,39,-322,173,-148,-358,25
149498,167,105,-458,-360,-58,-366,-25,-58,-117,80,129,-157,1114,-197,-207,54,-201,-554,-51,65,-94,239,100,-304,116,-40,130,-219,228,-65,-256,169
149499,270,210,-332,-251,-59,-238,33,25,-5,189,203,-52,1220,-96,-118,145,-125,-444,57,181,0,382,186,-193,230,87,302,-198,330,59,-93,368
149500,412,316,-220,-143,-74,-136,126,134,118,299,280,76,1345,35,-4,304,59,-323,144,299,125,477,311,-86,351,214,433,-62,456,171,-56,419
149501,549,434,-108,-54,-83,-28,274,241,222,420,461,134,1435,129,111,427,88,-234,260,402,250,479,373,3,441,299,545,98,580,308,77,473
149502,608,479,-31,17,-77,65,414,310,297,504,577,199,1503,233,227,479,171,-165,323,481,330,660,454,96,521,383,626,135,642,411,219,518
149503,568,453,-40,0,-85,64,339,281,276,502,555,229,1489,220,232,423,161,-156,291,457,278,670,487,76,502,384,553,167,646,404,170,450
149504,498,404,-123,-75,-64,-24,266,221,213,446,495,173,1431,177,161,361,102,-203,250,402,224,607,478,38,470,346,510,241,669,389,143,409
149505,324,261,-340,-246,-72,-170,115,59,56,282,320,20,1274,42,23,279,-9,-346,115,297,115,480,339,-74,364,232,471,120,596,322,111,396
149506,192,105,-509,-373,-66,-270,-12,-105,-85,150,200,-117,1137,-103,-112,77,-143,-489,16,136,-29,347,194,-211,222,79,330,-47,454,164,-16,292
149507,145,21,-528,-445,-50,-357,-72,-187,-147,63,85,-154,1099,-163,-183,-84,-166,-532,-35,82,-123,230,176,-263,153,4,237,-48,396,64,-127,103
149508,178,47,-502,-381,-51,-325,-33,-98,-78,121,209,-132,1168,-121,-131,2,-153,-483,34,149,-73,197,229,-199,228,33,230,30,447,134,-83,146
149509,250,125,-406,-270,-61,-225,11,0,13,209,270,-25,1232,-41,-58,106,-192,-418,79,211,-21,238,225,-150,277,118,233,-179,417,152,0,273
149510,359,241,-256,-147,-65,-85,143,132,135,327,327,135,1373,95,56,241,-30,-289,210,324,81,275,364,-23,391,208,284,-47,546,296,118,387
149511,476,324,-149,-41,-91,13,253,281,251,434,421,276,1501,200,152,328,126,-185,341,410,180,510,474,85,524,292,418,89,688,457,284,531
149512,543,406,-108,29,-76,80,313,344,300,491,476,318,1545,252,228,336,186,-133,386,480,206,613,479,119,594,343,469,108,727,509,326,597
149513,558,423,-79,28,-74,93,284,338,309,503,445,342,1559,269,232,303,208,-139,392,484,210,562,475,141,593,330,446,162,742,489,284,559
149514,509,304,-112,-6,-59,21,228,315,251,445,422,291,1515,199,175,266,125,-179,351,418,145,422,443,109,535,282,375,137,710,454,194,484
149515,370,176,-215,-120,-74,-166,56,222,117,257,225,142,1404,48,-31,88,-10,-305,203,267,-38,340,316,-25,386,145,263,11,558,300,75,295
149516,202,-24,-375,-285,-76,-310,-100,56,-24,95,20,-36,1235,-96,-210,-10,-138,-475,64,126,-212,187,145,-177,226,-13,94,-86,382,114,-124,84
149517,101,-196,-504,-373,-64,-334,-141,-56,-124,42,-10,-131,1149,-168,-281,-32,-184,-550,-22,59,-256,69,56,-250,154,-89,-2,-220,272,22,-187,144
149518,124,-31,-364,-315,-57,-344,-70,28,-77,65,30,-85,1194,-118,-284,-37,-171,-505,9,76,-244,-43,92,-210,186,-66,-11,-225,297,56,-154,123
