,Fp1,Fp2,F7,F3,Fz,F4,F8,FC5,FC1,FC2,FC6,T7,C3,Cz,C4,T8,TP9,CP5,CP1,CP2,CP6,TP10,P7,P3,Pz,P4,P8,PO9,O1,Oz,O2,PO10
164871,130,145,18,31,399,514,-135,396,188,81,225,-409,41,289,298,207,46,-244,61,105,9,-347,155,-103,-67,242,59,61,24,-563,-36,-137
164872,160,148,37,29,402,508,-109,380,188,114,257,-410,46,309,305,231,47,-224,55,126,8,-298,141,-83,-74,235,76,80,53,-561,-47,-117
164873,146,159,67,19,397,496,-83,388,203,106,259,-437,59,321,309,144,7,-216,62,118,7,-354,152,-84,-69,240,80,8,41,-547,-32,-118
164874,115,112,47,9,354,467,-154,358,209,83,209,-414,76,307,272,25,-35,-219,88,114,-16,-367,169,-67,-72,228,106,-32,28,-550,-23,-112
164875,111,144,54,34,366,484,-118,388,210,98,226,-441,81,306,293,153,-80,-194,85,126,3,-290,185,-35,-49,273,140,15,59,-497,45,-16
164876,124,164,26,25,373,497,-58,407,238,119,278,-429,92,314,323,186,-72,-209,112,162,62,-230,258,9,-11,331,219,12,121,-415,110,31
164877,131,174,15,21,372,506,-71,346,223,128,282,-423,101,312,338,219,-44,-209,136,173,73,-242,254,20,-17,321,175,59,178,-372,109,19
164878,112,175,27,25,372,533,-54,358,221,144,312,-430,107,358,339,299,-19,-175,151,182,87,-251,203,54,33,348,133,133,257,-306,172,96
164879,103,187,25,2,368,552,-54,371,212,139,308,-428,132,346,344,325,-56,-164,165,175,67,-274,168,68,44,364,195,205,332,-255,226,112
164880,125,192,7,29,375,546,-77,350,195,124,288,-454,139,337,332,277,-78,-148,179,189,26,-280,214,92,56,350,183,139,324,-246,243,56
164881,92,160,-19,3,356,503,-120,335,219,69,245,-453,121,330,293,260,-20,-158,158,155,3,-286,167,74,23,336,189,40,217,-306,210,9
164882,100,169,-1,1,374,505,-87,332,176,88,227,-424,102,336,283,252,6,-233,131,121,18,-236,163,53,12,351,179,41,143,-382,115,-17
164883,154,192,17,35,398,519,-54,395,209,105,243,-371,146,351,293,244,30,-195,162,170,47,-221,228,84,24,351,165,-16,128,-371,139,37
164884,162,163,42,16,365,501,-56,392,205,73,233,-370,149,321,276,227,11,-166,151,140,55,-206,116,68,16,322,166,-4,127,-384,95,38
164885,147,173,4,18,381,532,-22,402,188,100,248,-337,154,343,286,269,0,-141,173,136,65,-185,186,107,76,327,189,60,215,-320,134,9
164886,170,202,-3,48,426,539,-92,440,211,133,243,-279,188,361,317,264,39,-123,223,165,94,-168,281,147,117,368,250,92,279,-267,180,13
164887,186,192,83,69,431,538,-110,448,231,131,225,-304,180,360,304,244,32,-160,190,152,54,-153,178,117,89,347,224,107,242,-305,189,64
164888,127,163,45,52,413,517,-90,458,231,115,213,-363,161,329,256,254,22,-163,168,134,55,-228,176,74,49,336,204,89,209,-343,136,26
164889,158,175,26,50,417,507,-84,476,221,131,203,-362,165,333,273,246,36,-151,174,143,55,-253,190,64,67,314,170,33,199,-370,90,14
164890,147,188,27,31,413,508,-63,407,222,120,218,-383,168,356,268,234,4,-175,184,149,15,-217,110,61,77,301,163,-25,182,-393,103,16
164891,133,172,28,6,404,487,-77,373,229,83,197,-403,156,333,226,272,16,-180,167,129,-31,-236,92,32,53,256,130,-39,135,-424,82,-12
164892,120,182,-1,-34,379,477,-51,344,198,56,187,-436,141,296,235,183,12,-196,167,120,-18,-302,120,22,42,242,108,-23,121,-437,54,-17
164893,145,199,27,-21,384,477,-57,356,205,63,213,-417,150,308,259,142,40,-169,194,135,3,-297,211,31,67,287,177,3,186,-365,114,36
164894,150,193,15,-8,370,494,-47,349,209,83,251,-412,133,311,266,170,64,-181,181,133,12,-280,217,17,75,292,184,36,222,-292,166,90
164895,159,192,41,10,372,502,-76,338,191,103,226,-399,141,352,246,180,50,-197,181,160,27,-264,225,38,88,321,187,109,271,-267,213,155
164896,188,207,74,27,396,505,-70,370,212,112,215,-414,159,343,237,185,84,-162,191,161,14,-265,276,51,84,328,112,117,274,-286,157,85
164897,196,229,69,36,391,500,-43,390,200,103,217,-374,134,306,233,160,117,-176,138,132,-23,-261,254,16,49,285,39,81,194,-413,20,-115
164898,198,236,101,39,415,488,-66,415,196,84,222,-334,151,323,228,182,144,-151,169,138,-42,-253,253,28,55,293,79,81,186,-415,14,-102
164899,169,209,70,12,376,475,-111,413,186,66,174,-341,124,327,217,178,120,-152,175,125,-33,-273,317,20,37,268,56,78,156,-433,7,-80
164900,170,230,80,23,390,490,-102,428,188,89,176,-318,134,334,243,207,159,-170,175,118,-2,-297,320,12,30,267,63,39,151,-468,-8,-72
164901,172,197,60,29,407,493,-99,381,186,104,204,-356,119,324,257,195,100,-220,150,122,2,-359,228,4,25,272,80,83,169,-438,7,-91
164902,141,175,17,3,391,474,-93,353,178,93,185,-401,78,340,257,15,59,-235,121,129,-12,-354,171,-27,0,271,57,100,162,-448,-3,-136
164903,137,175,9,2,368,445,-129,380,183,49,135,-453,57,315,221,12,44,-248,88,101,-73,-346,161,-61,-28,211,6,97,145,-471,-20,-132
164904,131,156,9,8,375,436,-129,406,202,56,127,-433,76,313,203,110,68,-260,96,95,-68,-367,169,-74,-10,187,-5,81,134,-472,-36,-122
164905,155,174,24,20,383,449,-144,372,198,78,142,-403,68,318,214,137,63,-223,93,116,-60,-349,181,-50,-7,220,36,38,134,-465,-42,-85
164906,137,157,24,4,370,442,-165,353,179,80,153,-413,44,317,222,105,31,-239,92,111,-102,-344,170,-84,-29,213,0,-18,53,-518,-71,-103
164907,125,169,28,18,385,454,-169,386,201,109,160,-420,55,345,229,156,19,-261,113,120,-67,-304,161,-82,-10,218,-13,-81,-25,-571,-92,-121
164908,104,138,-3,9,359,441,-174,350,187,80,131,-473,42,334,214,155,-63,-330,74,99,-80,-310,62,-126,-9,213,-19,-72,-44,-576,-88,-133
164909,123,143,-29,28,365,425,-189,347,188,63,118,-514,46,324,231,97,-38,-305,83,107,-106,-391,78,-126,-14,206,-57,-75,-47,-569,-103,-192
164910,112,135,-20,17,372,431,-209,335,176,56,124,-505,16,307,209,73,-85,-295,73,108,-125,-446,64,-125,-38,202,-70,-115,-27,-548,-115,-230
164911,76,145,-13,3,377,442,-177,321,163,67,125,-509,8,308,215,92,-141,-310,45,101,-112,-469,30,-156,-74,180,-82,-171,-56,-591,-142,-271
164912,43,119,-41,-16,370,461,-195,344,154,77,134,-523,12,282,223,49,-143,-299,52,90,-123,-506,36,-148,-83,162,-118,-155,-44,-605,-137,-291
164913,45,99,-84,-6,370,447,-231,334,169,77,144,-539,28,305,226,15,-96,-317,83,109,-125,-441,27,-118,-96,157,-122,-178,-48,-599,-152,-261
164914,89,103,-29,15,357,427,-246,377,195,77,120,-485,63,349,217,66,-86,-283,95,107,-133,-395,59,-101,-73,155,-110,-134,-20,-598,-148,-253
164915,127,141,20,46,367,453,-187,396,190,93,139,-473,90,358,259,90,-61,-267,112,136,-78,-388,105,-93,-27,196,-47,-87,22,-538,-90,-158
164916,103,127,11,22,360,474,-141,377,177,79,197,-509,55,341,294,94,-34,-296,125,150,-40,-385,20,-102,-30,208,-15,-60,31,-549,-104,-151
164917,87,122,27,27,382,465,-150,380,186,80,170,-491,62,323,266,88,-24,-262,122,133,-89,-403,52,-105,-30,207,-87,-101,0,-586,-156,-268
164918,78,104,12,37,390,449,-171,369,186,78,127,-472,51,305,230,79,-93,-268,123,99,-118,-397,2,-125,-59,181,-79,-184,-87,-673,-190,-286
164919,78,60,-68,24,381,444,-175,333,173,62,113,-464,44,310,216,83,-192,-292,114,87,-117,-396,-22,-132,-64,160,-56,-227,-72,-673,-173,-291
164920,76,77,-64,34,387,452,-188,339,198,68,130,-482,63,344,241,47,-136,-303,128,95,-143,-442,13,-90,-37,177,-99,-192,-19,-616,-140,-301
164921,73,76,-23,22,377,454,-180,319,199,52,164,-467,66,330,234,2,-165,-263,136,111,-135,-468,13,-80,-42,185,-122,-115,17,-597,-112,-289
164922,67,83,-77,12,375,442,-165,306,190,59,143,-412,85,350,246,51,-179,-204,164,146,-71,-405,105,-32,5,224,-37,-85,63,-544,-67,-221
164923,53,74,-89,47,371,451,-144,314,189,71,128,-454,74,361,258,91,-175,-239,174,147,-66,-385,30,-50,8,239,-5,-176,51,-547,-49,-211
164924,53,86,-70,49,349,449,-143,307,172,76,141,-503,74,347,266,102,-165,-255,176,156,-54,-415,17,-45,9,252,76,-45,111,-458,27,-184
164925,90,81,-19,23,367,449,-189,274,193,67,125,-476,62,350,282,104,-167,-236,189,159,-52,-441,69,-9,12,281,103,-60,142,-438,51,-161
164926,105,92,4,34,393,450,-176,306,210,59,140,-489,68,351,276,71,-194,-257,178,158,-74,-457,-26,-36,-21,244,16,-201,61,-490,-19,-157
164927,97,98,-8,46,382,475,-157,317,193,48,169,-535,53,336,251,-21,-187,-299,156,150,-77,-429,-67,-46,-36,232,17,-252,18,-491,-17,-145
164928,101,94,-5,72,376,476,-169,337,194,52,148,-519,70,323,237,-46,-206,-275,150,128,-75,-388,-65,-45,-11,254,42,-227,22,-470,21,-122
164929,84,86,16,68,390,462,-208,367,208,52,121,-475,73,332,231,70,-243,-263,135,117,-75,-442,-65,-40,-9,267,63,-201,57,-460,21,-157
164930,80,39,32,55,397,460,-225,364,186,72,146,-447,73,364,272,88,-213,-286,150,138,-40,-508,-51,-21,-6,298,67,-148,67,-455,39,-133
164931,47,10,-12,26,393,450,-295,322,199,67,115,-427,85,360,278,74,-148,-249,152,138,-26,-526,-9,1,-1,313,116,-105,112,-426,64,-147
164932,37,-8,-43,6,377,440,-289,300,196,61,115,-455,77,336,265,47,-178,-269,126,131,-35,-443,-10,-22,-1,324,127,-150,80,-417,106,-131
164933,85,55,1,20,403,493,-180,320,194,95,157,-490,77,341,273,49,-154,-272,134,143,-20,-342,-12,-27,2,334,101,-156,75,-412,142,-56
164934,128,136,65,49,409,508,-96,370,209,84,195,-475,72,342,277,61,-148,-254,124,130,-11,-403,-8,-34,-7,295,45,-107,80,-425,98,-87
164935,146,160,96,70,402,481,-56,385,198,57,202,-455,111,355,268,128,-152,-240,122,126,-17,-403,59,3,1,310,63,-67,118,-407,99,-75
164936,164,155,122,78,430,489,-69,408,207,69,198,-431,151,374,275,161,-116,-209,155,143,-22,-310,81,0,23,323,111,-33,164,-388,136,-20
164937,125,147,52,46,390,484,-76,410,218,79,172,-413,144,362,274,116,-19,-200,175,171,-15,-308,104,0,36,325,92,6,184,-355,127,-29
164938,84,129,10,28,388,479,-84,398,199,77,166,-405,145,357,261,114,17,-180,180,174,-19,-309,155,30,39,327,94,62,194,-345,143,-35
164939,24,104,-24,22,385,487,-76,365,192,97,189,-403,122,359,269,191,-20,-185,186,179,17,-234,165,28,59,330,133,73,236,-326,163,33
164940,0,92,-84,-4,385,478,-92,359,201,64,194,-411,129,375,276,177,-22,-160,180,171,26,-246,214,28,72,294,105,74,248,-344,122,-43
164941,20,93,-91,-3,383,492,-76,341,199,75,183,-410,127,364,261,171,-2,-162,182,166,24,-297,224,22,64,297,112,54,188,-383,84,-96
164942,83,146,-46,22,379,513,-31,379,210,97,182,-420,141,384,284,214,-4,-205,179,147,51,-277,142,-16,39,303,150,85,163,-414,82,-90
164943,97,178,-22,52,408,512,-54,386,210,82,196,-389,151,402,274,217,5,-124,172,142,37,-288,161,-9,31,274,125,67,125,-449,61,-107
164944,95,176,-13,41,404,526,-14,376,204,79,194,-402,132,368,255,164,41,-117,150,121,-13,-305,198,-25,-5,223,11,64,104,-453,9,-109
164945,109,157,-24,29,398,492,-61,421,215,69,142,-394,146,353,237,147,71,-127,149,106,-82,-281,246,-29,-34,194,-34,85,135,-459,18,-111
164946,102,121,-19,48,402,461,-80,393,207,57,147,-406,120,344,221,117,47,-158,113,90,-70,-303,188,-42,-54,187,2,66,111,-482,0,-127
164947,87,159,-35,38,392,500,-13,331,179,36,168,-468,54,319,232,91,-6,-221,65,71,-53,-353,109,-79,-104,163,-5,11,33,-526,-65,-167
164948,83,187,-65,20,407,517,24,339,160,40,184,-504,47,306,236,122,14,-256,51,37,-81,-378,147,-125,-143,151,-49,-20,-19,-594,-108,-203
164949,112,183,-36,38,421,531,-12,366,175,73,218,-446,87,287,251,195,9,-204,53,44,-61,-364,163,-99,-124,160,-53,-3,-8,-612,-115,-213
164950,124,195,-28,65,428,541,-32,376,195,82,233,-421,93,272,246,228,-21,-172,85,52,-34,-330,185,-54,-95,161,-14,-7,33,-576,-94,-153
164951,122,187,-24,65,422,529,-28,388,194,82,207,-432,83,279,231,208,-29,-187,96,54,-28,-287,90,-73,-106,160,-24,14,37,-572,-91,-151
164952,111,194,-35,45,418,533,-18,389,182,86,185,-452,79,296,230,177,-14,-236,111,45,-40,-258,55,-101,-138,135,-49,20,51,-626,-174,-267
164953,104,197,-30,19,400,516,-9,310,153,55,177,-472,48,283,201,190,-37,-274,72,19,-101,-304,79,-117,-150,88,-97,7,-7,-693,-270,-357
164954,81,180,-31,-8,383,504,-60,264,121,46,170,-478,5,284,190,43,-43,-315,32,2,-103,-319,18,-175,-176,47,-80,-99,-106,-766,-303,-327
164955,79,132,-23,-8,371,496,-95,293,146,56,165,-477,2,308,204,-87,-85,-297,34,6,-77,-373,-40,-180,-187,62,-48,-101,-77,-780,-293,-328
164956,115,126,43,14,395,494,-97,315,192,57,156,-467,45,316,206,88,-94,-262,48,20,-82,-346,0,-156,-162,83,-92,-131,-119,-769,-265,-277
164957,147,166,54,29,430,518,-54,355,198,82,184,-408,95,322,241,121,-20,-215,93,66,-64,-280,76,-106,-115,116,-59,-145,-119,-711,-180,-184
164958,119,150,33,33,406,510,-38,368,175,78,191,-377,92,315,239,130,0,-189,125,90,-36,-282,157,-51,-81,156,-6,-51,-42,-626,-141,-227
164959,130,176,68,41,419,529,-38,404,212,86,220,-367,117,339,256,157,5,-190,145,123,-33,-306,101,-6,-33,193,-76,50,55,-503,-53,-167
164960,133,174,51,47,434,542,-44,420,222,110,238,-380,146,358,312,180,6,-166,204,164,18,-266,83,32,4,250,5,46,121,-449,13,-117
164961,127,182,65,53,440,538,-82,431,203,110,219,-358,153,355,313,184,-8,-134,203,166,35,-282,96,37,-12,256,25,10,112,-471,-27,-152
164962,125,164,34,67,441,531,-97,408,213,80,193,-407,118,343,290,114,-87,-188,173,124,-26,-310,33,-27,-63,214,-58,-95,15,-599,-154,-230
164963,101,138,-3,71,434,509,-132,443,221,68,153,-415,118,354,251,23,-139,-179,145,117,-66,-335,35,-30,-75,174,-86,-144,-17,-617,-181,-233
164964,105,144,-25,59,458,496,-147,432,209,76,159,-406,116,328,256,25,-142,-188,151,98,-45,-357,7,-29,-65,185,-42,-164,-43,-585,-137,-230
164965,87,117,-20,21,422,467,-166,336,164,73,153,-460,66,282,241,-1,-205,-262,123,71,-48,-441,-75,-88,-112,140,-59,-223,-88,-628,-173,-266
164966,77,116,-34,52,427,485,-148,373,195,69,143,-457,77,285,236,0,-168,-248,126,73,-78,-437,-29,-73,-100,114,-118,-214,-58,-604,-146,-258
164967,53,120,-68,52,428,496,-140,381,200,76,135,-492,80,277,241,48,-150,-271,121,97,-106,-442,-61,-84,-58,128,-128,-203,-51,-597,-126,-289
164968,23,87,-57,20,419,495,-154,360,173,71,144,-477,74,284,249,38,-200,-295,113,125,-108,-453,-142,-105,-68,145,-92,-240,-43,-598,-132,-305
164969,-11,74,-65,-21,399,475,-151,295,155,60,166,-468,49,278,239,50,-214,-280,119,117,-114,-470,-99,-115,-58,139,-122,-285,-69,-621,-175,-343
164970,35,86,-22,12,403,476,-181,344,188,51,106,-461,83,290,229,63,-194,-289,134,123,-103,-451,-46,-101,-34,166,-143,-229,-32,-595,-164,-313
164971,64,110,4,32,411,477,-134,389,204,61,137,-439,94,297,252,87,-164,-278,149,141,-97,-452,-38,-50,-15,197,-109,-165,32,-520,-87,-278
164972,43,99,-46,0,409,488,-124,325,191,76,174,-485,95,319,270,101,-104,-271,176,160,-83,-445,-36,-44,9,243,-64,-174,60,-467,-17,-234
164973,37,81,-83,-17,399,483,-127,331,196,85,200,-487,110,339,297,73,-88,-271,180,194,-35,-449,-30,-43,5,294,-12,-194,69,-430,17,-207
164974,47,88,-68,0,402,507,-110,354,186,78,203,-433,128,333,319,92,-142,-229,179,217,-6,-408,12,-22,31,311,33,-203,36,-454,43,-196
164975,58,118,-43,5,407,529,-79,359,194,83,250,-398,123,341,361,120,-134,-213,183,238,37,-384,-8,-32,61,317,33,-224,16,-488,32,-115
164976,67,108,-42,0,377,538,-77,362,199,107,256,-418,120,373,396,119,-122,-242,190,245,99,-366,-48,-30,72,384,133,-186,73,-419,107,-1
164977,80,122,-13,28,395,536,-84,358,185,109,241,-396,125,379,372,101,-82,-244,186,253,81,-354,-30,-22,77,398,141,-208,83,-388,205,40
164978,71,129,0,10,403,512,-70,328,194,84,233,-427,111,376,362,77,-106,-249,159,224,13,-361,-30,-28,16,343,79,-249,31,-446,121,-112
164979,85,142,1,35,407,522,-59,306,197,94,229,-423,103,356,348,-10,-93,-259,155,202,-10,-321,13,-44,4,280,20,-225,1,-523,-18,-220
164980,94,198,9,65,422,526,-46,343,199,99,228,-419,109,366,344,65,-84,-238,145,203,1,-285,43,-38,12,279,39,-132,63,-551,-46,-253
164981,63,190,-19,55,413,530,-39,326,191,85,246,-450,103,357,359,175,-87,-252,132,210,12,-285,29,-47,1,298,104,-47,121,-488,31,-157
164982,43,184,-71,28,414,562,-7,313,184,96,272,-462,96,347,356,185,-123,-261,133,202,36,-287,60,-54,-2,311,115,-73,145,-452,60,-138
164983,67,158,-54,27,406,563,-15,302,172,96,263,-444,89,306,314,183,-143,-262,114,161,3,-284,14,-89,-22,306,66,-178,45,-525,-11,-147
164984,80,157,-65,34,398,545,-66,296,163,115,260,-465,77,318,326,238,-67,-274,121,172,31,-237,-69,-114,-13,327,114,-114,1,-551,-22,-173
164985,114,173,-82,44,407,553,-62,286,184,126,284,-472,78,334,361,256,6,-239,135,201,75,-244,15,-74,-29,368,153,0,51,-514,7,-109
164986,135,177,-77,46,409,560,-11,320,191,122,290,-416,81,346,358,243,30,-235,129,206,91,-253,80,-70,-39,353,132,11,59,-495,-14,-120
164987,159,199,0,63,409,574,23,328,183,119,320,-335,71,352,380,225,55,-241,134,223,126,-174,149,-43,-10,386,186,31,109,-394,82,-43
164988,186,222,25,53,422,586,51,356,185,120,362,-325,105,356,398,270,81,-221,179,241,168,-119,206,-7,35,439,242,79,171,-340,166,46
164989,193,215,55,77,403,557,76,373,195,138,360,-330,122,391,389,329,141,-166,186,249,191,-129,167,1,72,458,315,163,218,-323,180,57
164990,168,194,69,69,393,577,70,391,202,141,361,-339,145,382,405,330,223,-141,199,278,169,-192,202,24,99,439,306,198,241,-319,181,10
164991,159,192,92,57,397,554,20,404,203,125,342,-330,140,377,414,324,175,-123,209,287,174,-159,216,39,112,463,277,197,251,-305,192,105
164992,182,240,91,76,411,576,56,427,215,157,361,-290,147,387,447,306,221,-114,233,308,188,-120,269,77,136,504,292,241,286,-257,231,137
164993,185,254,86,55,410,589,68,430,196,147,370,-309,141,384,438,285,195,-108,222,297,178,-132,333,81,117,492,260,249,333,-251,210,91
164994,177,236,71,53,400,593,58,424,185,136,384,-346,112,376,441,320,163,-135,190,267,196,-142,265,55,106,472,253,235,287,-265,208,75
164995,174,228,48,52,404,583,50,425,181,132,371,-346,105,361,441,364,149,-153,178,274,181,-129,232,20,84,455,266,155,203,-328,157,61
164996,200,250,56,70,419,616,54,437,204,142,391,-330,115,378,473,360,174,-201,194,288,183,-117,231,6,81,426,260,96,171,-386,119,46
164997,212,235,90,89,402,589,51,445,196,132,363,-371,126,359,415,414,165,-187,177,247,136,-142,187,-6,71,383,226,164,178,-389,72,-20
164998,177,238,87,84,400,571,46,447,208,110,352,-372,137,371,377,388,125,-132,182,246,102,-156,214,11,49,376,190,109,198,-366,40,-71
164999,173,248,82,72,400,597,40,426,189,140,353,-350,129,397,404,254,92,-148,170,255,151,-177,229,7,47,375,182,20,171,-385,25,-103
165000,156,215,32,48,388,584,-1,405,178,138,361,-381,117,377,411,226,3,-169,163,255,136,-185,169,-3,48,359,187,-25,133,-405,46,-83
165001,94,161,-21,6,368,559,-18,379,156,114,340,-417,91,361,389,206,8,-218,162,227,104,-212,103,-19,12,333,153,-26,115,-416,26,-95
165002,76,150,-62,-13,364,574,16,347,148,111,321,-407,82,371,389,242,51,-183,184,239,105,-225,145,-4,22,310,104,-45,72,-480,-42,-104
165003,94,162,-22,19,370,595,-5,344,162,132,335,-406,79,360,404,295,44,-187,195,244,92,-219,91,-16,44,329,131,11,87,-483,-45,-116
165004,118,159,28,23,359,582,-5,341,151,130,327,-392,87,376,391,281,28,-172,198,217,60,-184,103,-1,30,331,113,23,112,-462,-31,-157
165005,120,166,2,15,362,580,5,333,184,121,323,-377,83,375,361,248,17,-147,198,222,35,-155,130,16,22,321,59,14,141,-434,5,-93
165006,112,149,-5,0,355,572,-38,325,174,87,307,-401,76,345,346,226,-45,-145,159,197,31,-179,134,2,11,293,113,-60,117,-439,-8,-129
165007,101,137,-20,10,338,546,-56,323,158,75,274,-395,98,346,352,175,-42,-148,166,171,-2,-215,150,4,7,277,70,-43,169,-437,8,-121
165008,91,181,-13,34,351,548,-50,373,181,74,292,-405,139,373,373,105,-5,-156,234,190,32,-221,142,30,20,303,91,31,217,-399,43,-129
165009,93,166,-40,53,371,535,-76,342,185,90,274,-420,136,381,360,-13,-22,-161,232,213,48,-173,118,46,36,324,131,8,176,-384,69,-135
165010,118,160,13,78,397,534,-56,384,202,103,258,-396,149,382,330,134,-1,-130,227,212,42,-175,152,43,33,309,110,-32,171,-403,66,-90
165011,98,146,-31,63,363,524,-63,386,201,87,234,-373,145,375,319,168,8,-121,218,193,64,-182,157,52,30,308,107,10,213,-408,31,-130
165012,84,133,-20,40,359,510,-92,405,194,64,226,-365,146,352,307,131,3,-132,217,196,38,-227,142,56,34,314,85,16,202,-425,19,-112
165013,91,152,-27,71,375,507,-84,414,206,68,227,-345,179,339,311,211,26,-113,230,214,36,-208,126,55,17,324,114,-39,154,-452,66,-54
165014,96,149,-31,98,369,506,-98,400,197,74,248,-330,185,341,304,238,6,-121,244,208,44,-227,139,50,5,312,124,-27,164,-456,37,-64
165015,97,152,-11,93,378,529,-69,448,218,94,268,-339,199,374,330,240,0,-115,248,219,65,-209,129,59,31,332,150,-35,172,-468,62,-66
165016,93,146,-36,64,393,536,-68,393,210,99,304,-361,182,400,375,280,14,-146,228,244,130,-201,132,43,66,376,169,-38,182,-430,84,-105
165017,62,121,-58,32,378,542,-35,362,199,108,308,-398,133,367,360,231,-64,-189,210,247,110,-243,95,24,53,368,140,-51,197,-430,65,-93
165018,79,108,-48,47,381,531,-91,387,191,102,258,-372,144,363,346,177,-22,-154,209,246,74,-212,141,56,73,370,113,27,242,-402,88,-67
165019,75,108,-42,48,389,540,-99,424,202,111,255,-368,162,362,357,180,3,-190,208,246,87,-240,196,63,87,375,127,45,278,-389,104,-117
165020,48,99,-69,47,380,531,-69,442,211,130,276,-372,155,346,344,188,-20,-196,202,251,98,-307,157,51,82,362,136,-73,236,-399,105,-146
