,Fp1,Fp2,F7,F3,Fz,F4,F8,FC5,FC1,FC2,FC6,T7,C3,Cz,C4,T8,TP9,CP5,CP1,CP2,CP6,TP10,P7,P3,Pz,P4,P8,PO9,O1,Oz,O2,PO10
122708,-207,-303,-576,-240,-23,547,30,-219,6,-19,144,-124,435,53,145,-166,-481,273,-13,294,41,-142,236,274,289,236,224,-87,-72,-116,401,99
122709,-223,-301,-512,-264,0,551,25,-188,26,-3,113,-137,467,83,143,-188,-473,303,38,315,61,-181,280,304,334,279,236,28,-8,-60,475,215
122710,-242,-249,-480,-308,-3,497,-34,-191,26,15,91,-134,492,84,121,-142,-475,320,50,308,64,-169,226,331,336,298,237,-71,-9,-51,519,246
122711,-257,-183,-530,-375,-14,446,-19,-166,19,20,125,-63,475,113,134,-93,-456,343,29,305,67,-224,264,351,326,278,254,-32,-19,-58,464,237
122712,-280,-157,-517,-359,-17,409,21,-181,25,10,166,96,446,118,147,-87,-415,330,54,305,98,-267,350,399,354,298,295,174,38,-1,474,247
122713,-350,-310,-518,-331,-20,398,24,-209,32,10,153,66,457,108,117,-55,-501,354,45,315,132,-303,350,391,351,315,362,137,49,-30,506,233
122714,-398,-296,-545,-292,-27,388,8,-216,56,-16,82,-63,492,98,87,-91,-515,360,23,314,114,-356,376,399,335,279,319,201,64,-41,515,213
122715,-310,-196,-543,-346,-44,369,-47,-226,50,-23,99,-86,474,108,99,-160,-424,357,36,294,98,-370,351,379,348,270,240,31,42,-41,514,230
122716,-245,-153,-556,-375,-60,401,-78,-269,13,-25,59,-145,418,83,103,-284,-593,310,4,253,42,-419,173,301,299,234,171,-138,-10,-34,498,217
122717,-215,-68,-534,-363,-40,421,-9,-309,22,-16,87,-209,448,110,111,-219,-627,310,0,278,43,-314,86,268,301,240,213,-246,-53,-69,521,225
122718,-148,-97,-522,-378,-57,426,-35,-276,17,-14,110,-157,450,90,95,-219,-560,319,7,272,35,-297,98,244,275,226,221,-239,-108,-109,481,266
122719,-133,-186,-508,-415,-46,420,-176,-282,24,-12,109,-162,481,94,86,-231,-561,329,7,261,31,-320,110,266,309,253,252,-260,-99,-139,506,313
122720,-136,-199,-535,-385,-28,415,-191,-239,49,-27,90,-147,502,105,67,-191,-657,344,28,270,55,-348,166,311,330,255,284,-184,-71,-120,542,268
122721,-210,-220,-587,-359,-36,390,-191,-221,43,-44,60,-128,526,120,70,-294,-671,416,57,265,29,-392,225,335,353,250,249,-93,-14,-36,569,296
122722,-233,-252,-558,-357,-55,328,-171,-203,59,-40,29,-153,540,131,61,-411,-433,468,53,264,0,-329,214,340,359,255,247,-136,22,8,584,376
122723,-210,-248,-532,-351,-41,342,-112,-227,54,-27,48,-78,509,127,69,-327,-405,354,57,282,18,-373,209,335,326,270,288,-112,3,-7,585,318
122724,-251,-298,-627,-348,-46,385,-102,-197,53,-30,45,-98,496,122,83,-262,-445,329,59,298,66,-385,202,308,330,287,422,-93,-35,-13,604,264
122725,-252,-275,-621,-302,-40,401,-98,-146,59,-28,56,-138,526,120,95,-250,-498,385,55,298,71,-218,216,324,348,316,483,-50,-1,6,671,353
122726,-220,-244,-605,-326,-30,465,-164,-152,61,-19,88,-157,510,122,102,-224,-505,387,62,268,37,-250,234,313,333,298,412,24,-27,-13,608,350
122727,-232,-248,-584,-329,-49,458,-206,-195,41,-19,72,-293,504,96,79,-205,-506,380,23,231,19,-411,199,273,301,253,274,-132,-101,-42,545,289
122728,-237,-289,-563,-354,-55,405,-200,-230,38,-39,46,-357,495,77,48,-196,-496,372,-18,239,8,-376,168,281,293,231,206,-84,-28,-3,604,341
122729,-229,-296,-511,-337,-34,374,-197,-186,52,-57,64,-321,501,81,30,-224,-511,424,-4,234,0,-356,154,332,300,259,236,-12,4,3,614,346
122730,-201,-325,-446,-303,-33,405,-144,-190,69,-35,84,-219,528,92,73,-232,-495,537,40,248,7,-306,127,355,322,273,261,-57,-3,13,673,420
122731,-240,-341,-489,-317,-43,403,-132,-214,47,-28,69,-181,501,103,94,-237,-500,354,24,270,7,-267,274,344,340,272,276,-15,45,88,785,620
122732,-329,-345,-588,-308,-33,405,-164,-201,56,-25,91,-30,510,104,87,-239,-548,343,43,305,46,-283,368,360,366,300,392,62,122,193,915,827
122733,-322,-312,-604,-277,-47,391,-113,-238,83,-29,112,-9,509,120,120,-197,-491,419,54,305,57,-310,392,395,361,313,327,46,115,117,790,641
122734,-278,-323,-528,-245,-37,399,-125,-232,54,-50,112,-126,501,99,77,-242,-436,422,34,248,-37,-346,304,381,301,229,116,29,35,-62,468,124
122735,-267,-357,-484,-260,-29,464,-153,-169,59,-37,52,-144,518,93,51,-246,-435,426,16,235,-95,-387,255,375,282,185,32,76,-13,-131,329,-211
122736,-273,-362,-480,-309,-32,462,-198,-227,45,-45,33,-150,516,92,71,-202,-399,423,32,269,-7,-412,309,392,328,250,205,175,77,-9,535,104
122737,-186,-279,-414,-307,-19,479,-169,-201,49,-43,57,-126,509,98,63,-191,-415,445,50,251,11,-380,332,372,324,244,271,95,60,-5,593,245
122738,-133,-205,-384,-295,-15,427,-153,-151,47,-73,18,-66,516,75,29,-242,-513,453,28,207,-38,-344,346,342,281,182,206,-6,-17,-93,432,102
122739,-162,-198,-399,-287,2,353,-157,-182,53,-65,-13,-47,517,77,39,-228,-411,452,5,212,-25,-444,327,368,282,190,202,2,16,-54,426,145
122740,-232,-276,-426,-279,-17,351,-156,-201,58,-85,17,-80,495,76,23,-158,-369,414,3,208,2,-451,283,371,268,184,217,8,0,-81,521,287
122741,-218,-317,-443,-281,-41,336,-197,-183,43,-87,22,-131,502,76,34,-147,-262,373,27,205,9,-345,288,334,251,179,235,-7,-63,-149,466,270
122742,-187,-384,-435,-264,-47,327,-175,-189,53,-64,29,-183,487,65,29,-178,-205,394,0,216,7,-315,332,339,255,182,230,65,-32,-124,419,144
122743,-182,-340,-442,-271,-32,373,-165,-171,51,-60,51,-187,512,74,51,-193,-245,402,4,205,-9,-364,324,357,249,183,211,42,-11,-63,402,118
122744,-234,-277,-468,-275,-39,382,-139,-176,51,-52,71,-179,512,78,66,-229,-256,398,7,185,-34,-355,233,334,250,166,186,-41,-67,-114,408,177
122745,-274,-266,-429,-248,-28,365,-126,-188,62,-51,65,-124,502,93,37,-221,-330,443,0,207,-32,-232,235,347,250,130,205,-50,-50,-122,421,161
122746,-228,-261,-426,-251,-30,349,-89,-225,59,-38,55,12,502,87,43,-298,-281,489,-14,196,-3,-262,278,361,250,141,260,83,-17,-94,467,206
122747,-284,-298,-452,-299,-68,400,-113,-234,44,-43,47,64,473,66,46,-272,-241,421,-9,174,-7,-346,331,341,260,145,225,129,-1,-74,503,312
122748,-269,-248,-441,-249,-70,451,-118,-216,43,-39,47,-60,506,73,56,-209,-328,379,3,207,7,-401,353,314,267,180,237,87,29,-23,544,283
122749,-225,-205,-459,-245,-59,469,-109,-223,67,-36,104,-162,534,66,66,-198,-399,377,21,208,18,-425,388,327,254,180,260,69,35,-25,547,210
122750,-158,-187,-438,-243,-50,449,-127,-122,64,-37,128,-160,539,71,50,-148,-462,496,6,202,-20,-266,331,331,231,163,200,-7,-21,-72,492,227
122751,-102,-160,-437,-246,-74,354,-133,-157,50,-57,120,-180,499,40,38,-217,-453,390,-37,205,-36,-253,255,298,230,147,208,-102,-48,-68,522,355
122752,-73,-172,-426,-252,-44,403,-154,-154,35,-47,159,-293,507,39,64,-233,-543,328,-54,198,-13,-328,199,288,238,169,245,-199,-89,-60,576,462
122753,-132,-178,-458,-243,-31,433,-200,-150,54,-18,130,-152,523,68,92,-162,-443,385,-6,252,46,-209,238,281,291,234,297,-85,18,54,671,626
122754,-183,-205,-507,-268,-49,401,-191,-157,41,-26,29,-73,524,61,65,-128,-310,409,29,259,52,-189,331,316,312,266,350,133,143,165,790,677
122755,-200,-177,-456,-238,-41,439,-74,-114,61,2,91,-12,531,90,99,-25,-284,477,12,289,101,-141,294,370,332,305,459,188,180,216,843,596
122756,-234,-208,-460,-280,-15,491,-45,-171,58,5,102,-33,532,96,99,-18,-296,522,5,294,97,-108,274,338,343,311,494,164,155,201,859,644
122757,-233,-247,-525,-281,-22,502,-77,-231,21,-11,61,-118,444,52,86,-50,-320,268,-66,212,32,-170,257,258,253,196,291,70,-1,-69,468,235
122758,-260,-307,-596,-281,-41,496,-89,-241,15,-29,78,-186,407,47,67,-70,-387,260,-75,173,1,-192,188,231,194,135,113,-89,-149,-334,181,36
122759,-267,-323,-533,-284,-35,529,-90,-283,25,0,112,-87,419,61,73,-64,-536,293,-72,186,10,-253,147,247,205,180,182,-171,-132,-251,278,107
122760,-245,-260,-481,-280,-10,587,-21,-273,41,31,174,-54,431,64,121,-39,-396,287,-69,206,61,-222,175,227,208,212,217,-120,-125,-263,194,-13
122761,-270,-226,-503,-267,-25,582,1,-245,12,14,102,-209,425,48,93,-120,-362,236,-80,212,47,-216,114,192,200,186,195,-202,-168,-216,319,123
122762,-294,-190,-515,-292,-5,608,-14,-236,22,24,123,-233,463,77,104,-255,-351,297,-44,224,26,-149,210,254,259,215,227,35,-56,-116,463,273
122763,-257,-156,-444,-274,0,587,-41,-231,65,27,141,-176,478,88,131,-250,-311,380,-19,240,43,-76,289,290,288,235,225,106,-25,-83,461,232
122764,-173,-144,-409,-262,-6,477,-63,-229,52,6,94,-191,481,75,135,-151,-496,350,-24,237,27,-108,215,249,276,244,236,-121,-75,-85,443,198
122765,-125,-147,-408,-254,-12,426,-31,-216,37,2,115,-201,496,71,102,-114,-458,341,-21,246,19,-161,198,246,242,232,158,-132,-109,-170,357,67
122766,-71,-118,-405,-250,0,407,-12,-196,83,10,152,-123,493,94,121,-54,-454,384,-19,285,53,-77,253,274,279,264,170,-151,-129,-159,411,165
122767,-112,-154,-419,-295,6,398,-78,-187,77,-14,106,-92,479,81,116,-56,-505,390,-33,273,40,-83,357,274,275,254,179,-121,-125,-147,443,249
122768,-234,-148,-434,-285,-18,412,-81,-193,54,-28,108,-151,459,61,100,-83,-485,372,-48,253,26,-150,357,291,260,235,181,-165,-89,-123,505,272
122769,-362,-150,-460,-268,-26,450,-7,-254,56,-1,98,-18,447,63,100,4,-614,356,-41,274,85,-201,305,289,276,244,250,-139,-80,-107,526,312
122770,-405,-250,-480,-269,-28,472,2,-247,58,1,112,-8,466,80,126,-3,-569,362,-15,294,105,-224,274,284,269,269,284,-106,-72,-104,553,285
122771,-319,-280,-488,-232,-43,453,16,-201,67,-10,82,-184,505,76,106,-1,-486,394,-23,280,111,-238,271,291,272,276,311,-72,-27,-67,544,286
122772,-222,-267,-458,-236,-35,487,86,-210,48,-1,102,-241,500,80,131,42,-415,336,-38,275,119,-268,242,271,274,292,317,-110,-83,-104,502,255
122773,-178,-334,-468,-235,-33,499,9,-224,59,22,115,-311,500,89,154,-6,-379,310,-24,297,143,-302,235,268,289,327,339,-241,-93,-107,476,241
122774,-168,-268,-455,-218,-28,516,29,-252,67,33,153,-370,501,98,177,-34,-385,326,-14,311,165,-297,205,287,317,338,385,-128,-30,-61,579,267
122775,-182,-237,-455,-282,-34,488,-16,-257,54,21,161,-368,500,84,152,-101,-385,312,-11,293,134,-256,178,310,288,293,319,-28,-33,-88,514,261
122776,-154,-256,-413,-249,-17,465,-58,-239,68,-1,158,-285,477,84,121,-65,-332,317,-12,279,118,-337,191,318,285,258,259,-54,-33,-159,396,176
122777,-131,-229,-364,-247,-36,414,-53,-197,75,-5,147,-248,488,92,148,-56,-335,378,23,281,107,-303,272,340,307,280,282,21,27,-100,393,198
122778,-143,-201,-358,-271,-46,339,-58,-179,43,-25,104,-184,503,65,144,-24,-536,384,32,293,87,-213,249,338,315,302,317,-26,58,-62,464,202
122779,-179,-267,-378,-309,-38,355,-137,-187,46,-17,54,-210,475,68,125,-46,-316,374,14,312,64,-174,266,339,323,284,244,71,63,-34,496,249
122780,-196,-216,-397,-305,-27,383,-140,-199,46,2,64,-142,480,99,109,-128,-172,352,3,311,50,-143,274,346,324,279,249,4,-12,-89,463,347
122781,-196,-187,-410,-263,-34,336,-109,-149,55,-10,65,-128,519,99,115,-203,-207,354,28,288,54,-151,307,340,314,304,305,-26,7,-74,511,292
122782,-228,-225,-440,-237,-31,397,-117,-132,70,-3,78,-167,535,90,146,-126,-194,396,44,320,88,-112,288,345,339,317,314,39,52,-37,551,275
122783,-217,-234,-444,-265,-31,440,-73,-151,80,10,154,-111,553,105,173,-66,-214,527,50,354,84,-102,255,374,344,306,299,80,67,-24,562,322
122784,-229,-249,-419,-257,-48,435,-78,-185,73,9,117,-85,526,111,159,-38,-176,352,49,347,74,-138,399,392,358,319,285,301,123,34,589,443
122785,-242,-335,-431,-222,-38,454,-159,-177,90,6,91,-59,592,119,165,13,-85,417,82,351,75,-166,469,432,384,298,255,427,126,30,574,362
122786,-291,-388,-506,-262,-31,477,-152,-185,116,17,99,-82,625,128,180,57,-187,513,110,365,125,-212,410,455,403,343,301,260,183,86,620,390
122787,-289,-365,-509,-239,-25,515,-131,-175,98,28,119,-103,608,132,204,-1,-398,485,103,376,158,-95,303,422,404,408,410,86,153,95,708,563
122788,-330,-374,-510,-249,-58,489,-85,-220,45,-6,72,-151,544,94,195,-40,-503,373,41,347,142,-128,224,354,360,394,454,-33,67,54,757,688
122789,-329,-347,-508,-252,-46,500,-53,-221,59,0,66,-211,542,118,187,52,-374,361,42,349,177,-173,305,373,383,390,434,-72,83,83,768,659
122790,-278,-246,-498,-251,-28,509,-32,-186,67,13,169,-168,580,130,194,-9,-336,396,45,345,169,-161,327,366,374,384,417,-107,41,49,740,437
122791,-244,-193,-466,-247,-36,459,-22,-175,71,-1,147,-101,548,126,188,5,-306,396,81,367,170,-153,255,353,399,425,494,-92,21,58,804,572
122792,-198,-175,-388,-255,-29,472,-39,-175,87,5,146,-47,575,149,179,70,-186,432,109,389,165,-134,326,407,434,412,456,186,107,84,734,504
122793,-174,-166,-350,-298,-39,461,-29,-189,75,24,150,-89,576,146,205,100,-202,413,97,365,168,-139,334,422,432,428,455,217,122,95,724,581
122794,-175,-163,-358,-268,-44,402,-27,-207,83,19,148,-80,566,149,202,67,-251,409,86,350,158,16,275,387,425,406,446,17,38,-26,611,452
122795,-183,-120,-326,-241,-48,393,-3,-261,62,3,146,-16,567,141,183,38,-192,394,89,351,152,25,282,352,384,376,410,-10,-13,-67,500,319
122796,-264,-89,-323,-226,-45,425,3,-241,71,10,171,-64,572,145,196,35,-194,422,96,367,168,-60,304,371,423,419,505,115,76,49,652,556
122797,-313,-133,-330,-221,-35,434,34,-214,71,7,225,-94,579,145,195,43,-206,449,142,363,175,-79,364,396,419,434,523,271,156,73,656,533
122798,-305,-166,-350,-211,-24,430,21,-200,73,6,239,-109,611,121,196,-4,-223,466,113,366,192,-159,376,396,393,422,559,238,117,8,531,261
122799,-229,-171,-354,-213,-18,445,64,-194,74,25,218,-136,613,145,215,37,-296,455,87,383,239,-151,318,357,383,442,648,13,15,-63,519,244
122800,-261,-194,-398,-222,-43,432,66,-219,68,25,228,-161,596,155,218,62,-362,418,74,385,265,-203,324,363,383,429,561,-90,-15,-60,478,246
122801,-287,-203,-424,-252,-72,432,47,-226,48,8,251,-151,541,127,228,27,-552,362,64,376,229,-229,323,338,362,427,486,-143,-84,-122,430,140
122802,-215,-175,-349,-211,-59,481,53,-178,48,4,241,-121,560,125,205,-22,-586,371,50,352,181,-124,308,297,341,424,376,-133,-109,-123,419,177
122803,-166,-153,-303,-215,-55,494,43,-171,55,15,215,-211,599,125,198,-13,-283,442,33,332,115,-184,245,243,308,317,215,-163,-99,-120,369,156
122804,-146,-132,-322,-243,-41,529,57,-148,59,1,193,-270,591,119,193,-99,-194,369,42,333,97,-203,300,294,335,294,227,-31,-13,-60,496,350
122805,-123,-163,-311,-267,-37,532,38,-123,59,25,201,-311,594,145,204,-214,-301,357,50,367,121,-156,314,356,361,347,351,23,64,35,655,542
122806,-171,-237,-291,-326,-62,434,-2,-174,40,21,173,-247,594,146,175,-144,-275,415,46,372,127,-233,321,366,360,357,365,82,84,43,668,571
122807,-159,-194,-275,-320,-55,397,8,-202,40,13,154,-127,601,147,178,-38,-263,442,34,385,143,-225,290,322,360,357,288,-80,34,2,596,470
122808,-181,-145,-303,-306,-56,403,-1,-195,49,5,108,-30,543,133,159,-23,-358,377,5,362,112,-186,172,243,325,356,256,-258,-41,-31,574,301
122809,-123,-171,-311,-273,-52,482,-56,-169,62,28,110,-68,556,135,169,-28,-370,396,2,369,111,-165,216,258,337,343,275,-147,0,-46,593,249
122810,-136,-225,-371,-294,-49,476,-28,-174,37,15,113,-147,539,123,151,-36,-268,380,-2,328,68,-104,235,242,297,230,177,-92,-98,-264,283,96
122811,-242,-299,-421,-315,-70,462,-30,-217,43,0,136,-170,535,118,137,-36,-218,438,14,315,67,-159,176,250,286,241,154,-9,-79,-268,270,142
122812,-265,-301,-385,-315,-39,461,-29,-177,80,23,162,-137,585,141,180,-51,-233,508,56,346,132,-151,202,259,349,337,288,-6,23,-31,612,507
122813,-212,-288,-340,-267,-45,461,-29,-137,88,25,157,-83,579,171,206,-49,-136,370,93,378,165,-138,400,340,384,375,385,242,107,85,708,607
122814,-250,-364,-343,-243,-76,458,-92,-138,76,16,170,-74,607,151,201,-103,-128,463,98,382,141,-265,511,416,393,369,310,583,248,107,634,467
122815,-267,-307,-323,-228,-74,485,-117,-169,59,9,194,-51,591,138,203,-147,-161,530,83,362,168,-411,483,422,360,307,257,501,196,-27,434,112
122816,-268,-250,-302,-177,-70,518,-113,-99,67,11,241,-76,606,141,229,-89,-304,479,96,377,212,-278,340,379,368,345,405,-45,84,-42,564,341
122817,-269,-187,-297,-188,-61,500,-44,-127,78,21,246,-109,613,152,239,7,-371,469,86,395,217,-136,319,365,374,370,483,-236,34,-38,646,593
122818,-238,-135,-277,-198,-58,441,-59,-188,76,21,201,-61,574,124,206,-9,-432,462,42,366,182,-111,320,351,341,353,443,-159,6,-53,546,397
122819,-206,-118,-265,-205,-37,385,-86,-242,45,14,211,125,563,127,183,4,-287,499,73,345,169,-163,394,380,341,352,403,-58,23,-61,450,227
122820,-202,-120,-250,-218,-15,431,-69,-232,68,24,223,189,582,152,188,75,-223,486,80,353,203,-233,413,347,339,376,359,-122,26,-64,466,255
122821,-170,-133,-238,-229,-44,438,22,-179,56,9,203,-13,591,121,157,77,-355,428,51,322,179,-240,287,322,327,332,368,-105,20,-86,509,273
122822,-190,-152,-223,-221,-57,451,43,-143,72,2,220,-108,619,121,154,-7,-204,434,19,310,170,-87,305,341,345,328,406,-45,24,-86,530,292
122823,-179,-148,-271,-234,-42,476,70,-124,89,9,209,-124,637,136,216,20,-8,483,41,320,183,-58,380,377,360,367,400,69,76,-60,534,310
122824,-198,-177,-269,-238,-44,495,91,-131,83,7,216,-153,592,118,192,37,-138,479,45,320,205,-110,394,341,348,371,403,67,74,-51,529,254
122825,-203,-205,-274,-268,-42,525,94,-168,72,39,228,-131,560,110,189,19,-268,480,46,324,185,-122,395,339,348,365,376,48,82,-10,633,337
122826,-233,-162,-320,-232,-50,503,71,-168,57,37,222,-135,568,111,177,21,-375,459,0,307,135,-235,381,295,311,331,360,0,35,5,606,426
122827,-229,-203,-363,-181,-47,502,63,-178,68,27,211,-148,563,127,152,0,-398,455,-11,307,150,-226,409,313,312,316,327,-13,40,-14,601,373
122828,-216,-148,-338,-199,-51,446,111,-239,50,27,226,-208,532,131,188,-28,-299,430,4,332,174,-220,387,290,304,316,334,-11,30,-122,451,169
122829,-255,-134,-319,-211,-84,425,85,-280,47,13,216,-218,505,115,180,-91,-270,420,19,339,165,-199,414,302,310,330,378,22,45,-109,415,177
122830,-217,-106,-251,-198,-60,449,56,-263,47,18,164,-138,531,133,98,-106,-352,440,23,315,130,-178,419,318,341,292,334,146,85,-17,492,245
122831,-240,-132,-261,-207,-49,406,13,-235,56,-1,170,-150,539,134,119,-102,-436,433,13,319,113,-225,380,310,335,282,240,124,106,46,566,296
122832,-315,-199,-310,-284,-76,364,-64,-230,45,-11,157,-194,512,119,123,-133,-371,376,-8,317,94,-350,299,292,306,277,203,26,87,24,576,328
122833,-239,-204,-304,-245,-68,354,-99,-215,58,4,151,-178,524,134,142,-133,-330,467,2,343,162,-351,291,295,330,328,330,-84,44,-48,526,286
122834,-217,-226,-249,-235,-61,377,-94,-210,71,12,162,-153,525,137,154,-111,-310,413,18,353,148,-248,310,283,347,345,373,-103,-10,-66,507,246
122835,-148,-233,-213,-272,-53,338,-45,-171,63,5,145,-109,532,153,159,-70,-226,398,26,350,163,-252,295,300,360,346,297,-41,13,-33,555,282
122836,-160,-212,-239,-281,-65,335,-69,-189,63,1,96,-107,561,159,146,-52,-266,429,39,367,139,-277,311,311,360,320,255,-27,27,-7,600,338
122837,-243,-261,-312,-297,-97,320,-89,-254,48,-24,56,-155,533,142,126,-45,-338,414,0,366,117,-319,274,275,355,331,356,-43,15,-12,555,383
122838,-253,-271,-390,-292,-82,346,-118,-246,39,-30,74,-122,522,125,142,-75,-286,416,-11,356,131,-391,268,259,340,336,354,9,55,-13,541,299
122839,-286,-250,-433,-262,-51,396,-98,-207,66,0,102,-169,592,138,183,-71,-357,586,18,361,150,-390,226,307,357,369,384,50,91,10,563,227
122840,-366,-257,-461,-314,-74,371,-100,-281,29,-5,91,-238,524,129,173,-87,-382,429,17,346,141,-388,276,289,361,382,372,31,66,-15,545,235
122841,-394,-288,-461,-319,-40,354,-102,-303,30,0,89,-220,505,123,162,-125,-298,291,23,345,116,-355,339,303,378,362,295,72,120,31,553,358
122842,-355,-310,-433,-306,-52,393,-53,-283,49,10,143,-223,523,162,165,-123,-326,344,24,355,127,-293,265,304,386,330,253,34,112,37,560,360
122843,-337,-266,-427,-329,-61,407,-19,-320,56,33,149,-94,494,176,171,-177,-500,367,30,363,126,-273,257,299,389,309,274,-23,108,13,589,392
122844,-284,-274,-364,-307,-51,413,-21,-283,65,33,79,-17,519,169,167,-302,-485,392,47,372,102,-244,250,331,394,309,263,-93,75,3,565,391
122845,-299,-321,-324,-296,-71,399,-30,-243,55,7,123,-200,512,149,145,-270,-396,354,40,353,97,-237,223,327,377,331,259,-127,65,-20,562,372
122846,-264,-309,-277,-267,-58,401,-8,-273,60,22,186,-165,532,158,188,-179,-402,362,34,354,135,-184,269,359,398,363,320,-76,100,21,593,407
122847,-257,-278,-303,-283,-63,382,12,-264,67,36,205,-159,565,173,217,-223,-350,376,71,386,149,-185,355,403,428,367,367,-2,157,56,625,411
122848,-358,-272,-321,-325,-99,397,-37,-298,49,31,205,-177,549,173,181,-190,-337,358,42,373,136,-234,355,381,405,355,403,12,149,34,609,422
122849,-336,-291,-316,-328,-95,449,-63,-360,51,22,152,-154,547,171,177,-14,-245,374,58,396,157,-249,410,419,403,393,507,99,190,65,648,444
122850,-266,-284,-261,-296,-72,425,-41,-317,66,35,158,-195,583,172,203,-15,-181,418,104,402,180,-184,440,423,441,381,445,180,206,72,616,334
122851,-266,-410,-290,-308,-79,454,-70,-246,55,46,150,-220,555,173,174,-38,-243,460,79,381,156,-214,434,407,435,364,404,324,217,90,660,265
122852,-296,-533,-391,-322,-85,494,-132,-240,72,34,184,-220,591,169,163,-35,-249,474,101,381,173,-251,432,427,427,381,389,366,267,133,714,332
122853,-364,-477,-373,-259,-61,447,-62,-259,72,31,189,-255,579,186,167,4,-204,474,110,362,176,-195,386,432,429,370,347,144,227,134,699,409
122854,-358,-344,-342,-269,-74,379,-60,-251,60,18,167,-174,569,169,162,50,-263,443,78,362,132,-120,363,376,416,344,361,25,177,94,684,425
122855,-313,-238,-369,-231,-76,379,-35,-268,68,5,182,-117,568,161,177,42,-308,458,66,362,142,-230,435,377,419,345,314,42,159,63,655,373
122856,-248,-230,-275,-184,-61,415,-37,-240,77,36,202,-57,586,195,201,71,-331,524,84,383,197,-401,489,425,417,396,378,32,139,91,678,431
122857,-202,-191,-251,-248,-63,416,-14,-234,66,28,221,-40,570,195,205,116,-329,517,98,416,229,-328,489,380,426,432,526,-39,121,114,732,587
