,Fp1,Fp2,F7,F3,Fz,F4,F8,FC5,FC1,FC2,FC6,T7,C3,Cz,C4,T8,TP9,CP5,CP1,CP2,CP6,TP10,P7,P3,Pz,P4,P8,PO9,O1,Oz,O2,PO10
201087,-144,-147,125,12,-71,139,-223,232,90,33,86,25,227,-39,101,-24,318,-87,-31,-81,-39,423,218,55,78,116,316,-277,153,-182,-366,68
201088,-58,-170,90,-11,-71,133,-165,147,98,28,46,72,219,-35,107,-26,311,-89,-15,-77,-21,312,226,79,79,120,338,-247,161,-155,-363,49
201089,-99,-151,169,10,-82,43,-216,168,123,1,127,121,233,-6,95,-20,358,-63,-6,-73,-29,303,261,93,123,175,383,-200,218,-85,-244,186
201090,-247,-142,37,-29,-81,-110,-232,201,115,15,38,132,252,-7,98,14,367,-51,-2,-62,-5,348,267,117,131,199,445,-170,226,-34,-165,391
201091,-199,-111,-26,5,-81,44,-262,197,81,38,79,72,229,-33,94,7,291,-103,-43,-56,-22,391,221,73,112,175,423,-325,160,-52,-208,388
201092,-173,-111,25,22,-83,231,-330,112,103,32,144,63,218,-26,102,-4,245,-102,-34,-69,-36,316,262,66,103,147,356,-210,192,-96,-267,153
201093,-127,-209,104,0,-82,217,-373,58,90,75,142,127,203,-17,144,-81,345,-111,-41,-56,46,241,252,67,95,148,369,-209,187,-115,-336,27
201094,-81,-286,147,1,-93,74,-379,37,70,69,111,99,191,-20,144,-9,360,-144,-42,-63,96,281,192,29,64,168,401,-374,97,-155,-341,57
201095,-123,-329,135,-11,-96,157,-273,91,67,44,78,22,206,-34,94,140,357,-103,-63,-86,-127,371,237,50,60,134,332,-282,140,-138,-314,121
201096,-80,-288,168,42,-82,169,-300,110,85,45,77,30,223,-39,131,64,337,-49,-32,-40,-29,340,275,105,113,213,429,-180,231,-52,-201,276
201097,-43,-233,297,45,-77,135,-331,39,106,67,37,95,249,-3,151,50,323,-17,13,-30,49,387,289,145,161,251,457,-211,240,-13,-174,342
201098,-110,-225,274,2,-79,187,-274,133,115,58,112,67,277,0,139,76,320,-9,-3,-17,30,393,273,147,168,265,456,-166,285,23,-120,422
201099,-47,-276,213,27,-79,229,-234,155,122,57,116,83,289,-18,136,86,337,-6,-7,-9,22,285,299,147,169,248,445,-167,268,19,-114,405
201100,-3,-249,252,40,-50,205,-258,132,112,48,106,157,277,-28,126,83,380,15,23,-8,39,343,328,139,174,259,438,-154,263,18,-147,329
201101,-72,-213,286,70,-49,170,-223,183,117,67,56,283,296,-5,148,60,482,28,41,12,45,384,378,171,197,270,451,-57,311,26,-165,289
201102,-148,-244,258,56,-61,221,-176,172,112,62,80,247,314,3,147,79,450,49,42,9,32,412,435,206,200,262,449,222,432,54,-193,239
201103,-166,-256,174,53,-63,222,-149,159,101,62,91,102,299,17,175,139,411,35,56,21,85,517,479,230,236,293,524,344,544,180,-57,399
201104,-135,-210,189,52,-61,262,-117,147,106,52,56,120,287,-2,171,128,378,12,32,-14,53,412,302,150,183,248,474,-264,257,-23,-176,292
201105,-84,-178,215,65,-64,238,-166,165,103,44,69,142,263,-41,135,100,323,-47,-7,-68,5,332,175,42,79,176,382,-672,-40,-253,-340,148
201106,-83,-106,240,55,-54,116,-164,208,99,50,77,117,269,-35,122,49,337,-41,-20,-64,-30,329,201,38,74,121,299,-471,-1,-235,-379,-30
201107,-148,-182,266,111,-61,78,-186,294,114,33,59,98,293,-7,122,35,345,-21,4,-50,2,391,228,68,100,155,354,-318,138,-128,-315,80
201108,-171,-271,134,117,-76,74,-252,258,105,32,34,110,279,-16,107,15,350,-26,-4,-86,-24,307,248,76,88,144,358,-277,164,-140,-299,139
201109,-148,-245,129,44,-64,110,-243,220,107,41,60,69,265,-24,99,-1,267,-50,0,-70,-51,300,248,82,104,135,360,-293,150,-134,-269,218
201110,-128,-279,49,-2,-81,176,-219,183,109,65,110,66,257,-19,128,28,216,-104,0,-46,-27,398,258,77,94,160,396,-260,158,-116,-268,235
201111,-128,-360,80,-16,-94,248,-198,132,79,66,162,85,235,-38,114,-29,335,-112,-26,-68,-45,331,226,49,88,129,347,-294,119,-143,-302,127
201112,-131,-357,180,9,-99,229,-243,120,94,66,115,73,246,-11,112,-8,326,-42,-2,-60,-25,256,237,84,113,153,385,-281,168,-101,-251,230
201113,-111,-302,197,28,-106,216,-288,232,108,45,68,54,247,-24,95,17,308,-48,-14,-70,-52,260,236,98,107,156,370,-272,144,-125,-302,186
201114,-220,-268,92,7,-106,210,-345,259,91,51,105,150,244,-30,88,-38,329,-59,-23,-72,-64,308,270,88,95,108,300,-207,123,-177,-373,18
201115,-246,-263,44,-4,-109,144,-381,230,94,57,95,90,260,-16,95,-124,319,-47,-12,-77,-44,284,286,109,90,122,305,-76,186,-121,-305,77
201116,-216,-335,78,-14,-109,162,-439,275,95,55,75,-72,276,-23,106,-128,279,-44,-10,-76,-54,183,280,97,85,141,302,-38,194,-110,-303,145
201117,-98,-313,150,-22,-90,96,-424,192,64,52,128,-74,222,-43,106,-127,241,-101,-38,-69,-19,204,199,52,66,146,335,-347,89,-177,-317,222
201118,1,-241,57,-1,-71,32,-449,123,85,93,179,-57,204,-8,132,-100,225,-138,-45,-46,93,242,136,40,78,180,412,-582,44,-181,-284,300
201119,-77,-214,76,55,-80,-23,-489,171,117,96,180,-41,244,-14,104,66,215,-84,-11,-42,-70,187,193,69,76,171,342,-371,110,-162,-273,257
201120,-248,-165,44,55,-79,71,-266,122,98,32,20,-4,240,-44,71,15,187,-83,-24,-69,-182,200,176,51,68,119,264,-351,91,-183,-338,57
201121,-276,-211,83,-20,-88,84,-227,113,121,19,-61,40,252,-21,88,30,197,-104,-16,-50,-40,150,198,64,96,145,302,-304,131,-149,-321,-9
201122,-214,-296,84,-22,-83,186,-286,58,103,63,27,47,229,-11,114,8,223,-102,-17,-36,-22,138,213,89,101,189,354,-213,198,-83,-240,154
201123,-256,-438,39,21,-95,203,-282,5,70,51,-18,-60,192,-46,71,-53,164,-137,-47,-63,-59,220,154,47,70,165,315,-201,186,-98,-245,134
201124,-227,-375,29,18,-97,196,-297,30,71,34,-27,9,188,-34,38,-54,203,-179,-62,-93,-113,275,94,11,58,119,299,-403,64,-221,-342,138
201125,-172,-391,83,-11,-98,100,-375,69,59,36,-12,76,205,-18,70,-94,186,-147,-51,-70,-92,202,146,29,83,144,336,-250,140,-177,-296,174
201126,-198,-371,38,-12,-115,-3,-392,30,42,40,-33,13,205,-37,67,-109,200,-132,-56,-69,-93,141,221,46,63,119,277,-45,197,-146,-328,96
201127,-195,-351,48,-51,-123,-35,-369,27,62,33,-34,-109,230,-40,65,-127,178,-93,-36,-86,-134,133,217,78,92,103,204,-68,237,-131,-321,10
201128,-190,-295,28,-85,-84,104,-325,49,95,32,0,-91,223,-29,70,-96,227,-120,-51,-97,-120,199,97,19,56,97,222,-648,-74,-300,-393,41
201129,-162,-221,64,-11,-81,81,-308,99,83,39,14,-12,207,-30,68,-61,191,-144,-66,-97,-105,145,88,-13,48,91,263,-661,-81,-280,-387,70
201130,-121,-232,104,23,-69,172,-338,105,82,36,57,-43,198,-34,71,-76,14,-164,-56,-101,-130,161,92,0,39,95,246,-494,14,-227,-323,99
201131,-137,-266,107,-19,-63,167,-295,125,86,40,87,-69,205,-24,70,-46,207,-132,-58,-105,-129,264,127,0,16,55,223,-482,-53,-346,-476,-20
201132,-89,-264,123,9,-65,191,-290,86,90,59,43,-18,243,-17,99,-34,279,-86,-38,-93,-110,215,143,20,34,82,257,-518,-36,-330,-460,16
201133,-32,-322,109,-4,-76,238,-314,110,77,53,1,-36,260,-23,77,-76,233,-68,-41,-96,-122,128,142,25,44,95,262,-458,4,-265,-402,68
201134,-52,-357,93,-20,-97,205,-379,145,91,51,0,-40,238,-20,83,-101,206,-112,-44,-78,-122,183,150,27,60,105,271,-421,33,-237,-380,89
201135,-163,-410,86,-77,-148,102,-421,33,61,32,-31,-31,198,-28,53,-106,237,-148,-58,-82,-87,217,153,20,55,118,279,-393,31,-223,-343,139
201136,-161,-350,65,-72,-129,73,-365,18,70,37,16,-46,194,-30,68,-119,207,-156,-52,-79,-123,106,126,0,55,96,213,-387,20,-272,-420,55
201137,-142,-283,6,-32,-97,68,-366,114,101,73,40,15,226,-14,81,-155,212,-100,-16,-51,-118,82,177,69,99,144,238,-342,83,-213,-377,74
201138,-243,-324,42,7,-110,94,-364,43,85,67,67,9,228,-8,96,-123,188,-104,-15,-50,-91,105,173,92,129,161,256,-339,96,-197,-352,40
201139,-253,-292,86,29,-97,160,-350,-21,104,66,86,-40,227,12,101,-146,127,-116,-12,-54,-86,158,162,76,125,156,269,-350,106,-180,-338,64
201140,-221,-317,-72,84,-93,246,-497,91,92,71,44,-52,224,-6,103,-260,126,-106,-19,-28,-67,153,179,87,136,170,262,-299,130,-135,-299,117
201141,-213,-359,-90,79,-111,252,-630,230,81,67,29,72,212,-8,113,-319,110,-159,-9,-45,-38,23,120,53,126,163,262,-447,88,-185,-326,135
201142,-260,-359,-138,39,-107,191,-680,146,88,91,73,83,203,3,124,-328,96,-188,-16,-21,0,-3,129,81,140,166,272,-341,121,-171,-321,99
201143,-345,-381,-180,-16,-118,190,-634,122,66,66,76,-205,204,-23,110,-166,64,-160,-35,-28,-16,0,120,74,124,151,232,-300,125,-185,-360,-11
201144,-280,-323,-90,17,-112,101,-380,204,109,37,-34,-234,241,-20,46,46,48,-119,-22,-67,-224,115,138,77,97,126,186,-293,136,-191,-383,10
201145,-258,-426,-58,74,-98,50,-399,209,124,27,-73,-104,238,-18,53,-49,104,-102,-20,-70,-169,148,128,65,94,124,242,-401,79,-221,-367,85
201146,-213,-480,19,15,-95,110,-418,82,97,43,42,-88,195,-32,72,-122,166,-149,-32,-75,-107,196,149,45,87,155,289,-420,69,-208,-323,178
201147,-199,-434,68,-30,-74,-57,-428,48,94,41,77,-70,206,-26,70,-35,175,-115,-34,-64,-84,277,186,75,105,161,301,-341,132,-166,-313,140
201148,-200,-307,91,-104,-82,-50,-408,31,87,52,22,-22,210,-18,83,-25,233,-88,-7,-60,-73,194,210,101,127,153,295,-333,144,-149,-328,22
201149,-175,-294,128,-90,-92,120,-364,-11,74,63,35,-26,199,-28,85,-55,148,-85,-23,-70,-83,137,138,75,111,148,286,-416,137,-159,-335,61
201150,-152,-315,86,-71,-96,141,-302,7,70,64,15,1,202,-17,94,-40,118,-67,-17,-57,-76,189,191,90,117,182,299,-276,197,-103,-274,119
201151,-50,-241,24,-39,-75,202,-242,85,97,73,31,-4,236,12,111,17,235,-67,2,-16,-20,226,241,116,160,228,385,-191,238,-47,-222,246
201152,13,-246,69,-80,-95,150,-269,74,109,54,-18,40,231,-6,92,-2,280,-79,9,-34,-24,181,247,124,159,218,407,-161,251,-53,-224,214
201153,-29,-213,55,-53,-74,45,-238,39,109,38,-14,53,235,-11,83,-37,278,-97,1,-40,-46,194,271,122,148,203,363,-187,204,-97,-280,112
201154,-65,-221,51,-7,-72,91,-241,81,92,47,54,-28,238,-6,100,-30,249,-99,0,-38,-59,249,200,86,122,207,375,-371,142,-118,-256,260
201155,-149,-255,84,-6,-89,111,-376,137,79,69,17,-25,216,-6,102,0,279,-147,-11,-45,-57,325,189,61,101,168,370,-423,100,-170,-269,277
201156,-220,-309,116,2,-93,63,-356,133,101,41,-31,-37,208,-15,91,-28,222,-149,-15,-54,-68,289,154,55,97,174,356,-454,74,-171,-260,288
201157,-291,-313,80,-5,-78,159,-333,106,114,76,27,-118,234,-17,115,-91,188,-108,-19,-37,-76,245,131,54,95,155,301,-438,92,-176,-295,118
201158,-256,-309,81,-40,-84,97,-381,85,85,91,59,-47,221,-24,115,-203,203,-86,-28,-62,-92,150,129,50,86,108,238,-432,69,-214,-381,4
201159,-136,-425,38,-20,-102,-11,-428,-21,76,50,12,-35,202,-31,105,-194,41,-123,-45,-60,-113,155,107,14,65,97,247,-403,38,-241,-403,52
201160,-110,-421,74,1,-87,53,-484,-4,91,62,-13,22,210,-20,111,-121,100,-100,-17,-57,-129,172,153,29,59,108,252,-292,64,-239,-398,28
201161,-189,-349,37,-6,-88,109,-482,16,71,72,-36,6,218,-17,91,-94,172,-111,-28,-87,-120,196,187,59,60,101,277,-204,127,-179,-350,3
201162,-236,-298,38,-15,-83,225,-396,24,59,55,-1,-37,215,-49,74,-145,127,-155,-52,-82,-157,144,110,9,36,73,219,-413,43,-249,-445,-80
201163,-212,-342,18,8,-76,250,-423,102,81,37,-3,-48,207,-46,65,-176,162,-161,-68,-86,-166,108,121,15,36,80,200,-391,73,-225,-449,-120
201164,-215,-362,-41,-2,-67,239,-415,162,96,62,-18,-16,207,-46,85,-96,182,-159,-57,-86,-120,153,143,31,43,135,278,-303,122,-166,-375,-59
201165,-215,-279,-105,-82,-56,247,-386,128,100,66,51,-30,198,-44,86,-83,120,-171,-65,-91,-132,70,103,2,19,96,257,-448,22,-280,-439,-54
201166,-250,-308,-92,-125,-75,281,-378,143,97,51,4,-31,186,-45,74,-162,165,-180,-67,-76,-158,22,123,6,32,72,248,-408,32,-296,-472,-25
201167,-230,-353,-66,-98,-74,240,-399,252,90,78,2,-47,214,-30,84,-114,209,-137,-49,-82,-122,151,159,33,40,105,281,-363,66,-246,-418,45
201168,-45,-304,67,-9,-54,190,-458,273,93,73,37,15,238,-38,112,-100,213,-84,-37,-81,-108,70,188,53,55,136,285,-345,97,-216,-379,22
201169,34,-303,162,67,-51,156,-356,149,82,48,28,86,237,-32,99,-73,259,-50,-42,-72,-73,164,233,65,84,147,307,-285,126,-179,-364,73
201170,-25,-310,145,0,-80,127,-323,30,100,52,42,100,221,-46,99,-57,221,-66,-45,-47,-51,265,218,68,89,174,365,-301,128,-167,-349,130
201171,-126,-298,98,13,-71,134,-321,11,90,55,55,104,234,-24,141,-79,168,-107,-36,-57,0,257,228,57,96,174,390,-261,142,-153,-324,167
201172,-182,-309,3,-7,-78,208,-434,-6,96,44,40,33,229,-25,108,-236,213,-85,-26,-57,34,232,230,78,93,177,385,-157,190,-116,-289,195
201173,-185,-318,-90,-21,-92,145,-438,-33,80,55,89,-10,221,-29,109,-114,347,-53,-22,-50,19,189,265,87,102,170,372,-92,248,-98,-278,184
201174,-124,-379,0,-15,-108,-97,-346,47,86,16,-36,-5,213,-34,41,75,282,-80,-43,-89,-211,161,205,45,70,110,320,-349,125,-170,-287,300
201175,-236,-400,22,-68,-113,-183,-418,66,74,16,-60,-18,169,-41,57,-46,184,-142,-86,-103,-138,124,118,-30,43,98,326,-550,-56,-261,-363,243
201176,-289,-327,-13,-60,-107,3,-391,56,64,33,-3,-50,173,-38,78,-97,195,-129,-77,-86,-128,130,171,12,35,80,275,-341,56,-244,-433,102
201177,-309,-290,-10,-52,-107,151,-349,26,30,44,78,-59,156,-53,54,-102,131,-146,-96,-116,-164,122,161,1,10,51,237,-285,71,-214,-417,23
201178,-272,-346,77,-17,-85,241,-364,69,42,53,56,95,174,-33,70,-53,225,-109,-76,-89,-118,110,239,37,64,81,250,-170,145,-139,-341,7
201179,-228,-374,94,-34,-79,240,-371,132,78,60,-8,34,204,-49,65,-95,154,-92,-74,-101,-124,110,203,38,50,94,253,-201,126,-162,-361,-12
201180,-173,-328,57,-26,-79,255,-352,58,55,61,89,-34,170,-59,81,-94,97,-106,-84,-122,-128,163,152,11,6,87,270,-380,36,-283,-463,5
201181,-51,-278,53,19,-59,267,-357,-90,50,77,46,-11,141,-66,79,-50,160,-142,-106,-92,-101,199,98,-21,-1,86,307,-570,-61,-323,-457,36
201182,-51,-361,60,28,-78,215,-386,16,70,63,53,25,176,-58,70,-79,235,-104,-71,-78,-99,151,197,32,35,98,307,-330,85,-203,-385,84
201183,-2,-342,80,36,-87,128,-363,136,91,49,69,41,202,-28,95,-107,262,-58,-42,-64,-75,141,250,93,82,133,333,-213,170,-119,-302,185
201184,27,-294,78,27,-92,155,-351,109,110,40,48,15,226,-24,102,-109,266,-23,-33,-70,-61,138,255,98,76,150,353,-232,166,-116,-269,235
201185,-38,-252,79,6,-93,170,-375,93,85,43,36,5,240,-40,92,-151,285,-28,-57,-93,-73,188,201,67,57,138,347,-279,144,-143,-279,186
201186,-66,-199,105,-51,-63,140,-342,84,85,58,69,121,216,-21,116,-94,381,-104,-43,-64,-31,253,282,78,82,161,376,-178,182,-111,-274,163
201187,-149,-259,120,-49,-48,129,-260,60,84,76,139,86,191,-27,126,-12,344,-113,-45,-54,-19,206,290,88,86,175,383,-96,211,-83,-272,208
201188,-76,-285,167,39,-56,200,-355,64,71,67,165,0,183,-45,114,15,264,-96,-65,-101,-49,226,211,69,45,139,336,-224,123,-163,-349,94
201189,-60,-353,224,-6,-68,257,-393,135,79,75,126,36,199,-47,116,29,223,-59,-64,-87,-53,295,191,64,62,143,354,-303,112,-156,-322,113
201190,-108,-429,-2,-89,-98,269,-397,92,54,68,88,82,179,-66,86,21,251,-47,-73,-83,-58,297,225,43,65,140,354,-264,142,-140,-317,149
201191,-32,-340,73,-6,-72,150,-452,149,87,73,87,25,199,-46,92,25,215,-82,-66,-79,-62,212,230,61,62,138,351,-236,123,-138,-329,138
201192,-54,-260,98,-10,-78,-46,-418,168,74,28,59,33,190,-37,91,-32,283,-99,-54,-81,-67,193,253,68,60,137,338,-149,149,-140,-309,164
201193,-125,-312,-26,-50,-105,7,-469,106,50,26,11,-48,148,-62,71,-36,208,-143,-80,-67,-74,177,209,39,43,130,319,-42,180,-144,-337,125
201194,-138,-391,-36,-37,-102,75,-536,108,60,40,4,-65,144,-45,73,-45,73,-181,-87,-102,-106,117,124,-11,21,83,281,-220,81,-228,-399,52
201195,-108,-327,6,-15,-92,198,-455,159,77,45,118,-78,169,-53,74,-57,-9,-192,-91,-116,-102,226,22,-66,-27,73,283,-588,-82,-291,-398,136
201196,-95,-258,52,3,-94,153,-348,270,90,50,89,-119,189,-56,65,-62,117,-209,-98,-116,-100,228,30,-75,-17,74,293,-635,-97,-294,-391,156
201197,-174,-240,12,-11,-95,97,-292,279,91,26,14,-125,165,-64,59,-71,167,-189,-94,-97,-103,138,66,-56,-2,101,304,-576,-53,-286,-380,175
201198,-189,-335,103,7,-78,170,-354,190,108,36,37,-28,177,-54,71,-85,155,-153,-83,-97,-82,113,94,0,34,109,306,-429,28,-234,-356,186
201199,-182,-319,126,33,-79,181,-357,95,100,32,18,81,199,-30,67,-98,192,-128,-33,-75,-64,239,136,38,68,122,310,-348,100,-181,-338,144
201200,-98,-236,85,39,-101,95,-429,98,88,34,-33,41,209,-33,79,-47,255,-117,-37,-65,-55,316,170,37,60,139,313,-306,106,-177,-339,98
201201,-79,-223,89,15,-77,74,-334,173,104,70,-3,-63,239,-19,88,-128,217,-68,-20,-45,-77,163,154,59,117,135,276,-269,131,-144,-312,123
201202,-150,-227,8,24,-85,-10,-198,172,117,52,-30,-69,243,-5,117,-126,112,-90,-5,-23,62,204,122,77,122,192,390,-344,117,-120,-287,225
201203,-199,-351,-74,51,-107,-120,-356,215,103,29,-5,-34,222,-20,107,-73,177,-109,-13,-61,45,180,99,61,91,164,360,-427,49,-171,-332,157
201204,-163,-386,-58,32,-122,-73,-301,55,93,22,5,30,219,-35,65,19,211,-105,-22,-94,-215,207,145,55,85,89,246,-372,72,-197,-372,118
201205,-135,-309,2,-29,-79,161,-251,-12,109,56,50,39,228,-16,81,-20,285,-75,-15,-35,-117,275,192,85,96,130,289,-277,153,-128,-313,174
201206,-138,-308,89,-29,-78,286,-313,37,91,69,61,-30,224,-47,91,-57,226,-92,-39,-68,-85,246,161,62,83,123,274,-286,140,-115,-321,134
201207,-122,-231,93,-63,-70,302,-275,42,81,67,85,1,236,-37,102,-15,283,-65,-28,-71,-76,277,194,79,95,140,297,-259,155,-123,-307,167
201208,-47,-204,125,-38,-68,312,-192,34,84,58,99,-24,251,-30,106,-21,322,-63,1,-37,-49,283,221,107,137,162,324,-238,187,-93,-266,210
201209,71,-239,166,3,-75,306,-214,71,77,64,99,-25,253,-40,111,-72,254,-25,-2,-24,-58,276,191,102,130,172,325,-223,174,-83,-264,222
201210,29,-258,110,-64,-88,221,-256,56,66,50,69,-36,242,-51,110,-119,178,-60,-17,-39,-74,241,174,83,110,137,305,-248,160,-111,-262,208
201211,-23,-252,59,-34,-89,159,-243,58,70,70,84,-14,235,-22,131,-63,274,-67,1,-24,-43,289,230,141,138,173,319,-197,208,-60,-235,227
201212,-64,-316,125,-29,-70,164,-264,82,69,78,123,72,266,5,136,-38,272,3,41,12,-9,309,248,186,177,215,349,-128,277,4,-180,272
201213,-46,-298,195,-4,-66,169,-295,115,100,90,126,132,271,5,135,-27,382,32,57,15,-28,237,288,194,194,214,347,-118,280,1,-187,269
201214,65,-220,139,-49,-60,260,-268,134,91,97,150,70,244,-5,161,24,275,-14,35,17,-18,264,246,167,195,209,343,-136,254,-10,-211,231
201215,-30,-241,43,-84,-81,257,-357,104,76,81,67,67,253,-6,141,63,256,-25,26,29,-11,307,259,161,191,216,362,-131,279,2,-184,272
201216,-180,-309,47,-78,-102,267,-393,61,88,80,32,56,264,8,138,0,320,-4,50,42,-21,266,312,190,211,244,368,-58,319,38,-174,249
201217,-275,-392,43,-89,-129,227,-434,65,45,77,4,32,238,3,122,-60,305,-21,29,28,-37,239,272,174,172,214,359,-121,291,28,-173,250
201218,-283,-329,6,-65,-105,177,-279,58,70,87,55,4,231,11,138,-11,218,-57,15,37,4,280,226,165,172,232,392,-229,247,14,-183,307
201219,-57,-197,16,16,-83,196,-134,89,80,88,115,18,257,9,154,21,232,-19,18,30,-12,311,246,161,176,216,399,-168,239,-16,-215,246
201220,19,-141,52,77,-74,193,-181,124,60,75,93,124,221,-6,131,5,265,-80,-4,-5,-38,253,246,117,157,189,343,-191,209,-67,-244,193
201221,-38,-148,17,49,-74,210,-229,102,82,74,82,69,225,-3,119,-38,292,-130,2,17,-39,250,196,95,160,190,312,-241,175,-82,-237,208
201222,1,-232,-5,-27,-66,219,-311,76,84,95,87,-70,211,-7,110,-114,193,-105,-12,-5,-84,172,147,89,132,162,272,-339,134,-117,-271,157
201223,37,-303,-1,-129,-101,180,-377,7,57,81,46,-105,181,-21,80,-183,168,-106,-54,-21,-131,104,131,55,91,111,210,-387,89,-156,-355,49
201224,13,-219,-13,-159,-104,88,-386,-30,56,67,51,-72,182,-19,111,-104,288,-98,-39,-15,-95,160,153,64,108,166,247,-342,127,-129,-336,96
201225,69,-120,98,-36,-53,138,-349,64,66,74,86,-35,208,-27,108,-63,243,-70,-23,-25,-65,189,172,89,122,173,273,-313,133,-124,-311,109
201226,81,-97,94,9,-51,225,-331,55,62,78,169,-90,208,-29,112,-46,70,-91,-38,-41,-64,203,118,77,107,152,286,-336,123,-113,-310,118
201227,2,-180,-39,-55,-66,244,-225,7,55,65,73,-86,191,-37,99,-61,133,-99,-34,-30,-93,206,114,87,114,160,289,-334,153,-92,-285,139
201228,116,-112,21,1,-50,249,-165,42,79,76,12,-31,217,-28,91,-55,216,-82,-23,-22,-80,225,178,121,132,161,292,-289,187,-81,-265,161
201229,178,-174,83,24,-56,190,-272,74,100,53,27,-48,224,-47,78,-138,171,-86,-31,-57,-107,123,163,91,132,127,240,-310,147,-114,-314,104
201230,143,-242,81,0,-54,79,-286,100,109,63,16,-76,226,-12,102,-166,102,-101,-22,-39,-98,138,153,109,122,156,261,-312,173,-102,-288,153
201231,60,-168,79,-68,-49,75,-261,103,91,58,33,-116,229,-8,85,-148,103,-115,-23,-35,-117,114,128,86,112,138,244,-286,202,-82,-266,172
201232,29,-102,139,-30,-70,167,-254,119,92,45,61,-111,224,-18,77,-158,62,-119,-25,-67,-131,154,74,52,88,116,183,-330,156,-129,-322,83
201233,1,-87,31,-21,-90,234,-242,64,45,58,81,-21,177,-34,88,-168,75,-191,-50,-76,-120,153,73,36,90,122,217,-301,148,-103,-318,99
201234,24,-140,2,-53,-92,271,-331,55,47,66,34,-20,151,-28,72,-205,82,-220,-32,-58,-142,92,81,31,107,100,184,-321,126,-144,-339,37
201235,10,-193,-42,-79,-88,219,-333,-124,48,61,54,-194,152,-23,69,-172,47,-199,-26,-53,-146,99,24,24,101,100,173,-450,0,-231,-399,49
201236,-14,-169,-79,-101,-109,197,-324,-182,63,51,16,-247,163,-33,85,-188,8,-207,-48,-58,-143,61,-5,3,76,70,172,-507,-17,-245,-407,53
