,Fp1,Fp2,F7,F3,Fz,F4,F8,FC5,FC1,FC2,FC6,T7,C3,Cz,C4,T8,TP9,CP5,CP1,CP2,CP6,TP10,P7,P3,Pz,P4,P8,PO9,O1,Oz,O2,PO10
189428,-119,-21,218,27,-119,206,87,416,65,-12,227,7,321,-46,202,253,193,122,8,102,-122,292,278,76,146,111,386,-254,70,-50,-394,50
189429,-42,-30,281,77,-117,211,84,436,78,-34,158,5,320,-42,202,287,210,153,27,118,-94,272,281,84,157,127,378,-270,84,-39,-392,17
189430,-44,-47,278,92,-107,228,112,377,67,-28,166,0,316,-54,212,252,170,119,21,125,-86,314,256,73,149,127,420,-347,44,-43,-367,43
189431,-103,-34,147,45,-97,200,180,221,42,-13,151,-23,289,-43,217,240,140,86,9,111,-91,317,227,50,123,113,363,-343,52,-39,-372,58
189432,-119,-3,141,17,-108,157,231,230,39,-12,168,-102,263,-59,239,242,-57,54,0,108,-74,307,188,40,114,122,389,-316,88,-9,-308,148
189433,-107,-35,148,15,-105,277,198,325,50,-16,123,8,281,-62,222,235,47,48,13,112,-69,305,217,43,133,131,421,-310,62,-10,-312,159
189434,-162,-128,112,-6,-105,341,128,290,39,-12,107,-43,251,-47,223,186,73,23,5,115,-77,351,203,56,138,150,453,-274,97,30,-253,290
189435,-134,-41,129,11,-97,373,167,263,49,-27,143,-104,278,-48,204,204,48,69,23,129,-69,249,193,60,132,157,497,-277,80,19,-260,403
189436,-103,0,165,10,-80,372,165,263,65,-17,142,-99,289,-43,211,220,80,60,12,111,-71,258,193,69,140,135,484,-330,47,-29,-302,319
189437,-91,-74,218,22,-94,368,101,324,46,0,106,-107,276,-56,215,177,96,67,-1,80,-102,409,174,43,108,72,358,-373,-9,-88,-447,-64
189438,-108,-66,177,48,-106,347,70,351,55,-1,83,-118,285,-54,199,178,99,68,4,85,-129,381,205,56,108,56,321,-288,57,-69,-461,-152
189439,-145,-47,106,31,-115,313,85,319,69,-10,89,-102,292,-52,205,194,82,58,19,86,-101,355,210,73,142,101,389,-270,116,0,-361,130
189440,-111,12,137,35,-78,300,58,225,75,-4,164,-125,287,-43,222,208,59,62,12,109,-113,385,182,65,132,81,350,-378,31,-53,-394,50
189441,-117,19,183,75,-89,315,108,233,87,-12,181,-93,306,-52,199,180,43,62,20,93,-116,443,177,55,118,60,344,-496,-45,-120,-396,1
189442,-122,-29,241,47,-97,320,152,283,80,-5,137,-61,317,-58,207,152,121,91,46,118,-114,444,224,83,146,116,402,-368,74,-5,-308,161
189443,-87,-41,209,5,-98,316,155,298,73,-5,138,-60,321,-37,208,160,97,97,41,109,-103,364,232,102,153,94,390,-292,86,-12,-351,177
189444,-89,-37,132,35,-93,246,135,306,87,-21,140,-21,334,-27,188,141,57,110,49,105,-133,364,251,115,167,90,355,-302,95,3,-341,96
189445,-62,-38,138,-4,-121,296,155,323,77,-19,157,16,343,-42,187,157,240,128,34,95,-152,303,270,132,164,93,336,-302,85,-26,-397,54
189446,-38,-91,231,-8,-111,335,162,330,97,-17,116,4,358,-41,182,180,250,140,53,100,-154,334,285,132,157,75,311,-294,108,-52,-442,-109
189447,-37,-119,281,-20,-97,374,169,316,79,-19,117,-18,346,-22,200,194,43,147,54,115,-106,351,235,123,175,100,348,-348,106,-8,-391,-14
189448,-70,-101,277,-15,-128,357,157,316,66,-31,131,10,362,-34,179,151,152,144,53,135,-77,388,288,141,167,128,428,-250,159,35,-315,161
189449,-104,-37,273,0,-111,378,136,320,66,-27,137,2,341,-70,143,141,125,121,39,98,-149,265,249,107,138,70,351,-321,55,-78,-411,-33
189450,-147,47,245,8,-124,438,73,328,52,-35,116,15,338,-82,152,127,149,143,23,83,-166,242,243,109,141,52,308,-298,66,-41,-402,-18
189451,-209,45,217,33,-112,226,77,326,63,-20,92,-40,340,-45,166,143,142,176,31,111,-124,310,254,144,169,100,351,-237,132,34,-350,31
189452,-167,-4,220,49,-99,75,40,336,81,-22,58,-50,341,-49,173,109,182,158,44,103,-121,299,291,149,186,97,364,-220,139,23,-368,36
189453,-105,23,232,67,-82,257,76,439,98,-11,93,-10,365,-31,200,58,143,159,66,106,-110,298,283,149,202,105,401,-223,153,23,-353,50
189454,-87,-56,234,46,-94,353,73,464,96,-5,142,-46,374,-41,193,36,145,133,63,105,-106,308,258,145,202,128,422,-310,155,82,-264,12
189455,-83,-126,194,35,-138,237,72,425,76,-29,157,-42,351,-40,181,88,59,128,58,109,-126,283,235,132,196,106,343,-351,103,-10,-337,-64
189456,-111,-65,186,-30,-142,133,75,388,71,-25,159,-22,363,-31,180,148,102,152,68,132,-129,224,248,144,207,101,345,-306,82,-55,-384,-51
189457,-158,-25,225,-45,-135,189,19,370,91,-30,125,-29,392,-21,206,158,73,190,83,148,-119,238,268,151,241,150,357,-280,140,4,-343,-7
189458,-140,-9,255,6,-114,273,39,326,89,-37,100,-13,380,-4,203,127,85,164,95,167,-117,291,251,165,263,153,391,-294,115,-25,-386,39
189459,-135,-105,147,-4,-141,268,59,293,64,-36,81,-35,342,-17,192,133,197,110,67,177,-94,304,233,144,251,176,407,-369,76,-32,-329,73
189460,-93,-98,164,-12,-154,231,64,315,88,-42,91,-54,355,-15,207,156,179,133,80,175,-85,342,237,137,248,183,410,-385,67,-30,-329,61
189461,-144,11,234,49,-140,204,95,383,89,-21,48,-17,372,-4,209,184,80,159,90,180,-88,340,230,136,238,171,406,-404,63,-49,-351,109
189462,-162,18,230,42,-144,202,93,405,85,-24,72,-86,370,-9,218,217,109,148,80,179,-73,331,220,149,240,181,447,-377,96,-4,-308,169
189463,-145,-116,218,47,-119,258,65,363,71,-30,86,-113,355,-14,226,189,89,131,87,164,-75,390,232,145,242,169,421,-352,110,-6,-313,88
189464,-163,-178,70,5,-132,234,94,261,76,-9,84,-70,344,4,235,203,76,143,101,182,-32,480,273,183,271,203,473,-307,176,36,-273,177
189465,-134,-187,129,-21,-141,256,121,366,79,-17,131,25,373,-13,237,246,139,197,106,211,-12,430,284,210,280,209,484,-272,198,72,-247,111
189466,-153,-137,167,22,-124,319,126,365,66,-9,173,38,371,2,255,252,168,170,113,203,-2,403,300,206,289,230,500,-240,197,81,-249,61
189467,-145,-7,246,51,-116,345,148,317,83,17,173,40,379,8,284,267,217,193,137,219,15,512,338,223,299,256,532,-234,198,88,-250,140
189468,-125,99,290,44,-120,350,177,310,59,21,218,32,380,-1,281,284,193,199,136,237,32,551,331,236,311,277,561,-200,231,110,-207,191
189469,-7,164,326,52,-111,291,211,301,88,27,242,48,398,26,308,345,208,231,152,243,68,570,333,246,328,286,591,-179,258,153,-186,221
189470,80,122,355,65,-122,215,238,292,101,0,206,75,406,5,317,376,248,222,160,237,104,608,367,270,338,322,642,-86,298,184,-147,316
189471,81,47,336,37,-117,212,235,310,85,11,141,73,386,1,316,337,224,220,128,238,73,571,385,263,323,315,644,-92,280,155,-175,261
189472,26,-71,238,-16,-130,221,207,353,73,29,178,3,357,7,310,333,135,193,123,225,84,526,354,231,303,316,656,-133,283,159,-151,335
189473,-7,-109,100,-10,-130,303,187,440,68,-5,165,40,381,-3,267,339,199,182,122,198,75,512,330,201,273,297,658,-227,216,139,-150,340
189474,-34,-6,216,-19,-97,397,201,465,85,13,203,74,392,0,279,375,263,216,125,193,66,585,366,219,270,283,654,-185,209,129,-172,333
189475,-21,51,303,24,-94,356,167,519,98,5,235,67,406,0,276,380,245,221,120,202,27,559,390,215,265,261,610,-124,236,109,-204,288
189476,-6,126,327,53,-94,261,223,455,69,24,223,-39,369,-18,289,335,130,154,91,200,52,560,285,170,251,258,598,-169,198,88,-220,239
189477,-14,98,302,78,-96,182,264,427,85,26,227,-44,375,-3,288,303,192,173,99,184,35,510,313,173,244,233,559,-141,165,102,-232,246
189478,-131,-6,238,127,-127,276,240,386,91,-5,225,-16,357,-24,263,275,247,190,75,145,-25,417,341,164,204,186,526,-142,151,63,-254,222
189479,-94,1,206,120,-99,415,280,348,63,12,237,-58,334,-45,270,265,139,147,54,160,-13,494,262,125,185,187,550,-283,115,37,-262,230
189480,-60,-7,268,100,-76,467,287,361,47,43,211,-27,327,-34,279,247,78,108,52,165,17,555,235,128,180,196,554,-356,109,42,-254,244
189481,-92,11,229,12,-85,477,293,286,48,39,228,-56,288,-46,259,258,99,81,32,138,5,433,197,83,163,196,561,-360,100,8,-260,222
189482,-81,34,238,49,-74,490,292,261,53,35,263,-51,281,-68,262,243,77,81,15,127,-39,382,160,43,154,179,530,-421,24,-58,-333,144
189483,12,84,257,19,-72,492,234,314,72,39,269,-38,291,-39,287,231,122,93,28,146,-11,469,198,79,178,188,521,-366,74,0,-282,189
189484,-15,159,232,-38,-82,470,214,310,56,49,298,-45,290,-24,307,181,105,100,37,161,3,479,190,107,178,184,498,-393,84,7,-268,186
189485,-39,144,238,-44,-92,409,182,269,57,49,276,-42,300,-38,310,243,57,98,45,148,18,475,193,116,181,204,506,-376,89,19,-281,179
189486,-41,117,314,-7,-79,361,226,283,68,42,231,-49,303,-35,311,332,52,103,64,165,20,485,217,135,212,221,529,-336,114,42,-248,212
189487,-33,69,326,9,-94,265,252,281,53,38,212,-22,292,-59,284,351,125,107,53,170,3,511,228,133,225,202,527,-318,146,48,-229,236
189488,55,56,273,-24,-96,278,248,324,62,23,195,1,329,-54,295,337,167,136,76,164,13,482,251,150,215,219,539,-282,183,95,-216,233
189489,61,90,316,-24,-90,370,257,379,73,24,223,17,343,-51,302,352,119,149,73,169,29,542,266,148,224,213,534,-258,159,43,-251,160
189490,6,153,311,32,-80,412,274,425,58,22,236,8,326,-47,296,338,100,142,48,182,16,473,243,137,207,198,500,-325,99,-10,-308,127
189491,7,145,345,68,-87,400,303,416,64,8,245,0,358,-41,301,332,162,184,63,189,22,482,253,151,214,224,526,-310,149,58,-247,160
189492,52,72,306,31,-102,374,303,321,57,5,245,-29,343,-47,275,296,144,177,60,159,9,501,256,145,213,236,541,-262,160,58,-254,181
189493,121,-33,290,64,-88,362,336,359,78,5,264,-26,355,-37,282,324,161,173,82,188,41,544,269,165,232,262,554,-225,182,91,-195,238
189494,111,-50,275,89,-96,440,305,504,80,23,293,43,358,-41,292,300,174,140,84,185,50,581,273,174,239,269,532,-234,207,109,-183,259
189495,53,-17,107,101,-92,495,225,528,70,33,242,69,330,-25,304,287,161,115,76,176,33,541,286,179,246,254,550,-202,196,78,-252,228
189496,-68,-44,91,136,-87,516,206,508,99,39,217,51,354,-24,292,260,183,140,82,172,33,466,300,193,251,250,541,-178,212,84,-227,217
189497,-104,6,196,175,-99,426,246,487,112,21,197,-27,357,-30,262,260,179,158,65,158,-14,407,292,175,240,239,548,-164,206,108,-198,227
189498,-86,22,267,145,-98,342,241,408,97,-17,180,-31,332,-45,241,285,153,160,52,130,-26,336,276,145,199,233,536,-161,194,91,-231,192
189499,-41,53,338,87,-82,395,184,292,74,2,149,15,310,-59,224,236,131,148,59,135,-22,366,279,137,218,243,534,-183,195,98,-222,218
189500,3,141,371,-30,-53,373,217,257,92,2,159,34,314,-50,209,239,166,161,37,150,-19,561,254,138,211,242,535,-280,183,76,-210,261
189501,33,136,360,-55,-71,310,225,231,80,-12,142,-15,294,-75,178,195,251,150,33,117,-53,488,290,133,171,186,478,-211,160,20,-284,164
189502,119,85,375,6,-77,329,223,273,70,-8,166,-22,294,-80,180,190,155,139,26,98,-63,431,288,123,176,185,527,-195,160,37,-267,219
189503,182,86,358,55,-50,357,209,304,48,-9,252,-40,298,-79,204,228,85,135,31,110,-31,454,283,114,193,216,573,-190,139,29,-287,166
189504,56,115,269,63,-49,406,186,340,45,0,302,-9,294,-59,223,223,128,113,16,104,-52,433,253,83,168,184,506,-291,58,-32,-327,113
189505,-28,99,267,36,-61,444,200,349,56,10,287,-20,281,-66,235,243,90,76,0,127,-48,480,179,40,157,173,496,-488,-19,-74,-310,179
189506,3,88,314,35,-65,391,170,311,51,26,273,-26,282,-76,251,159,109,86,1,133,-75,511,182,52,145,183,552,-443,11,-50,-305,238
189507,62,116,392,54,-53,318,152,319,56,42,266,-30,291,-59,262,73,92,94,9,129,-62,508,203,72,162,177,531,-350,53,-19,-314,222
189508,91,125,363,44,-71,402,116,315,50,13,276,10,298,-69,269,91,135,118,14,132,-55,545,226,76,166,172,499,-309,62,-34,-310,139
189509,72,147,344,5,-62,406,83,330,40,31,280,40,302,-66,286,175,134,127,26,145,-46,538,252,78,182,206,522,-291,104,1,-285,161
189510,-30,58,302,-37,-60,334,87,326,58,29,194,7,313,-54,292,317,98,132,50,174,12,475,277,110,214,231,579,-239,120,43,-249,179
189511,-110,11,250,-8,-75,324,87,315,86,13,150,60,346,-44,306,315,217,164,96,193,16,497,318,162,246,235,592,-245,143,69,-235,232
189512,-161,51,239,14,-102,352,166,392,96,21,155,133,370,-20,307,358,375,217,126,221,27,529,364,186,273,248,594,-224,183,88,-194,247
189513,-142,158,217,46,-92,357,324,397,105,43,219,72,370,-12,328,415,218,205,112,229,70,554,369,175,266,306,635,-137,228,121,-139,359
189514,86,250,335,87,-80,447,420,434,91,52,276,95,370,-35,346,435,170,202,101,215,93,619,361,185,244,309,693,-106,244,162,-103,452
189515,227,282,417,144,-70,374,419,528,104,56,294,148,406,-17,371,438,268,257,120,244,102,615,404,214,262,307,669,-88,248,168,-118,340
189516,200,224,372,142,-80,256,409,510,94,40,265,126,389,-34,333,404,214,226,93,199,47,577,377,190,247,262,604,-134,201,123,-181,297
189517,184,220,351,135,-78,282,395,561,94,37,264,119,403,-31,331,406,292,231,95,229,59,604,388,210,254,286,669,-148,260,191,-61,498
189518,132,232,362,121,-81,367,440,479,78,51,312,96,383,-21,371,397,269,207,88,226,90,648,327,185,252,292,663,-278,213,128,-108,470
189519,57,220,358,85,-89,407,410,369,65,16,262,46,358,-50,312,322,134,177,68,169,8,535,285,124,187,200,541,-254,145,38,-261,188
189520,63,174,289,77,-65,418,372,304,56,12,264,76,348,-42,300,306,246,195,75,160,-1,521,372,163,206,202,526,-127,233,69,-286,75
189521,80,168,323,97,-39,404,399,358,83,42,268,124,361,-32,327,376,279,210,85,167,39,597,359,181,241,226,598,-225,194,58,-220,236
189522,27,134,287,47,-59,390,408,321,76,22,250,32,342,-34,291,347,229,174,73,155,20,557,297,171,223,220,566,-281,150,62,-226,240
189523,-15,103,241,52,-69,390,362,303,72,2,262,-24,345,-45,284,305,190,167,70,151,13,552,304,168,213,186,562,-268,166,39,-243,212
189524,5,11,237,8,-78,394,313,336,87,-1,249,11,360,-43,260,277,163,182,56,147,-6,525,283,152,204,158,518,-277,125,3,-267,144
189525,42,-14,232,-18,-60,437,330,361,88,14,242,-18,359,-29,250,299,170,145,63,140,-31,470,273,130,204,158,502,-252,144,35,-254,176
189526,39,59,263,17,-59,426,384,361,81,-7,300,22,301,-50,237,310,190,86,42,111,-38,521,256,89,164,141,510,-326,103,30,-241,265
189527,107,103,332,71,-46,477,403,386,60,-17,271,4,282,-71,211,298,174,86,12,75,-63,561,222,56,113,92,486,-353,48,-66,-319,239
189528,148,161,349,75,-22,470,379,476,65,-11,243,9,296,-67,200,300,201,130,14,78,-87,466,263,65,118,62,443,-248,85,-80,-355,133
189529,96,222,234,50,-50,426,407,405,40,-4,262,-9,283,-59,213,322,71,100,4,81,-73,426,220,61,110,73,457,-295,63,-55,-349,150
189530,9,171,144,-26,-58,387,288,337,55,12,247,-27,275,-52,221,275,60,76,7,91,-76,380,215,63,107,72,436,-331,54,-55,-332,171
189531,-46,80,55,-27,-61,351,198,402,43,11,225,-44,285,-68,220,269,67,102,11,87,-82,403,197,42,99,49,423,-351,22,-69,-347,166
189532,-82,111,45,-17,-81,361,291,357,35,-5,289,-117,278,-69,218,254,99,63,5,96,-89,479,200,30,110,49,403,-330,3,-131,-426,137
189533,-46,132,64,51,-57,361,309,424,53,3,255,-42,310,-58,235,256,113,113,35,109,-73,406,214,46,128,70,419,-325,42,-99,-371,153
189534,-100,77,128,96,-70,429,279,369,63,24,232,-51,307,-31,268,205,41,147,46,153,-29,432,256,94,145,103,427,-269,95,-31,-336,106
189535,-160,77,102,65,-108,209,280,272,43,-2,204,-43,299,-39,269,141,44,141,32,138,-21,475,248,90,149,98,401,-263,92,-36,-381,38
189536,-103,130,225,74,-113,103,290,348,47,3,192,16,323,-38,292,213,252,176,54,150,-7,487,300,98,142,99,414,-265,61,-74,-400,10
189537,-28,108,285,24,-107,317,301,343,43,-4,255,28,317,-33,301,293,186,151,40,166,11,515,298,91,153,133,508,-265,15,-94,-367,73
189538,-19,99,213,-52,-109,353,296,229,39,21,330,6,293,-34,309,333,53,117,30,152,22,497,252,86,140,141,555,-318,45,-71,-341,114
189539,11,188,259,-28,-106,355,269,218,55,50,382,30,309,-29,316,337,176,142,39,144,21,484,281,106,141,147,538,-301,72,-39,-310,197
189540,55,150,243,-37,-100,347,233,259,51,40,252,27,298,-36,292,355,244,149,46,149,-3,542,303,112,149,137,523,-241,119,1,-295,224
189541,58,57,203,-11,-73,395,233,289,32,10,227,6,311,-43,296,356,112,155,59,146,25,517,281,123,165,155,600,-211,173,67,-218,352
189542,18,99,151,-25,-70,379,249,267,30,11,217,12,299,-53,293,352,91,132,39,132,13,451,262,110,134,150,595,-250,142,21,-254,251
189543,-48,145,174,-32,-70,312,229,289,37,9,242,31,322,-51,292,380,192,179,52,161,14,519,315,144,169,184,613,-225,163,51,-233,269
189544,-58,96,183,13,-89,308,281,292,39,0,230,26,330,-65,306,384,258,217,52,163,17,664,362,175,177,213,643,-137,231,101,-173,372
189545,-15,43,163,6,-85,419,307,347,43,35,278,23,323,-66,323,409,247,213,67,171,45,654,346,167,187,219,642,-196,205,63,-208,353
189546,115,64,277,29,-84,368,265,442,69,25,214,9,345,-61,305,452,238,192,67,161,47,615,335,158,199,226,671,-260,173,39,-230,351
189547,137,144,297,33,-69,379,286,345,50,44,281,49,355,-22,340,480,311,203,80,184,74,684,395,217,236,254,687,-168,248,96,-173,361
189548,97,212,324,10,-67,384,362,331,47,38,349,92,358,-23,341,454,266,241,96,195,93,714,394,235,254,264,669,-164,264,105,-166,278
189549,114,200,361,-7,-71,421,358,308,52,24,406,60,323,-7,337,457,174,218,88,187,106,690,354,231,268,274,699,-186,250,92,-191,302
189550,68,199,319,-47,-67,451,355,297,32,40,343,112,312,-14,326,444,321,234,104,192,98,645,416,225,283,276,697,-162,268,111,-168,379
189551,57,184,316,-31,-95,371,383,395,43,18,216,161,344,-12,289,406,312,279,119,193,68,617,441,261,295,285,688,-87,304,144,-133,395
189552,35,132,183,54,-86,345,380,413,67,0,234,159,328,-14,271,420,269,232,108,187,47,687,388,255,265,247,653,-169,255,89,-169,323
189553,-3,143,88,59,-80,340,348,474,51,-8,280,99,321,-31,268,394,171,198,87,174,50,680,342,233,250,242,648,-211,228,81,-192,298
189554,-4,181,50,64,-87,389,338,540,61,-9,290,36,340,-54,246,303,201,220,85,157,37,658,369,248,258,256,674,-141,265,147,-110,384
189555,47,149,210,115,-82,369,286,525,58,-9,268,102,349,-64,219,240,250,255,76,122,-8,539,363,214,233,205,572,-130,256,130,-167,305
189556,33,119,282,71,-82,396,290,452,66,-1,320,78,346,-71,227,210,163,217,55,118,-22,532,321,194,212,169,508,-215,185,22,-286,195
189557,46,66,351,18,-67,408,243,326,68,1,301,40,341,-62,230,252,170,192,72,137,4,562,345,207,225,201,553,-141,233,97,-188,305
189558,40,31,374,-2,-102,431,169,310,56,-21,222,49,316,-77,176,315,160,187,46,97,-46,531,310,163,190,171,534,-157,218,75,-216,254
189559,70,138,355,-4,-64,563,210,362,43,5,246,32,308,-77,177,352,134,169,18,95,-55,506,276,123,164,156,481,-263,128,11,-287,138
189560,133,186,389,-18,-64,424,214,343,49,0,258,19,322,-75,182,354,142,161,36,84,-54,479,254,111,155,145,482,-302,114,-5,-292,116
189561,114,187,421,7,-81,395,270,305,56,2,258,10,325,-65,219,335,171,178,56,111,-20,524,278,147,198,189,547,-254,150,42,-244,232
189562,84,137,349,-5,-108,352,257,299,23,-20,223,8,335,-74,234,330,167,182,55,135,3,539,296,166,227,222,548,-215,179,62,-196,242
189563,89,91,351,-36,-135,313,216,313,20,-22,190,33,344,-60,248,346,134,171,77,165,21,494,292,173,249,259,590,-202,215,107,-142,311
189564,87,53,373,-17,-113,317,270,352,48,-1,211,45,360,-49,262,324,139,173,88,180,18,503,294,187,263,276,594,-199,223,128,-112,358
189565,65,77,338,2,-122,296,305,371,56,-2,167,55,361,-46,260,325,136,185,89,174,25,514,284,169,257,277,601,-223,201,114,-131,287
189566,-27,81,245,-31,-132,293,333,374,36,-11,196,44,364,-38,271,335,134,167,94,172,43,492,267,163,248,273,601,-255,180,85,-175,282
189567,-33,150,266,14,-132,294,335,510,61,-18,235,22,377,-41,293,361,130,172,97,160,37,453,250,162,256,267,576,-264,168,66,-217,179
189568,18,166,295,10,-133,296,332,468,49,-17,276,17,355,-55,269,307,83,155,64,150,18,439,232,137,227,268,538,-261,169,83,-216,152
189569,37,137,311,-12,-117,320,291,374,37,13,281,62,346,-46,301,274,103,145,57,173,27,499,288,129,230,274,556,-230,178,98,-187,237
189570,4,139,304,11,-88,341,273,348,52,43,247,58,346,-34,331,268,44,133,81,189,24,478,258,132,253,282,567,-230,183,79,-175,259
189571,-51,81,263,0,-113,336,208,311,25,23,249,-33,321,-51,336,121,151,127,43,179,18,399,209,93,220,263,542,-272,141,70,-182,193
189572,-26,15,284,38,-118,319,166,324,39,40,292,-23,322,-37,361,39,211,117,50,190,54,385,226,99,220,285,556,-277,145,60,-140,199
189573,2,-10,271,22,-116,336,196,306,38,51,316,6,291,-42,364,185,193,78,51,207,59,491,273,118,234,299,597,-231,184,114,-123,248
189574,-3,113,288,42,-114,389,330,312,21,30,363,22,290,-52,349,354,195,110,32,183,66,606,279,133,227,307,641,-239,188,132,-131,291
189575,59,276,369,43,-93,468,421,381,53,28,339,134,330,-32,359,481,212,172,62,197,128,702,331,161,249,335,680,-214,219,143,-127,333
189576,75,254,219,72,-117,371,381,443,45,33,278,128,340,-23,355,504,205,211,90,208,145,726,373,187,289,346,725,-139,258,206,-46,400
189577,122,187,234,-44,-113,337,361,572,61,9,285,96,370,-33,327,463,234,219,85,204,95,641,365,218,271,328,723,-123,264,192,-48,388
