,Fp1,Fp2,F7,F3,Fz,F4,F8,FC5,FC1,FC2,FC6,T7,C3,Cz,C4,T8,TP9,CP5,CP1,CP2,CP6,TP10,P7,P3,Pz,P4,P8,PO9,O1,Oz,O2,PO10
15601,1176,956,582,143,242,426,291,175,-136,-123,31,-45,146,-38,-413,282,-289,-185,-10,-210,-423,-327,-81,-173,56,-305,-246,-430,-146,-473,-718,-570
15602,1199,909,598,145,248,420,287,151,-140,-139,31,-111,155,-19,-428,154,-191,-134,8,-195,-438,-297,-51,-148,70,-281,-259,-433,-124,-465,-744,-604
15603,1229,929,623,156,252,455,286,200,-128,-111,33,-107,164,-11,-428,100,-122,-124,46,-197,-471,-333,-20,-128,102,-261,-300,-428,-93,-432,-714,-661
15604,1214,974,608,126,258,452,316,159,-143,-100,69,-70,153,-13,-404,118,-223,-157,10,-182,-443,-456,-67,-147,92,-263,-304,-426,-93,-431,-699,-594
15605,1210,919,617,131,235,433,304,163,-152,-123,75,-6,135,-43,-401,180,-395,-162,-16,-202,-432,-485,-60,-154,81,-266,-317,-455,-121,-454,-714,-596
15606,1242,935,647,135,234,427,292,173,-149,-128,81,-28,131,-51,-403,192,-466,-204,-25,-206,-447,-160,-64,-177,71,-273,-286,-475,-122,-454,-682,-577
15607,1211,931,655,108,233,460,284,191,-137,-133,61,-33,146,-28,-403,218,-192,-186,-23,-201,-438,-263,-96,-168,77,-256,-287,-476,-118,-461,-680,-578
15608,1105,866,560,130,209,410,252,250,-123,-133,30,-28,154,-21,-413,190,-366,-150,-12,-208,-448,-264,-26,-145,91,-261,-299,-460,-131,-458,-674,-606
15609,1044,865,493,155,207,389,265,246,-120,-139,57,-15,178,-24,-396,177,-305,-129,-6,-204,-437,-248,-6,-141,101,-269,-237,-456,-106,-438,-634,-551
15610,1037,835,437,177,201,386,245,238,-102,-121,72,-78,199,-19,-398,79,-149,-127,-3,-223,-400,-278,-28,-135,90,-260,-222,-473,-111,-438,-652,-558
15611,984,834,352,143,172,371,238,252,-115,-144,38,-116,191,-12,-422,-82,-203,-133,-41,-205,-436,-235,-77,-145,91,-277,-365,-459,-134,-449,-678,-537
15612,1086,848,434,139,196,388,281,248,-99,-140,67,-61,199,-7,-389,-113,-253,-137,-12,-188,-415,-172,-101,-134,89,-267,-327,-393,-106,-437,-663,-392
15613,1136,852,528,151,215,396,296,245,-96,-152,97,-16,184,-25,-407,-70,-241,-129,-24,-200,-439,-214,-52,-133,69,-290,-305,-360,-108,-460,-707,-478
15614,1162,892,601,153,227,423,314,213,-119,-148,109,30,165,-18,-398,-69,-174,-150,-52,-200,-429,-230,-48,-160,50,-296,-282,-383,-136,-482,-702,-557
15615,1171,939,615,130,234,438,336,184,-125,-119,122,13,152,-36,-379,-85,-203,-178,-64,-175,-389,-206,-42,-170,36,-255,-250,-360,-113,-443,-679,-490
15616,1169,930,627,139,263,466,359,223,-124,-90,157,52,158,-13,-363,-42,-184,-170,-62,-180,-348,-245,-51,-171,35,-258,-288,-364,-118,-435,-670,-577
15617,1162,909,568,149,252,467,338,244,-129,-109,170,87,154,-41,-338,35,-131,-168,-63,-181,-345,-182,-64,-181,32,-252,-214,-383,-126,-431,-656,-507
15618,1134,889,571,143,251,461,306,285,-122,-139,129,118,152,-44,-378,23,-318,-186,-90,-173,-383,-125,-58,-190,34,-253,-150,-428,-141,-441,-642,-383
15619,1126,898,540,141,242,476,311,242,-127,-102,123,199,150,-30,-355,-241,-190,-138,-73,-165,-367,-148,60,-146,66,-205,-121,-423,-126,-390,-569,-375
15620,1149,928,562,176,243,476,327,197,-146,-113,123,160,117,-46,-389,-274,-113,-156,-66,-185,-391,-351,33,-181,26,-269,-245,-396,-197,-525,-763,-753
15621,1157,964,578,160,260,485,382,220,-141,-95,165,-42,111,-36,-372,21,-354,-189,-78,-194,-347,-296,-61,-207,15,-260,-248,-397,-198,-533,-760,-543
15622,1169,949,575,153,257,484,385,218,-159,-93,187,-112,94,-48,-336,261,-62,-199,-111,-195,-300,-209,-61,-193,34,-206,-150,-391,-140,-426,-595,-344
15623,1174,939,622,178,281,533,379,240,-125,-69,194,52,135,-25,-311,415,-143,-182,-85,-169,-279,-133,-13,-151,71,-196,-136,-354,-113,-382,-554,-368
15624,1127,910,646,187,267,500,309,276,-116,-91,175,105,165,-26,-353,325,-60,-153,-86,-166,-304,-66,21,-127,70,-181,-106,-290,-70,-361,-536,-371
15625,1107,883,653,171,266,489,292,253,-130,-101,185,103,178,-51,-354,-360,-69,-127,-85,-186,-331,-74,43,-135,53,-218,-168,-285,-81,-423,-620,-417
15626,1095,876,667,160,253,490,317,242,-132,-86,196,167,171,-58,-344,-403,-96,-116,-66,-184,-353,-103,42,-138,48,-240,-218,-271,-49,-424,-688,-408
15627,1020,811,606,109,237,485,326,246,-129,-100,209,130,200,-39,-334,-131,-69,-94,-51,-162,-326,-73,68,-101,73,-199,-172,-236,1,-348,-567,-317
15628,961,732,501,128,224,475,366,337,-113,-67,242,113,214,-20,-317,228,40,-72,-29,-128,-265,-68,91,-76,92,-156,-75,-234,38,-247,-415,-159
15629,987,755,435,141,210,470,448,335,-93,-52,225,97,230,-3,-324,471,39,-55,-22,-100,-217,-37,75,-71,112,-138,16,-263,42,-219,-357,-132
15630,1006,791,409,74,202,458,477,214,-125,-66,183,42,203,-23,-346,308,-145,-56,-57,-156,-280,-290,27,-107,57,-225,-116,-319,-63,-385,-591,-406
15631,799,725,407,122,200,443,429,238,-131,-74,149,51,213,-30,-377,261,-160,-61,-81,-173,-328,-61,3,-116,36,-244,-129,-312,-63,-400,-628,-429
15632,773,707,461,99,196,436,399,234,-133,-105,134,49,164,-39,-389,284,-274,-123,-126,-208,-364,-29,14,-146,-3,-298,-194,-328,-85,-462,-727,-522
15633,911,790,562,152,229,479,425,218,-120,-81,168,69,157,-27,-373,201,-249,-128,-120,-199,-357,-41,67,-147,9,-315,-185,-273,-66,-478,-759,-410
15634,998,795,628,140,244,459,437,227,-126,-96,176,141,166,-37,-370,115,-47,-107,-109,-193,-336,19,58,-133,18,-277,-143,-265,-20,-404,-663,-329
15635,966,797,614,115,222,436,428,237,-151,-94,164,115,173,-58,-389,121,-58,-101,-124,-221,-350,-33,31,-161,-11,-312,-212,-286,-36,-470,-757,-564
15636,889,735,588,125,191,450,427,288,-118,-69,186,25,174,-13,-351,220,-234,-95,-90,-180,-296,-34,55,-147,17,-264,-151,-265,-40,-446,-743,-518
15637,880,664,569,136,208,456,416,312,-76,-64,210,95,230,10,-317,401,-129,-44,-43,-129,-276,17,133,-80,70,-240,-88,-230,-1,-419,-727,-446
15638,884,621,477,103,198,432,412,285,-86,-72,177,200,219,-13,-320,415,25,-55,-52,-128,-300,15,116,-85,88,-234,-106,-207,32,-361,-668,-410
15639,810,552,394,72,160,402,368,235,-117,-106,133,221,171,-19,-355,379,121,-76,-83,-156,-289,-40,120,-109,65,-232,-95,-221,14,-374,-649,-396
15640,735,558,349,109,173,382,338,250,-103,-85,136,244,189,-7,-340,129,31,-74,-51,-138,-306,-113,128,-113,59,-226,-107,-259,-10,-404,-679,-442
15641,751,545,372,96,156,369,291,241,-122,-86,131,217,173,-16,-352,45,-157,-119,-67,-142,-330,-63,48,-164,47,-217,-126,-335,-60,-414,-672,-442
15642,721,525,387,37,149,376,302,216,-133,-100,146,113,153,-31,-346,225,-150,-151,-93,-156,-292,-56,-5,-191,53,-192,-97,-323,-55,-382,-627,-379
15643,698,478,374,52,149,355,317,202,-155,-99,140,38,144,-30,-344,175,-30,-132,-91,-139,-290,-82,2,-176,60,-188,-76,-281,-18,-355,-595,-369
15644,701,447,370,108,162,380,309,265,-127,-75,114,27,180,1,-338,72,-88,-127,-83,-101,-305,-16,8,-138,86,-162,-26,-239,11,-300,-531,-323
15645,653,452,413,63,165,369,266,223,-118,-77,99,67,166,2,-344,208,-107,-146,-84,-119,-316,-67,-18,-157,86,-168,-38,-285,-29,-320,-524,-406
15646,651,414,423,53,173,364,249,189,-126,-86,118,105,144,11,-316,97,-144,-165,-74,-115,-280,-88,-47,-188,81,-166,-104,-356,-84,-360,-533,-455
15647,638,384,452,35,150,358,239,206,-119,-68,127,71,171,23,-331,-189,-237,-185,-66,-111,-277,-22,-30,-176,107,-132,-86,-356,-66,-297,-430,-343
15648,622,356,482,55,160,352,246,235,-114,-74,120,102,177,0,-339,-227,-130,-148,-43,-107,-284,39,4,-164,97,-134,-43,-308,-55,-312,-460,-329
15649,622,364,475,59,171,375,261,310,-138,-95,150,175,163,-33,-350,-102,-42,-157,-68,-128,-279,-53,0,-199,69,-183,-59,-286,-70,-383,-549,-329
15650,623,462,413,111,207,429,306,403,-106,-59,206,330,189,-29,-336,62,98,-109,-57,-144,-288,-158,55,-175,89,-166,-56,-257,-51,-381,-578,-353
15651,640,441,450,141,184,393,284,340,-96,-88,162,323,201,-9,-378,130,-24,-56,-39,-154,-321,-124,46,-156,70,-176,-34,-230,-24,-327,-577,-421
15652,577,354,424,132,160,359,237,279,-108,-92,130,213,206,-36,-411,230,-40,-96,-56,-167,-323,-39,16,-161,42,-212,-56,-275,-67,-329,-564,-337
15653,547,345,446,134,173,341,237,279,-102,-114,67,165,173,-40,-430,215,75,-126,-71,-193,-369,-67,53,-171,24,-247,-144,-255,-51,-336,-575,-390
15654,550,361,501,111,188,338,243,311,-100,-116,64,58,186,-35,-426,118,-73,-120,-72,-199,-402,-213,36,-176,31,-252,-195,-228,-6,-294,-541,-404
15655,532,310,485,99,183,300,195,277,-102,-110,80,62,183,-39,-435,199,-18,-140,-112,-204,-399,-275,20,-192,1,-279,-208,-214,-7,-316,-543,-384
15656,522,255,405,143,169,301,145,337,-84,-117,90,192,199,-32,-423,315,7,-89,-89,-173,-355,66,81,-164,15,-291,-180,-160,25,-304,-550,-354
15657,550,248,327,153,159,314,148,379,-88,-117,101,253,216,-23,-422,366,2,-61,-96,-189,-323,-43,105,-178,-3,-291,-108,-181,9,-303,-541,-195
15658,562,262,451,114,142,291,192,360,-98,-118,103,283,193,-16,-413,262,69,-90,-108,-208,-294,-78,101,-197,-9,-304,-103,-245,-42,-342,-622,-211
15659,590,280,573,109,145,311,184,276,-120,-121,180,244,198,-14,-371,222,85,-78,-103,-181,-240,-87,93,-182,5,-286,-109,-227,-48,-345,-637,-364
15660,593,299,559,102,160,307,170,287,-101,-123,139,220,222,-25,-411,254,20,-47,-93,-209,-357,-77,119,-173,-29,-349,-463,-184,-73,-431,-790,-592
15661,539,273,521,115,142,277,161,371,-100,-130,57,150,257,-15,-456,249,72,7,-76,-232,-439,-53,215,-137,-12,-382,-447,-193,-59,-451,-796,-431
15662,488,260,494,105,130,265,142,358,-102,-149,30,123,248,-15,-473,277,94,29,-68,-232,-449,-55,226,-145,-6,-394,-282,-280,-122,-516,-857,-433
15663,519,241,517,104,148,285,197,296,-87,-124,23,201,247,6,-430,274,-17,-35,-48,-190,-421,-56,78,-168,21,-337,-188,-304,-142,-470,-785,-421
15664,502,226,553,91,147,292,227,263,-105,-124,59,168,227,5,-420,234,-32,-101,-62,-190,-365,-54,-32,-173,42,-271,-111,-311,-100,-381,-619,-287
15665,561,275,607,98,150,303,273,294,-119,-110,97,210,204,-8,-407,-38,-26,-109,-82,-188,-334,-20,-5,-197,65,-218,-45,-306,-39,-276,-467,-80
15666,618,305,600,110,190,356,316,308,-110,-105,113,261,195,-19,-407,-226,37,-99,-101,-216,-356,-8,0,-217,6,-280,-113,-275,-82,-416,-695,-329
15667,583,242,545,126,170,337,278,293,-97,-128,91,253,195,-21,-425,-50,67,-92,-109,-225,-406,-70,30,-227,-21,-356,-242,-318,-194,-613,-923,-692
15668,458,175,431,106,127,275,233,268,-105,-140,46,241,197,-30,-424,157,34,-80,-113,-209,-374,-70,49,-205,-8,-325,-232,-301,-183,-594,-900,-579
15669,378,125,431,138,136,272,186,270,-95,-136,37,174,207,5,-418,250,0,-54,-70,-192,-351,-46,71,-185,25,-278,-160,-249,-107,-498,-809,-378
15670,360,114,450,105,134,267,157,275,-103,-141,11,121,196,-12,-443,253,-78,-52,-55,-188,-381,-87,110,-155,31,-280,-179,-197,-58,-484,-823,-383
15671,387,128,488,58,129,261,138,298,-100,-131,13,156,220,-5,-438,243,0,-30,-57,-194,-374,-66,132,-122,39,-261,-148,-170,-10,-411,-699,-459
15672,431,150,522,67,134,260,134,341,-92,-127,42,171,263,-3,-419,253,-65,-16,-41,-182,-357,6,133,-105,49,-232,-86,-130,31,-304,-605,-296
15673,444,61,526,90,132,266,132,360,-72,-138,36,141,282,18,-409,175,10,2,-51,-172,-333,-117,124,-84,69,-223,-73,-148,69,-241,-507,-230
15674,419,13,520,100,118,220,105,347,-87,-158,12,129,276,1,-454,62,88,-6,-37,-201,-358,-170,165,-94,59,-244,-163,-155,73,-247,-476,-266
15675,375,71,523,109,139,237,75,400,-63,-147,10,209,263,16,-449,26,24,2,-8,-224,-400,138,212,-98,49,-256,-180,-199,39,-310,-561,-377
15676,333,109,395,115,141,232,57,469,-33,-137,41,337,278,9,-419,102,93,-5,-8,-218,-390,-23,197,-89,40,-249,-119,-152,56,-338,-623,-399
15677,380,127,425,88,132,227,90,357,-63,-160,46,419,258,9,-422,98,41,5,-28,-217,-369,-77,192,-94,39,-275,-130,-109,74,-341,-663,-373
15678,381,67,414,75,100,215,70,318,-68,-159,48,384,255,9,-422,-67,71,20,-5,-197,-402,-106,225,-60,51,-273,-281,-36,143,-248,-541,-269
15679,374,17,341,52,96,210,89,369,-83,-145,39,349,257,4,-402,-190,259,33,-19,-204,-417,-119,233,-74,60,-284,-286,-76,106,-315,-618,-398
15680,444,51,408,29,111,232,113,358,-67,-107,65,305,285,23,-408,-238,177,34,-30,-188,-407,-71,221,-90,50,-297,-254,-121,32,-414,-763,-529
15681,368,36,421,44,92,208,93,309,-81,-130,36,306,284,14,-416,-46,145,46,-35,-192,-420,-87,234,-67,62,-283,-281,-66,111,-314,-640,-404
15682,344,70,472,94,105,207,115,354,-64,-129,29,389,286,12,-416,179,89,78,-6,-172,-416,-67,239,-51,88,-273,-273,-79,112,-295,-611,-360
15683,320,39,565,116,114,214,120,361,-45,-136,25,349,310,34,-402,107,243,71,23,-180,-391,4,230,-54,98,-242,-207,-80,120,-266,-574,-293
15684,354,64,555,96,109,209,114,419,-47,-138,17,305,329,13,-416,-598,259,60,23,-195,-391,43,238,-59,103,-246,-183,-73,117,-249,-547,-229
15685,385,90,567,96,92,221,126,414,-47,-130,49,310,327,12,-410,-627,191,54,-10,-164,-373,43,244,-38,108,-237,-178,-16,118,-242,-522,-174
15686,442,95,578,116,113,251,171,433,-36,-129,99,349,339,31,-355,-6,162,90,2,-148,-337,-49,226,-50,83,-265,-204,-96,66,-291,-593,-363
15687,454,84,508,107,115,235,132,471,-43,-143,96,412,310,37,-362,374,177,103,-10,-156,-358,-91,223,-87,69,-304,-172,-89,25,-347,-669,-320
15688,376,14,468,103,104,205,90,413,-72,-159,38,477,308,17,-424,312,177,87,-17,-176,-348,31,210,-92,56,-279,-43,-122,40,-291,-599,-110
15689,335,3,468,133,109,229,117,399,-70,-134,78,408,324,12,-406,-44,92,69,-27,-176,-340,88,207,-119,31,-281,-15,-136,-1,-312,-596,-132
15690,327,-34,517,117,134,272,130,401,-53,-112,139,283,309,27,-354,51,26,41,-34,-165,-302,44,181,-127,33,-274,-19,-137,0,-305,-555,-170
15691,331,3,516,109,127,276,137,379,-83,-113,154,170,268,-6,-356,276,220,-5,-64,-171,-313,15,142,-156,5,-297,-26,-144,-77,-387,-636,-247
15692,340,68,466,85,138,290,109,378,-74,-135,125,276,244,-11,-391,423,191,-24,-75,-200,-319,59,141,-204,-3,-277,-26,-151,-124,-428,-697,-295
15693,296,78,379,110,150,302,122,402,-63,-110,98,477,242,9,-383,491,107,-6,-58,-163,-325,141,138,-192,36,-221,32,-183,-80,-346,-585,-247
15694,309,33,309,117,144,287,169,392,-55,-101,84,325,257,14,-389,494,177,-20,-37,-140,-319,115,97,-208,56,-205,47,-249,-98,-355,-575,-283
15695,342,1,351,115,115,238,179,400,-55,-126,17,147,265,2,-414,440,136,-52,-47,-143,-325,103,52,-220,60,-200,53,-256,-109,-330,-552,-202
15696,365,13,451,126,104,243,183,393,-62,-126,46,161,271,1,-401,382,124,-49,-63,-143,-323,73,27,-205,71,-199,-15,-263,-111,-328,-580,-334
15697,355,-8,501,85,95,256,160,389,-76,-140,110,135,282,13,-394,131,136,-5,-50,-132,-331,26,17,-176,68,-212,-99,-255,-86,-310,-526,-253
15698,339,-19,508,42,85,222,68,377,-77,-134,64,137,304,11,-419,-148,174,29,-29,-123,-339,51,39,-119,90,-199,-115,-232,-46,-262,-443,-107
15699,356,8,541,12,79,211,46,332,-71,-123,41,161,273,16,-418,-47,-23,-33,-42,-136,-362,45,25,-142,89,-223,-143,-244,-79,-339,-521,-224
15700,382,17,588,36,95,243,50,331,-67,-95,52,261,262,39,-370,250,6,11,-33,-110,-320,-86,124,-112,116,-197,-156,-159,-18,-348,-587,-370
15701,341,-28,544,24,75,224,86,295,-85,-108,32,266,254,34,-370,385,120,-10,-45,-84,-292,-84,171,-98,139,-143,-115,-45,77,-202,-463,-260
15702,314,-26,513,-4,78,211,105,266,-84,-119,31,301,220,34,-373,414,113,-38,-58,-91,-290,-24,127,-120,160,-138,-53,-189,43,-181,-386,-134
15703,320,-27,504,-31,72,209,105,257,-96,-116,36,310,203,43,-394,371,60,-47,-52,-103,-320,-243,131,-114,161,-153,-131,-181,17,-232,-435,-269
15704,286,-27,431,-30,67,206,109,235,-116,-103,17,277,193,33,-381,225,84,-58,-56,-107,-305,62,92,-96,140,-169,-93,-224,39,-243,-441,-197
15705,259,-45,353,-14,71,228,120,259,-84,-99,28,319,248,52,-374,7,96,-13,-61,-99,-342,36,135,-83,146,-206,-169,-140,57,-304,-599,-385
15706,209,-72,347,-28,63,223,98,219,-96,-103,55,272,214,52,-382,-208,36,-2,-82,-118,-351,-103,159,-93,158,-221,-225,-155,66,-285,-609,-430
15707,192,-73,351,-47,74,233,59,206,-108,-100,61,173,204,60,-367,-240,64,-32,-71,-129,-322,-60,100,-90,159,-198,-182,-172,84,-260,-556,-281
15708,186,-73,329,-53,49,250,75,232,-98,-110,57,126,202,41,-357,-170,6,-94,-64,-123,-342,-109,63,-118,130,-207,-219,-189,69,-288,-597,-306
15709,211,-94,353,-48,71,236,61,219,-129,-121,45,66,181,16,-399,-311,-51,-98,-80,-136,-391,-119,69,-137,129,-247,-260,-196,64,-297,-640,-334
15710,247,-89,405,-28,80,262,95,214,-127,-128,80,108,199,23,-411,-332,87,-90,-65,-164,-405,-120,91,-107,147,-269,-261,-170,95,-295,-652,-418
15711,208,-114,294,-28,36,241,27,214,-125,-132,47,111,187,22,-425,-104,6,-90,-90,-165,-418,-156,164,-112,154,-251,-228,-217,113,-276,-633,-418
15712,196,-108,241,-33,60,258,34,222,-116,-131,47,104,191,43,-385,200,-115,-69,-85,-120,-345,-68,200,-89,171,-194,-128,-198,153,-212,-566,-315
15713,183,-123,194,-22,74,258,43,195,-115,-101,71,114,190,53,-362,148,-20,-66,-41,-97,-307,-48,139,-72,206,-186,-73,-178,169,-171,-505,-292
15714,184,-80,200,-39,76,238,48,198,-127,-118,44,109,185,31,-396,-12,-51,-69,-68,-114,-338,-41,95,-90,209,-197,-85,-151,172,-196,-487,-303
15715,204,-77,246,-35,84,245,87,250,-127,-132,32,251,196,22,-413,182,-109,-47,-68,-117,-341,16,82,-73,198,-195,-92,-119,178,-221,-540,-289
15716,222,-43,336,-23,94,238,77,274,-134,-115,52,273,216,46,-391,363,168,-18,-54,-92,-313,61,129,-58,207,-190,-28,-21,219,-193,-591,-269
15717,191,-53,396,-25,65,205,84,254,-128,-139,38,150,228,43,-394,391,120,-17,-59,-107,-307,10,143,-49,193,-185,-16,-37,235,-164,-521,-233
15718,174,-39,456,-44,60,200,109,286,-117,-131,5,84,253,48,-428,391,23,9,-1,-105,-315,-22,138,-45,201,-203,-25,-102,197,-183,-512,-247
15719,181,-43,465,-41,54,205,116,279,-126,-121,55,22,270,53,-413,385,153,32,-9,-104,-286,64,169,-28,213,-176,-2,-85,192,-191,-460,-191
15720,261,-29,522,-1,74,234,113,287,-110,-113,93,92,281,59,-367,353,224,26,-8,-82,-225,129,223,1,231,-122,80,-29,254,-90,-367,-94
15721,276,-30,497,-4,91,241,92,271,-108,-127,100,201,267,62,-361,159,156,24,5,-70,-221,168,258,25,234,-107,83,32,311,-23,-293,2
15722,294,-5,470,1,98,248,119,260,-98,-93,99,258,258,64,-352,31,71,20,24,-85,-239,178,248,23,219,-150,29,-23,235,-134,-408,-36
15723,307,29,465,9,109,264,172,270,-92,-85,72,273,269,70,-354,65,117,22,4,-75,-247,90,251,10,217,-124,26,-69,208,-125,-360,-18
15724,266,11,438,30,114,264,140,283,-91,-111,65,287,274,74,-355,125,212,69,0,-49,-247,11,293,31,248,-86,74,-55,250,-2,-211,-3
15725,278,21,417,29,114,300,166,289,-84,-82,116,280,287,91,-321,169,143,81,28,-32,-224,25,276,37,276,-60,102,-43,267,36,-143,-84
15726,256,6,378,16,105,285,190,294,-103,-99,113,240,269,76,-340,117,14,62,2,-28,-239,25,250,9,258,-69,50,-65,214,-44,-281,-100
15727,246,-15,354,10,99,275,166,320,-85,-104,127,271,270,71,-339,100,39,68,-20,-44,-233,15,232,-2,219,-100,-55,-60,133,-206,-523,-211
15728,234,-6,316,-2,83,268,179,318,-104,-114,125,295,253,51,-342,146,176,40,-8,-60,-226,7,167,-25,203,-125,-127,-137,52,-282,-545,-375
15729,257,31,312,-9,83,273,226,268,-101,-113,110,120,237,53,-334,56,236,18,-16,-66,-251,96,132,-70,192,-145,-158,-182,-9,-339,-596,-386
15730,268,57,348,-2,95,299,220,277,-101,-88,122,144,239,67,-309,186,218,13,5,-43,-238,54,144,-63,221,-81,-97,-168,18,-266,-509,-274
15731,248,20,364,-47,82,270,174,245,-133,-93,108,268,225,54,-341,285,40,-11,-11,-50,-256,-120,119,-91,212,-126,-134,-186,20,-272,-520,-380
15732,235,-28,347,-59,77,262,161,238,-136,-91,84,197,215,65,-341,371,-173,-14,-25,-32,-234,-217,135,-58,232,-92,-53,-189,34,-200,-452,-259
15733,268,23,369,-21,105,294,160,241,-95,-67,82,185,238,95,-306,364,57,-19,-7,-10,-201,91,175,-8,281,-48,37,-171,50,-188,-449,-257
15734,214,-23,373,-51,87,290,86,225,-107,-68,129,178,248,71,-306,75,166,-13,-5,-20,-212,94,170,-26,276,-58,1,-131,73,-191,-443,-254
15735,166,-60,343,-61,85,285,119,251,-110,-55,130,145,231,63,-303,-413,149,1,-3,-3,-181,24,170,-38,289,-41,-19,-85,107,-158,-399,-169
15736,186,-63,384,-36,69,286,186,283,-98,-58,140,89,249,71,-281,-357,128,17,-16,5,-166,90,163,-21,267,-42,23,-60,107,-145,-412,-168
15737,268,24,532,20,108,344,267,336,-81,-44,213,134,309,89,-240,-93,230,88,26,43,-142,128,238,15,303,-12,66,11,181,-92,-347,-95
15738,269,18,535,19,96,334,252,355,-75,-71,213,192,347,84,-256,98,222,109,51,21,-133,156,280,39,313,-24,74,13,211,-94,-345,-87
15739,243,-20,510,-1,94,303,217,350,-85,-57,170,294,325,93,-302,332,272,108,64,24,-131,223,325,48,302,-18,91,60,258,-61,-329,8
15740,165,-102,464,-22,69,283,154,288,-98,-78,140,302,307,81,-289,498,247,118,80,27,-153,231,338,86,331,7,167,116,296,-30,-307,40
15741,150,-142,415,-23,64,285,114,316,-78,-75,138,343,323,111,-280,636,182,136,98,27,-115,270,353,119,348,22,227,160,332,1,-297,41
15742,176,-103,394,4,65,289,163,399,-90,-69,147,445,326,90,-276,650,242,145,67,22,-112,309,356,109,332,19,261,169,342,7,-277,84
15743,160,-90,396,-3,70,308,185,408,-68,-54,175,498,335,76,-276,565,343,170,115,18,-99,353,394,145,352,17,204,192,367,32,-248,120
15744,145,-96,430,-45,65,287,161,362,-102,-68,184,385,332,83,-263,249,298,139,83,26,-125,318,381,122,319,-25,184,182,369,0,-253,101
15745,181,-84,464,-39,75,295,159,305,-90,-78,197,276,310,78,-268,212,194,120,50,6,-149,273,383,122,298,-37,171,185,370,-1,-261,57
15746,139,-147,408,-32,79,285,150,320,-65,-65,215,273,329,103,-255,520,533,169,56,45,-58,358,441,155,330,28,270,228,418,68,-205,159
15747,23,-221,355,-29,67,270,160,338,-55,-52,202,302,356,135,-221,607,321,193,91,61,-13,343,475,199,382,62,298,263,466,93,-211,123
15748,11,-203,377,-21,55,255,214,311,-65,-69,176,347,355,96,-255,487,273,190,76,38,-58,366,479,222,366,41,246,255,477,99,-198,100
15749,58,-133,416,-7,79,291,301,336,-52,-69,226,376,352,98,-231,447,178,222,105,36,-35,408,487,221,371,48,209,259,502,137,-144,152
15750,25,-169,397,-20,73,293,269,343,-68,-84,225,349,347,92,-240,322,273,225,87,32,-38,326,530,225,362,30,140,207,462,77,-232,28
