,Fp1,Fp2,F7,F3,Fz,F4,F8,FC5,FC1,FC2,FC6,T7,C3,Cz,C4,T8,TP9,CP5,CP1,CP2,CP6,TP10,P7,P3,Pz,P4,P8,PO9,O1,Oz,O2,PO10
123809,-18,171,369,-49,320,486,468,353,277,68,368,1075,347,411,204,100,476,372,19,361,107,550,279,381,128,393,163,-7,306,36,238,228
123810,-12,193,404,-72,312,437,454,357,280,77,348,1066,369,411,204,92,520,389,30,364,97,511,348,426,135,380,92,119,347,56,253,396
123811,17,199,427,-104,307,419,347,357,271,47,325,1072,360,408,195,105,478,381,38,370,132,536,309,407,134,394,111,-92,335,76,265,490
123812,35,199,481,-44,316,476,333,395,282,47,367,1069,361,389,179,356,429,378,46,365,75,456,269,416,124,384,131,-185,334,86,289,403
123813,34,170,511,-27,325,514,345,375,285,77,453,1052,400,414,181,561,455,390,39,368,10,476,228,431,123,388,226,-74,348,130,322,318
123814,8,152,499,-18,316,512,314,339,282,67,461,1081,375,412,184,476,481,329,31,355,-4,459,184,402,109,380,218,-43,327,92,296,212
123815,28,134,471,-29,329,503,390,346,309,81,437,1175,376,412,210,411,518,391,58,381,46,440,233,433,162,372,126,6,334,79,277,368
123816,-17,72,390,-25,304,414,388,357,289,65,394,1145,388,424,174,397,525,406,60,384,9,464,232,431,159,370,40,93,370,97,289,399
123817,-22,99,405,-34,310,402,356,372,298,66,423,1119,375,431,192,390,467,391,81,398,82,498,235,460,171,423,164,166,405,162,346,441
123818,-29,107,398,-38,293,391,380,382,297,27,451,1146,370,423,192,332,461,398,74,387,67,467,255,450,158,407,102,57,410,167,342,443
123819,-16,120,458,-24,305,428,381,364,311,30,406,1140,389,405,194,321,497,385,84,386,70,554,241,465,185,432,112,30,442,183,371,459
123820,-5,165,482,-41,321,452,370,333,298,57,403,1091,368,412,219,336,540,363,66,404,81,612,167,437,189,448,209,52,416,207,371,524
123821,50,219,520,-41,310,393,417,347,278,59,358,1118,373,411,204,279,558,368,47,395,56,498,166,432,152,428,135,96,380,140,326,374
123822,66,245,540,-3,320,422,486,376,302,57,377,1102,387,403,207,139,503,362,57,387,104,461,163,427,154,411,102,139,348,79,286,208
123823,68,211,530,-15,333,478,463,313,293,67,386,1067,357,406,236,175,472,336,66,387,167,495,133,419,168,440,231,48,345,116,313,-72
123824,52,165,485,-31,342,526,406,339,297,79,420,1153,388,409,248,378,339,353,65,382,138,524,193,442,158,450,294,36,364,164,356,258
123825,49,182,529,-7,346,479,456,370,313,65,396,1266,399,386,211,446,442,397,66,348,9,494,274,467,160,395,107,108,410,197,376,566
123826,34,220,510,-9,336,453,497,379,305,57,389,1268,389,399,203,379,484,419,64,372,34,372,277,478,191,402,84,164,426,173,371,418
123827,28,225,486,-48,336,441,527,358,298,38,421,1174,380,401,233,381,580,411,58,374,87,413,287,485,198,429,186,113,417,185,378,392
123828,24,249,472,-21,317,433,496,345,291,41,435,1144,385,410,233,379,631,427,71,383,92,478,316,463,198,450,264,96,416,188,348,359
123829,12,250,429,-3,325,459,489,372,312,50,508,1179,419,444,284,357,547,460,93,420,152,565,366,512,244,496,276,121,494,216,427,359
123830,-6,234,467,3,315,441,464,419,314,47,495,1199,426,439,282,375,473,486,103,431,170,605,394,535,250,512,282,-63,484,258,458,435
123831,-39,184,431,32,295,407,446,466,295,23,435,1122,432,426,245,391,512,452,89,419,148,496,392,509,218,480,219,-5,469,234,429,401
123832,-52,155,414,37,296,389,453,553,307,13,273,1094,440,430,210,392,572,475,100,424,146,499,465,536,246,496,214,69,522,243,437,394
123833,-69,164,436,0,315,406,427,493,306,29,353,1101,435,436,244,300,594,461,113,407,145,499,425,532,249,479,225,33,509,245,450,381
123834,-57,161,502,-36,333,436,436,337,302,53,424,1160,419,426,253,357,609,431,96,420,137,466,309,485,222,464,209,69,438,187,394,322
123835,-52,197,517,-36,325,487,461,298,308,61,452,1120,389,415,247,380,553,388,82,406,125,446,234,458,214,457,211,121,398,201,393,469
123836,-33,198,502,-56,318,467,462,326,286,91,502,1065,389,429,260,397,569,384,86,406,127,533,232,476,225,461,204,186,404,227,409,496
123837,-24,169,454,-56,316,502,442,355,283,61,488,1038,412,415,236,375,557,384,105,402,138,553,216,486,214,457,235,222,404,192,392,489
123838,-33,162,451,-49,311,496,432,384,290,46,440,1074,404,426,212,368,565,390,87,387,132,608,216,475,194,452,265,202,392,188,360,520
123839,-48,117,447,-34,298,476,430,418,292,70,431,1088,418,426,208,401,508,377,99,388,147,608,182,450,171,452,320,117,378,174,355,340
123840,-77,134,443,-18,305,507,440,401,292,82,467,1104,424,429,219,372,499,392,83,384,149,544,209,454,173,445,364,95,402,140,311,71
123841,-120,121,463,-42,299,495,410,348,299,63,439,1106,384,420,196,352,532,412,63,374,103,571,264,449,168,418,280,-18,399,159,339,296
123842,-14,167,494,-30,311,483,403,350,286,65,455,1106,362,406,208,347,587,388,66,364,88,548,291,442,156,420,218,59,406,172,344,332
123843,31,223,494,-36,299,430,399,361,273,73,474,1100,364,406,227,333,535,384,56,357,84,491,263,451,166,414,242,106,383,147,344,286
123844,19,219,475,-51,328,455,409,359,265,73,483,1114,366,416,226,339,498,376,50,356,75,571,238,448,162,415,220,63,384,174,333,343
123845,46,239,502,-31,338,492,428,372,294,87,488,1160,379,431,246,367,567,406,85,395,96,557,341,479,184,441,207,124,459,185,376,390
123846,28,229,474,-31,312,508,490,377,290,64,487,1137,376,425,239,154,422,413,92,392,83,479,388,495,198,425,163,163,477,151,358,342
123847,58,211,463,-81,308,496,467,356,288,76,469,1133,352,427,255,-76,409,386,79,403,143,488,317,468,174,429,146,-40,388,132,326,392
123848,54,207,520,-2,329,451,451,396,313,83,446,1136,368,442,254,91,491,369,74,421,176,483,256,451,178,439,143,-80,341,151,353,432
123849,22,217,518,13,332,434,452,397,305,70,470,1099,366,428,233,454,445,357,85,410,109,549,228,452,197,435,164,-41,360,162,349,488
123850,-19,179,492,11,300,445,436,401,308,86,530,1078,405,436,242,586,488,358,75,437,41,614,226,441,179,434,121,17,363,158,342,501
123851,-46,143,432,-5,306,480,393,389,313,81,583,1066,419,420,221,499,504,353,60,413,24,593,210,432,179,433,150,117,383,169,346,511
123852,-56,148,400,-46,305,476,418,353,282,72,585,1049,383,407,211,430,485,339,53,388,47,476,227,422,158,422,157,177,382,138,314,442
123853,-65,146,401,-47,302,437,443,338,292,52,430,1052,394,420,211,453,426,361,75,413,113,438,207,441,157,436,312,189,404,157,344,316
123854,-42,128,412,-41,311,502,476,346,296,57,375,1030,384,442,228,496,395,390,92,407,173,513,233,484,171,463,410,153,425,198,374,332
123855,-61,106,312,-52,303,516,445,345,293,71,468,1013,368,430,225,421,405,335,90,393,116,540,204,469,176,429,234,68,416,187,378,488
123856,-113,108,250,-55,291,435,429,365,308,68,438,1067,395,430,220,313,433,346,71,381,53,542,245,466,185,402,136,164,437,171,362,490
123857,-141,89,279,-87,277,414,454,352,290,51,416,1063,377,444,189,256,438,376,60,375,72,575,259,459,182,397,187,-45,380,122,295,411
123858,-141,63,316,-72,279,410,437,338,299,44,416,1102,382,444,185,45,383,371,84,393,76,507,289,474,182,417,175,-199,371,111,291,370
123859,-166,37,322,-80,271,379,442,373,302,28,415,1148,380,444,190,109,369,374,79,389,78,466,272,448,164,418,126,-184,334,59,258,320
123860,-153,36,405,-64,279,362,359,391,309,17,363,1188,424,445,176,312,531,440,105,398,55,476,366,477,196,414,118,-20,373,101,307,363
123861,-95,56,480,-43,286,338,314,381,320,38,358,1186,434,440,162,415,546,450,112,408,26,444,383,501,199,403,108,112,436,152,346,373
123862,-72,48,473,-29,309,369,316,423,330,46,402,1191,435,446,167,366,499,440,122,375,5,530,320,490,204,404,117,74,401,137,320,317
123863,-22,96,465,-49,320,404,405,357,321,55,421,1139,419,455,196,339,501,426,127,404,42,592,311,467,220,417,154,60,389,132,301,293
123864,5,181,473,-34,331,444,472,354,303,62,452,1075,381,440,204,368,594,424,100,425,62,578,358,456,203,400,186,184,405,130,308,221
123865,12,244,436,-22,343,527,539,348,292,74,469,1036,375,457,246,407,603,419,95,434,77,566,385,476,187,417,193,238,405,133,332,241
123866,-14,233,393,-50,318,538,534,274,275,76,473,981,342,445,245,390,487,388,100,431,91,571,340,453,185,415,162,231,383,143,336,394
123867,-38,166,380,-64,307,490,496,269,280,82,497,942,335,452,253,356,355,351,90,425,92,484,236,432,199,420,168,144,356,128,324,432
123868,-66,127,403,-60,291,443,463,280,285,93,489,977,348,465,268,374,335,308,89,441,126,476,156,414,196,438,199,-165,337,133,325,510
123869,-79,119,383,-68,297,427,441,296,289,86,452,981,338,457,253,368,476,278,78,411,119,496,87,410,180,426,175,-147,278,72,278,474
123870,-78,158,359,-74,301,424,445,293,280,73,447,969,341,438,229,324,480,301,55,384,95,517,102,384,170,394,164,99,291,59,242,344
123871,-75,141,333,-50,303,462,371,301,290,67,432,990,340,438,235,160,453,295,57,383,113,406,155,388,160,371,160,56,309,45,242,213
123872,-54,171,355,-26,330,483,331,324,300,74,470,1004,351,426,260,179,395,294,63,381,143,388,163,364,148,399,241,-74,251,6,206,11
123873,4,181,388,-24,349,480,397,391,301,76,537,1016,359,413,263,402,417,296,40,373,136,385,206,333,114,375,292,-190,188,-67,123,-118
123874,23,204,400,0,340,393,449,451,308,72,509,1027,386,424,239,564,425,364,74,380,85,479,351,392,138,377,280,-213,286,0,191,-33
123875,18,203,394,-15,329,415,464,366,304,51,351,1023,364,409,200,453,415,364,60,375,99,502,364,429,167,434,389,-251,333,68,253,-18
123876,15,222,423,-36,324,436,453,298,287,35,395,1035,345,395,211,345,375,318,32,381,87,500,263,408,154,412,261,-229,308,60,269,278
123877,-12,225,417,-22,329,476,464,310,282,55,478,1062,355,413,249,322,438,312,51,392,46,534,183,393,169,391,43,3,306,94,312,513
123878,12,232,428,-25,318,465,423,342,278,48,446,1049,341,405,235,342,402,283,36,383,51,537,60,338,130,382,53,28,254,105,288,514
123879,14,212,442,-25,330,504,433,366,282,69,504,990,349,424,266,355,393,272,21,399,88,569,29,365,134,402,145,71,273,102,288,505
123880,51,198,469,-24,339,526,503,373,294,80,530,1001,361,431,271,256,405,282,39,398,125,555,75,380,145,416,193,94,301,113,307,477
123881,22,181,493,-34,334,543,481,377,289,75,485,1074,375,431,268,26,452,312,57,425,188,556,142,400,163,455,237,136,346,154,336,367
123882,47,184,457,-115,333,511,502,358,280,76,483,1113,378,439,273,266,577,370,91,443,225,538,242,452,191,498,325,223,389,163,342,65
123883,71,192,510,-62,361,530,576,376,293,80,474,1099,381,439,246,568,549,366,83,416,81,521,218,433,170,416,204,41,319,104,286,394
123884,66,212,536,-19,360,532,638,392,310,74,455,1127,391,436,244,546,585,412,96,418,8,572,271,473,176,394,116,128,377,124,327,545
123885,60,292,526,-21,360,493,569,409,304,64,447,1151,424,451,258,438,581,431,128,444,116,582,334,504,223,452,196,151,406,150,353,516
123886,41,312,519,-17,359,517,547,444,320,89,516,1161,450,463,289,496,591,423,146,460,144,643,311,510,233,458,280,171,406,151,353,408
123887,39,301,510,-18,346,539,537,452,302,95,545,1136,422,447,310,510,540,432,136,456,168,636,283,529,237,470,314,198,412,156,361,346
123888,40,332,516,-31,348,544,568,423,302,109,517,1113,408,459,300,542,488,393,119,453,165,632,202,481,224,479,294,143,382,145,343,400
123889,47,277,534,-30,351,550,584,409,300,120,561,1096,416,455,291,460,592,400,112,449,142,615,227,484,205,455,267,179,391,147,328,392
123890,48,222,488,-22,343,568,595,437,314,102,541,1162,429,449,258,397,732,438,109,424,113,612,318,485,197,428,207,220,425,165,365,427
123891,8,175,439,-27,332,541,581,449,303,84,524,1250,439,443,258,371,645,430,93,401,90,542,315,473,183,406,150,233,439,183,374,453
123892,28,203,482,6,332,508,567,515,323,80,512,1312,450,443,259,379,557,485,117,428,116,456,368,513,188,422,189,167,482,210,385,454
123893,40,246,499,11,327,498,576,492,326,83,503,1262,452,451,249,430,524,497,106,437,119,501,413,513,210,449,248,124,469,214,411,369
123894,62,269,535,-4,341,495,603,389,305,91,547,1199,412,463,284,447,581,458,107,429,134,640,425,529,215,465,295,180,478,225,398,432
123895,96,266,574,8,334,503,566,384,305,88,546,1158,425,445,284,447,593,464,97,433,143,752,414,516,194,455,278,284,445,184,382,488
123896,61,258,554,13,333,479,564,391,300,76,493,1124,419,427,256,421,564,470,83,417,127,760,381,516,177,468,247,211,437,199,400,492
123897,23,263,526,-25,330,490,558,384,281,87,521,1110,388,437,266,364,595,426,65,423,126,738,287,483,195,461,269,150,425,236,431,447
123898,-11,280,545,-16,353,526,573,411,302,109,610,1180,423,450,289,386,632,402,97,446,138,680,340,507,188,440,239,205,442,228,425,446
123899,-27,259,542,15,340,506,617,446,304,101,596,1208,448,446,289,441,662,448,110,437,158,606,382,539,178,463,261,197,476,249,430,448
123900,29,246,496,-7,319,543,657,406,292,108,586,1165,436,456,321,502,595,437,110,450,194,609,377,533,199,488,346,172,478,267,455,468
123901,84,295,495,12,335,547,673,422,310,95,467,1170,466,478,282,524,614,465,133,468,192,671,445,544,223,494,339,18,491,263,472,488
123902,65,232,480,-30,319,533,513,410,284,80,451,1158,435,465,275,482,688,462,125,442,147,595,467,523,207,449,284,-54,429,196,403,458
123903,13,247,485,-51,318,530,514,376,277,78,515,1141,419,455,307,366,654,460,114,444,217,568,480,506,194,460,358,-144,377,162,342,306
123904,0,218,454,-46,326,527,501,373,282,83,566,1119,420,463,343,315,576,422,113,472,302,603,396,481,210,519,539,-139,354,170,343,158
123905,-6,178,432,-46,316,501,446,388,276,105,550,1116,411,459,325,433,506,419,103,441,286,702,330,464,195,517,524,100,337,146,329,310
123906,-5,167,441,-23,321,504,460,427,298,123,531,1148,429,463,288,561,475,403,92,427,145,696,261,475,188,458,280,-4,352,168,375,550
123907,39,174,459,-40,319,463,474,429,307,85,492,1154,430,459,262,466,561,373,104,405,75,637,198,467,183,420,180,86,396,218,381,634
123908,68,209,471,-36,307,459,490,386,280,71,505,1094,376,436,261,264,450,340,79,388,111,637,111,442,151,424,223,88,342,194,379,647
123909,52,261,464,-21,320,505,527,397,300,83,464,1107,409,437,269,212,395,359,82,402,149,674,149,436,175,418,216,121,341,177,357,594
123910,40,255,463,-36,306,472,531,452,296,77,420,1098,413,413,232,396,486,340,67,376,115,675,152,412,157,383,165,172,346,123,319,395
123911,47,206,432,-38,300,419,501,439,276,50,450,1109,383,415,232,541,428,342,55,384,103,690,141,408,151,400,179,96,338,114,300,394
123912,61,224,375,-40,314,431,544,396,289,65,478,1160,410,457,264,530,461,385,92,397,82,689,204,444,185,410,181,214,389,181,355,432
123913,22,187,359,-85,308,447,503,345,285,76,495,1106,405,453,269,436,587,405,84,410,105,656,255,466,192,431,201,362,453,218,411,491
123914,-8,148,393,-32,321,483,483,364,282,86,487,1061,399,469,283,291,580,371,92,436,127,637,229,458,175,428,225,237,388,198,400,538
123915,-18,141,372,-41,316,481,506,378,278,91,468,1071,397,459,275,77,538,359,84,435,208,649,188,426,208,452,253,92,341,210,408,615
123916,-41,151,355,-43,290,488,485,377,285,101,438,1086,408,449,263,296,547,380,106,434,211,634,231,458,210,463,256,144,379,223,416,526
123917,-20,165,416,-30,295,518,471,404,291,98,477,1100,412,470,238,601,533,387,113,410,67,611,221,474,166,410,143,159,359,138,341,290
123918,-22,175,402,-64,290,482,481,386,288,81,511,1111,427,461,255,649,499,410,124,431,50,586,296,512,182,418,139,231,389,175,357,279
123919,-30,155,349,-82,261,462,484,365,266,68,484,1099,412,458,243,462,433,417,107,419,88,591,315,499,185,441,208,184,399,192,384,333
123920,-27,139,360,-80,260,518,470,421,277,68,539,1096,411,452,238,439,464,375,82,406,107,608,230,466,180,423,205,-5,306,125,320,307
123921,-12,135,381,-102,276,507,486,364,283,94,592,1106,425,482,290,420,558,419,103,431,156,675,301,511,180,466,237,-26,379,211,388,454
123922,-57,144,339,-97,260,455,530,335,278,81,582,1076,432,465,269,395,527,413,101,424,121,608,345,501,173,445,192,9,360,145,354,370
123923,-64,151,372,-88,278,453,540,322,282,76,510,1065,410,465,250,416,432,414,105,424,110,604,297,488,184,438,175,8,337,126,323,323
123924,-10,167,397,-46,294,431,556,353,306,66,313,1087,440,480,224,450,454,412,123,433,131,654,244,491,199,464,233,143,374,190,367,371
123925,4,164,418,-27,301,446,516,383,313,73,420,1077,468,472,257,361,478,387,123,447,132,639,196,472,210,475,264,142,351,191,381,379
123926,0,101,402,-54,283,440,546,350,285,47,412,1055,419,456,257,194,403,354,94,448,170,586,142,434,182,465,271,56,318,142,340,98
123927,13,83,403,-40,305,460,551,350,302,90,403,1058,428,476,295,220,483,389,120,500,251,563,216,490,228,526,380,138,383,172,384,126
123928,28,88,429,-16,282,445,417,360,289,92,405,1065,427,480,281,364,502,408,132,487,199,530,254,508,233,498,274,124,434,208,430,363
123929,31,141,438,-42,264,406,402,368,272,56,370,1082,425,450,217,495,486,383,100,436,76,570,228,483,205,448,214,76,382,174,395,366
123930,14,179,420,-61,295,463,447,364,304,86,424,1107,448,477,240,457,502,393,110,446,85,536,244,481,195,456,228,63,378,179,381,415
123931,15,196,411,-49,298,479,426,352,283,84,424,1074,447,455,250,385,500,416,101,450,103,533,274,485,196,446,181,38,383,197,373,448
123932,10,202,431,-33,288,481,431,352,290,100,426,1063,458,464,259,372,542,446,151,461,100,540,338,521,217,457,134,131,437,206,397,387
123933,61,239,475,-38,283,467,496,395,289,73,399,1100,449,479,265,373,514,427,159,480,129,547,295,516,236,482,194,147,449,212,419,426
123934,49,216,444,-28,288,468,481,436,281,99,442,1149,467,490,310,407,517,427,152,500,193,584,280,519,256,518,267,124,447,256,432,483
123935,-6,197,404,-22,292,464,471,403,285,80,465,1153,477,497,326,416,575,458,167,509,175,596,314,533,276,520,305,184,467,289,475,495
123936,-10,171,403,-35,283,493,459,390,275,91,446,1115,465,490,322,405,583,446,160,499,166,619,305,523,291,508,298,177,445,254,463,436
123937,38,193,463,-47,290,490,471,387,279,106,464,1106,451,501,358,418,589,437,141,518,200,628,306,503,276,539,338,143,431,240,430,433
123938,8,163,434,-78,275,482,449,363,257,74,461,1087,429,469,334,397,554,405,109,480,179,607,293,485,237,506,307,101,410,241,411,461
123939,17,224,420,-72,307,499,496,361,282,90,497,1110,448,482,341,452,563,406,103,484,182,608,300,493,228,502,313,127,410,258,428,509
123940,51,244,431,-56,304,490,499,362,276,75,512,1114,432,461,306,465,538,395,101,477,171,530,281,476,205,493,317,122,403,242,428,485
123941,52,252,430,-13,297,489,487,357,297,99,501,1121,446,466,305,469,560,421,116,468,164,537,312,477,215,484,318,112,423,248,448,466
123942,30,243,446,-27,317,474,514,380,281,92,500,1133,428,464,285,455,564,434,112,465,183,574,356,497,204,495,327,103,445,263,440,392
123943,52,246,489,-8,333,459,502,384,276,96,464,1145,431,441,282,354,572,419,86,459,194,534,392,507,206,479,378,153,464,257,441,237
123944,37,218,461,-33,326,484,486,394,285,78,471,1137,423,434,288,50,602,403,79,456,226,576,376,487,193,509,451,228,467,282,452,357
123945,10,161,432,-30,313,484,448,372,276,67,500,1082,402,417,258,181,523,371,44,419,199,553,294,450,145,467,340,192,412,244,425,476
123946,36,153,444,-17,335,490,455,386,288,90,548,1089,403,412,258,589,524,362,45,401,114,605,260,434,124,439,293,146,402,245,450,569
123947,30,156,414,-30,315,464,427,378,302,92,560,1101,390,405,274,608,490,355,29,404,51,712,250,430,132,436,320,55,390,243,453,458
123948,9,176,359,-60,311,479,471,353,277,72,412,1113,386,417,247,270,564,372,24,406,154,678,294,459,154,459,487,120,394,231,415,-53
123949,17,152,389,-37,316,518,488,410,276,61,391,1111,405,434,250,438,522,387,34,413,171,701,277,440,167,462,470,48,364,200,394,248
123950,5,163,422,-13,311,470,466,422,284,57,447,1160,401,422,240,592,520,403,52,394,126,694,304,437,142,402,262,78,384,195,389,565
123951,22,163,480,0,334,526,501,419,292,77,485,1187,408,403,255,564,554,418,73,391,80,578,323,478,134,397,179,191,432,233,417,507
123952,-14,146,460,-22,336,548,497,366,286,89,530,1131,408,401,259,303,456,408,77,396,86,448,315,462,151,392,72,213,467,226,410,425
123953,15,121,447,-45,337,554,486,354,283,110,569,1131,408,425,285,255,469,439,94,411,115,474,358,500,161,420,160,138,490,245,426,380
123954,24,146,442,-122,346,484,463,326,263,86,474,1144,404,419,256,472,538,461,90,412,97,518,470,519,173,408,250,-7,469,232,418,392
123955,31,182,430,-43,353,486,492,351,272,100,458,1179,410,414,233,591,526,477,88,382,33,556,499,511,143,366,220,-120,412,189,361,483
123956,32,176,406,-14,343,545,485,360,267,90,460,1195,416,419,211,466,408,470,89,381,23,566,487,497,150,359,96,-184,404,183,357,466
123957,13,123,363,-45,313,554,455,353,253,70,431,1208,401,413,200,396,389,416,93,365,28,556,425,459,140,367,83,-84,388,178,368,421
123958,-20,136,361,-51,317,536,433,336,251,91,438,1104,369,425,192,373,338,347,68,360,29,610,266,419,134,349,78,-113,306,127,306,394
