,Fp1,Fp2,F7,F3,Fz,F4,F8,FC5,FC1,FC2,FC6,T7,C3,Cz,C4,T8,TP9,CP5,CP1,CP2,CP6,TP10,P7,P3,Pz,P4,P8,PO9,O1,Oz,O2,PO10
218723,-198,184,95,-187,62,382,468,186,-87,-90,426,259,71,-338,205,301,350,-21,-118,137,-137,432,294,-20,-139,208,353,154,251,68,1,463
218724,-203,106,111,-208,64,375,429,205,-95,-99,398,245,82,-344,187,277,393,-60,-124,135,-146,405,274,-21,-158,218,356,168,276,86,36,494
218725,-336,19,193,-209,63,383,396,141,-114,-89,380,269,65,-329,205,239,356,-55,-128,129,-147,426,298,-8,-144,247,385,200,288,146,90,529
218726,-386,31,276,-168,54,397,382,129,-91,-84,391,283,78,-321,220,241,339,6,-103,147,-133,439,366,20,-133,269,382,223,315,148,90,550
218727,-320,54,223,-275,29,415,384,129,-101,-95,388,261,70,-324,219,248,397,3,-106,146,-151,406,342,0,-125,255,406,209,308,125,63,530
218728,-300,36,175,-241,23,410,373,159,-97,-90,394,260,89,-314,206,238,394,17,-105,143,-166,374,351,22,-134,216,375,246,302,129,25,449
218729,-306,56,63,-189,27,396,349,284,-101,-97,400,257,103,-332,214,221,392,25,-123,133,-151,374,351,6,-142,229,373,260,315,112,49,456
218730,-215,141,106,-164,32,399,381,361,-90,-87,385,187,125,-331,227,230,374,42,-121,147,-147,373,295,-8,-142,239,394,176,286,106,56,495
218731,-228,194,123,-171,35,418,404,239,-82,-75,394,165,81,-321,234,247,453,-23,-116,147,-131,348,246,-15,-139,240,398,206,287,147,67,498
218732,-213,172,129,-198,45,417,408,139,-108,-89,399,192,29,-319,232,254,472,-124,-133,138,-133,379,226,-23,-135,247,427,204,289,118,84,546
218733,-155,172,162,-228,36,427,403,125,-102,-76,421,271,50,-343,220,239,345,-47,-122,152,-146,338,312,-11,-142,240,387,187,306,135,67,508
218734,-177,176,134,-270,29,437,422,105,-131,-76,404,296,59,-333,210,221,276,2,-124,145,-172,292,363,9,-142,229,374,219,333,164,61,452
218735,-207,167,151,-331,25,439,413,70,-132,-73,405,267,41,-324,221,247,312,-49,-135,135,-165,279,312,-30,-144,216,401,197,306,143,80,509
218736,-201,144,172,-337,29,433,401,71,-118,-73,412,251,33,-318,221,254,313,-44,-138,130,-159,283,304,-53,-162,218,389,163,296,107,43,520
218737,-241,113,170,-335,20,409,393,23,-143,-101,390,214,33,-341,195,218,283,-69,-172,115,-185,366,260,-56,-199,186,353,137,253,70,-10,456
218738,-248,138,163,-315,12,424,407,41,-121,-92,403,176,28,-321,228,253,285,-79,-123,147,-181,337,255,-57,-153,207,382,143,273,97,5,431
218739,-333,87,21,-287,17,391,392,72,-110,-86,398,181,18,-306,228,232,249,-103,-117,149,-189,340,247,-59,-148,204,366,114,283,110,25,468
218740,-445,13,-138,-250,5,361,341,112,-111,-92,363,117,13,-313,213,241,202,-109,-143,127,-217,306,238,-43,-140,170,304,104,258,90,-18,401
218741,-438,67,-33,-158,19,365,348,94,-106,-73,367,117,41,-311,220,318,201,-82,-119,164,-206,312,240,-27,-109,193,325,122,269,97,23,421
218742,-317,133,26,-191,17,386,418,-25,-100,-57,409,197,63,-301,245,308,258,-66,-90,178,-158,353,285,-3,-95,226,357,177,317,131,37,458
218743,-350,107,42,-250,8,412,428,-130,-108,-68,422,244,64,-296,233,241,268,-46,-97,175,-166,263,278,-3,-115,201,321,156,289,123,-11,395
218744,-455,7,50,-225,8,417,412,135,-100,-95,390,223,84,-276,222,63,267,-42,-83,172,-202,283,255,-16,-122,184,304,122,250,98,-15,358
218745,-449,-20,75,-257,-4,404,353,101,-115,-95,354,162,64,-274,192,62,283,-132,-118,154,-203,327,204,-50,-120,176,311,113,247,86,-6,399
218746,-370,21,150,-292,-6,380,311,-7,-118,-84,340,178,51,-282,186,174,195,-87,-121,149,-198,338,223,-56,-130,182,320,112,231,78,-21,416
218747,-337,75,181,-307,-11,384,345,-21,-127,-104,333,166,39,-290,197,174,211,-89,-115,148,-202,313,209,-69,-141,181,315,123,218,40,-23,388
218748,-233,85,114,-332,0,375,364,19,-103,-102,356,172,38,-281,208,172,281,-125,-112,148,-195,314,180,-89,-142,178,324,142,211,60,-29,351
218749,-214,30,91,-328,-3,301,343,53,-113,-100,353,177,47,-286,208,177,242,-137,-117,153,-186,318,179,-95,-137,203,337,110,210,55,-29,400
218750,-241,-43,45,-339,-4,279,351,70,-122,-118,333,170,39,-294,197,169,199,-134,-123,156,-182,325,184,-94,-159,198,339,94,187,23,-25,407
218751,-265,-156,64,-343,-9,356,328,64,-120,-96,351,158,14,-274,185,162,211,-150,-130,142,-184,305,176,-106,-170,193,339,100,174,55,-29,422
218752,-264,-107,117,-401,0,419,317,24,-141,-84,367,150,8,-301,205,189,202,-164,-156,154,-184,309,155,-129,-188,200,338,71,164,39,-1,451
218753,-287,-59,135,-349,18,458,323,25,-129,-91,372,149,15,-300,214,214,209,-147,-156,175,-173,310,185,-118,-176,215,369,91,181,35,-1,480
218754,-270,-92,149,-325,-3,465,325,33,-143,-82,374,131,5,-309,216,214,205,-165,-154,166,-181,275,157,-128,-165,209,339,103,174,38,-34,408
218755,-263,-77,76,-325,-6,475,363,50,-133,-85,410,158,12,-296,228,222,229,-151,-127,162,-178,303,169,-131,-149,207,330,104,173,31,-25,356
218756,-323,-87,-44,-314,1,487,317,51,-140,-90,463,141,16,-305,222,199,200,-169,-152,154,-165,309,154,-146,-182,193,324,105,155,15,-39,365
218757,-355,-59,-89,-271,-3,463,330,57,-141,-96,476,106,-6,-299,220,180,145,-215,-178,149,-162,299,104,-172,-185,183,322,49,114,8,-58,384
218758,-299,83,-14,-246,2,441,386,92,-103,-80,533,140,13,-293,249,253,162,-185,-173,174,-154,219,97,-162,-175,206,355,-7,110,-8,-57,378
218759,-245,200,72,-177,18,417,375,113,-109,-85,497,170,29,-306,253,277,214,-173,-175,170,-131,332,106,-174,-166,236,388,45,151,24,-6,470
218760,-181,217,108,-217,18,391,415,117,-120,-81,381,153,16,-320,222,246,247,-189,-162,124,-150,424,116,-185,-189,210,357,52,144,16,-23,411
218761,-223,213,102,-201,23,440,455,137,-103,-73,294,110,28,-313,220,250,284,-205,-164,134,-159,401,140,-179,-182,208,352,79,139,0,-36,357
218762,-304,145,47,-155,15,466,437,188,-82,-90,295,108,48,-285,212,278,207,-172,-170,138,-138,393,168,-186,-174,202,355,80,144,19,-18,395
218763,-347,133,57,-185,12,440,455,121,-88,-98,356,122,47,-276,201,265,195,-164,-161,145,-153,327,160,-178,-183,187,353,81,151,10,-32,375
218764,-382,149,106,-195,16,405,439,75,-101,-95,372,91,36,-279,200,280,275,-177,-145,120,-151,338,157,-157,-197,189,330,58,151,-7,-41,411
218765,-390,131,155,-200,33,430,412,113,-110,-86,395,85,37,-274,221,282,194,-148,-153,119,-157,334,189,-143,-192,183,348,75,184,32,-13,463
218766,-314,98,154,-230,39,381,392,134,-116,-97,341,117,65,-287,213,253,214,-108,-161,135,-172,315,222,-142,-185,169,338,88,195,53,-22,400
218767,-228,102,93,-276,51,409,379,136,-120,-80,372,168,59,-274,217,235,232,-85,-165,117,-183,359,216,-121,-191,160,301,95,173,29,-56,366
218768,-181,113,71,-320,45,448,424,156,-106,-63,439,198,71,-281,235,263,260,-114,-143,136,-152,379,220,-105,-153,171,345,126,202,55,-37,433
218769,-203,188,25,-294,62,483,464,169,-104,-65,429,260,60,-291,239,296,281,-106,-145,133,-139,388,215,-125,-163,173,373,129,184,40,-23,453
218770,-250,205,-16,-255,53,446,481,165,-117,-96,435,238,54,-330,227,314,235,-120,-165,102,-155,286,200,-150,-189,154,352,100,150,0,-63,448
218771,-255,230,-74,-202,53,396,489,241,-118,-96,440,233,56,-322,224,368,215,-104,-164,110,-163,258,186,-150,-199,146,341,67,124,-33,-77,452
218772,-290,208,-12,-196,76,335,470,193,-116,-95,435,195,22,-319,237,381,254,-158,-188,112,-159,311,119,-178,-211,117,302,66,100,-48,-104,403
218773,-318,139,12,-216,90,329,493,103,-112,-99,445,173,25,-310,231,343,183,-138,-176,106,-169,228,142,-164,-214,107,248,57,88,-59,-141,315
218774,-317,133,1,-277,64,392,453,56,-139,-108,449,161,28,-335,222,185,115,-155,-184,96,-189,131,111,-182,-232,76,205,-32,33,-144,-181,284
218775,-347,155,66,-303,35,378,405,48,-149,-115,399,142,-14,-337,188,59,145,-205,-198,71,-203,336,114,-201,-247,74,246,-30,39,-127,-162,338
218776,-288,198,21,-270,59,448,441,115,-136,-91,417,178,23,-316,209,214,128,-144,-188,81,-214,277,147,-168,-236,84,274,-25,60,-105,-156,356
218777,-235,161,-61,-291,48,448,399,142,-130,-85,421,151,25,-315,200,245,92,-150,-179,75,-214,230,103,-172,-256,76,277,-48,52,-121,-176,332
218778,-227,64,21,-342,27,392,319,9,-156,-104,365,89,-5,-346,171,171,43,-210,-204,44,-238,267,67,-207,-284,44,237,-93,3,-133,-212,274
218779,-274,0,4,-294,37,412,342,-20,-135,-103,365,86,0,-327,192,156,44,-209,-190,53,-240,203,56,-219,-285,51,216,-97,19,-149,-230,222
218780,-342,28,-123,-319,30,403,338,62,-110,-69,367,44,19,-307,208,168,50,-221,-187,74,-216,166,40,-201,-264,68,253,-54,74,-125,-181,279
218781,-430,83,-122,-244,47,425,380,-126,-144,-101,390,83,4,-313,205,199,67,-202,-180,89,-195,106,49,-202,-258,72,268,-28,68,-97,-165,279
218782,-277,118,-15,-272,42,437,428,-195,-135,-100,400,111,-2,-305,233,203,76,-185,-181,113,-181,264,54,-183,-244,125,313,-25,55,-95,-157,314
218783,-223,106,69,-231,49,442,451,66,-112,-79,386,86,19,-287,239,195,71,-194,-178,101,-168,317,45,-186,-227,129,305,-48,56,-106,-147,353
218784,-264,7,87,-283,41,405,428,10,-151,-117,369,70,4,-305,221,172,72,-208,-177,98,-195,205,26,-198,-258,115,262,-50,41,-111,-146,318
218785,-325,-24,50,-322,22,399,397,-8,-148,-119,312,69,-5,-306,225,164,120,-215,-172,97,-195,228,24,-195,-233,134,284,23,95,-89,-122,309
218786,-340,-93,43,-342,26,419,342,17,-140,-95,316,49,-6,-287,223,167,120,-208,-166,105,-214,277,26,-168,-226,150,312,6,118,-66,-101,319
218787,-296,-101,70,-349,22,394,293,-40,-149,-98,341,26,-32,-278,222,154,118,-223,-165,120,-191,237,23,-150,-217,159,318,-27,134,-37,-76,340
218788,-349,-68,35,-353,5,385,314,-81,-154,-103,350,22,-40,-271,220,156,106,-248,-166,94,-208,296,28,-169,-223,155,300,-24,146,-28,-60,392
218789,-398,-34,3,-358,1,383,278,-32,-144,-100,310,37,-37,-292,209,160,30,-235,-193,80,-237,277,59,-172,-243,142,277,-46,131,-67,-110,320
218790,-400,11,40,-331,-1,389,275,1,-137,-107,316,58,-31,-301,200,153,26,-231,-232,81,-256,261,60,-186,-262,133,249,-11,142,-79,-119,285
218791,-394,134,75,-321,5,371,348,-15,-135,-119,380,57,-39,-310,200,155,73,-225,-226,88,-241,284,56,-184,-254,135,276,0,154,-49,-104,369
218792,-305,245,129,-290,18,410,423,12,-144,-96,464,77,-30,-304,211,188,103,-207,-215,89,-214,244,58,-171,-255,137,299,18,164,-31,-74,355
218793,-296,131,111,-277,1,460,452,23,-149,-64,485,96,-39,-317,227,198,116,-215,-223,95,-236,202,50,-176,-257,120,273,6,137,-61,-97,283
218794,-271,87,110,-331,18,504,420,-10,-177,-74,464,81,-62,-334,229,182,103,-236,-256,90,-238,217,48,-194,-274,113,279,-13,126,-67,-131,268
218795,-272,105,42,-336,21,500,405,-20,-166,-89,360,77,-61,-338,205,161,118,-229,-274,65,-250,262,70,-222,-281,112,274,-9,118,-43,-108,299
218796,-308,109,-14,-328,10,462,463,37,-132,-90,248,64,-52,-319,181,173,144,-196,-245,52,-243,230,94,-210,-280,107,291,50,148,-57,-79,336
218797,-355,71,-36,-346,-15,409,384,12,-140,-107,223,51,-65,-335,169,199,165,-201,-224,57,-228,288,113,-183,-269,104,306,85,168,-20,-67,352
218798,-378,116,-38,-333,1,379,343,-14,-141,-95,326,62,-30,-291,196,278,199,-158,-184,76,-196,323,158,-135,-237,135,344,107,206,15,-43,381
218799,-422,95,-28,-336,-3,314,347,-22,-150,-97,315,58,-5,-277,199,250,187,-145,-177,74,-230,310,151,-146,-238,128,346,79,188,-12,-74,363
218800,-409,-1,-20,-377,-22,281,316,-57,-168,-125,325,109,-29,-307,180,162,173,-184,-206,60,-240,279,130,-158,-263,113,328,59,163,-26,-103,335
218801,-363,46,-28,-337,-13,313,381,-50,-147,-127,333,148,-31,-313,197,63,188,-169,-218,57,-237,155,135,-159,-268,112,311,36,158,-15,-88,341
218802,-336,102,-48,-348,-13,347,389,-10,-154,-136,302,138,-13,-315,156,-37,149,-147,-227,48,-264,249,134,-173,-271,89,301,54,174,-14,-82,377
218803,-309,108,-35,-340,12,405,356,21,-140,-113,300,148,-1,-315,163,115,185,-132,-206,57,-240,379,170,-161,-248,117,352,90,206,8,-51,444
218804,-331,72,-74,-374,14,425,355,37,-143,-102,296,138,-13,-303,180,175,240,-173,-203,64,-225,300,141,-156,-249,129,367,83,164,-17,-64,434
218805,-356,7,-111,-327,7,428,349,48,-120,-87,305,143,1,-287,218,167,237,-132,-182,95,-202,322,149,-135,-214,160,373,98,179,1,-55,396
218806,-391,8,-216,-240,7,402,308,103,-97,-96,299,139,0,-291,193,149,220,-147,-185,89,-228,284,139,-159,-219,143,367,92,178,11,-56,411
218807,-479,-9,-323,-187,8,374,290,143,-107,-114,285,81,-21,-321,135,91,122,-204,-226,35,-286,231,88,-208,-288,90,316,15,127,-41,-112,319
218808,-561,-13,-222,-126,18,399,290,117,-112,-120,280,53,-33,-312,133,60,102,-207,-225,36,-316,210,69,-201,-295,60,281,11,97,-115,-183,225
218809,-570,95,-220,-205,22,405,251,126,-119,-98,253,41,-33,-319,121,21,90,-212,-217,37,-327,203,53,-193,-296,56,250,16,95,-95,-161,265
218810,-488,64,-222,-347,10,386,235,53,-138,-111,199,17,-48,-328,96,14,21,-241,-247,1,-335,146,34,-199,-308,51,246,-18,107,-93,-152,297
218811,-405,49,-129,-255,31,378,256,27,-131,-128,202,2,-63,-327,85,34,4,-244,-244,-5,-356,58,12,-216,-320,34,205,-80,57,-138,-182,223
218812,-291,53,-51,-287,52,351,275,17,-121,-135,211,21,-45,-340,66,9,13,-248,-234,-8,-362,112,23,-213,-318,9,170,-79,52,-182,-233,157
218813,-339,25,-57,-321,28,320,262,-27,-150,-143,208,-5,-68,-349,69,-4,32,-251,-257,-14,-364,131,24,-212,-325,2,198,-74,34,-172,-237,221
218814,-399,52,-121,-342,17,331,281,-26,-151,-146,221,-19,-65,-339,97,33,52,-239,-253,-1,-335,199,7,-197,-320,39,283,-61,56,-152,-206,306
218815,-429,115,-108,-336,11,330,323,-28,-146,-143,251,-2,-54,-334,103,74,97,-243,-237,5,-304,218,-15,-201,-304,62,283,-65,63,-141,-180,310
218816,-396,147,-33,-327,18,327,282,-16,-138,-129,286,32,-31,-341,122,111,129,-218,-212,35,-287,180,23,-183,-273,72,265,-51,73,-132,-192,221
218817,-369,142,18,-331,7,331,282,9,-136,-133,262,87,-11,-331,141,122,105,-171,-197,42,-263,191,92,-143,-258,108,295,-50,103,-103,-134,259
218818,-292,157,77,-325,22,468,326,34,-106,-83,321,121,-1,-305,172,192,102,-141,-159,82,-196,248,133,-105,-196,170,359,24,168,-17,-38,389
218819,-273,49,66,-324,21,528,299,54,-108,-97,348,134,4,-299,181,216,117,-125,-148,112,-169,272,143,-82,-168,199,396,55,200,36,-3,413
218820,-224,10,73,-320,24,539,380,29,-127,-97,376,151,6,-299,202,223,173,-92,-142,136,-163,268,165,-61,-149,199,388,41,209,3,-41,356
218821,-242,82,23,-309,21,494,388,15,-125,-93,362,144,9,-325,184,192,185,-95,-155,112,-185,226,175,-60,-170,193,352,62,188,-6,-85,271
218822,-238,121,60,-250,39,454,422,50,-107,-89,352,107,34,-324,194,193,194,-78,-129,120,-194,231,190,-49,-164,209,347,75,181,15,-54,328
218823,-295,119,67,-189,45,332,420,81,-95,-101,350,133,57,-312,194,194,219,-38,-101,134,-183,209,201,-23,-124,224,358,70,203,23,-8,366
218824,-306,49,56,-232,45,336,324,119,-104,-91,363,91,68,-305,223,193,273,-63,-95,144,-173,242,197,-50,-127,222,319,81,189,0,-32,332
218825,-338,23,45,-204,42,386,322,176,-97,-77,386,155,54,-292,213,169,254,-88,-118,147,-190,265,184,-57,-124,206,299,67,172,-9,-67,329
218826,-433,64,70,-172,42,413,344,165,-94,-76,357,184,70,-284,222,173,191,-51,-102,151,-221,259,202,-42,-113,198,297,71,178,8,-46,340
218827,-434,101,83,-123,61,413,402,122,-107,-67,353,191,96,-302,216,166,211,-34,-91,158,-201,258,218,-45,-119,213,303,96,195,39,-36,314
218828,-382,36,41,-158,47,425,421,79,-99,-79,418,195,76,-293,224,274,206,-62,-104,147,-189,207,191,-66,-125,204,306,48,170,18,-47,321
218829,-313,51,15,-200,60,448,418,102,-107,-71,411,148,87,-261,242,319,199,-64,-91,151,-188,180,189,-53,-146,192,293,51,182,7,-43,351
218830,-216,148,38,-214,51,458,420,132,-99,-68,399,156,95,-264,254,266,189,-46,-89,146,-177,204,196,-59,-147,181,282,69,199,17,-40,352
218831,-195,253,58,-201,80,477,430,170,-69,-47,394,195,108,-262,253,201,196,-34,-87,154,-161,166,209,-49,-131,197,294,52,191,2,-62,328
218832,-193,336,87,-211,86,459,423,158,-70,-65,389,224,111,-274,257,47,218,-25,-73,154,-167,227,230,-35,-140,217,310,63,190,-4,-63,321
218833,-148,308,132,-231,97,482,470,131,-79,-60,392,246,124,-259,236,107,224,-6,-69,176,-176,381,241,-3,-106,229,331,88,203,13,-26,321
218834,-210,205,122,-243,75,491,461,132,-87,-68,385,218,112,-270,220,224,246,-55,-69,169,-172,332,196,-27,-88,248,356,93,207,16,-22,354
218835,-259,73,111,-198,76,520,422,167,-78,-62,425,233,123,-256,264,224,253,-31,-57,186,-141,310,231,-24,-68,293,366,113,245,65,20,409
218836,-241,41,7,-195,72,527,404,228,-67,-55,478,232,138,-249,266,218,207,2,-49,203,-140,287,257,-9,-55,292,399,88,239,75,38,424
218837,-253,151,-105,-189,62,554,463,266,-75,-46,543,221,144,-242,274,253,218,20,-55,197,-144,157,252,-25,-86,264,382,40,209,50,-12,375
218838,-315,204,-262,-220,58,567,484,118,-108,-43,536,220,99,-254,273,239,273,-49,-69,174,-152,226,244,-61,-92,266,338,61,214,26,-25,325
218839,-326,82,-376,-286,47,522,425,-17,-119,-69,468,204,78,-256,246,202,212,-111,-88,176,-170,264,226,-76,-124,252,369,55,208,25,-14,334
218840,-338,41,-132,-264,28,471,380,115,-113,-84,333,139,72,-245,187,169,100,-89,-101,161,-205,171,207,-68,-132,230,354,9,183,12,-48,303
218841,-338,111,2,-178,44,409,390,127,-102,-91,226,114,72,-233,184,178,148,-126,-85,155,-181,303,173,-85,-107,229,374,3,183,2,-40,297
218842,-245,155,105,-201,53,480,414,29,-93,-73,267,102,34,-216,207,190,185,-142,-98,175,-165,366,156,-87,-82,236,373,16,192,33,-36,338
218843,-313,177,71,-204,61,527,404,82,-117,-71,324,125,45,-231,214,160,142,-109,-87,167,-203,299,164,-65,-83,219,290,12,216,48,-28,356
218844,-360,239,68,-181,59,511,435,111,-123,-68,378,121,56,-227,224,186,124,-87,-90,184,-183,333,141,-72,-59,239,308,26,206,54,23,394
218845,-261,242,73,-179,42,538,453,101,-110,-50,377,96,71,-226,244,205,184,-105,-77,217,-181,356,149,-56,-42,249,346,62,219,79,66,394
218846,-228,247,83,-220,53,540,405,80,-129,-57,395,131,52,-231,231,208,222,-118,-75,200,-199,343,163,-38,-46,265,361,48,237,98,74,366
218847,-206,259,141,-247,39,498,415,83,-130,-61,390,111,51,-221,218,211,177,-89,-84,192,-198,300,178,-47,-57,266,360,59,245,104,90,397
218848,-202,226,111,-277,36,461,402,101,-115,-81,359,163,69,-199,213,219,176,-89,-84,188,-205,324,189,-30,-40,255,361,79,257,125,93,434
218849,-222,120,53,-275,43,422,398,97,-109,-97,368,138,63,-238,207,207,160,-109,-82,171,-220,235,176,-68,-53,221,326,40,203,102,50,370
218850,-250,47,0,-297,42,365,396,87,-115,-108,337,108,40,-235,190,156,120,-117,-91,164,-246,222,161,-70,-69,216,271,22,209,74,21,286
218851,-342,50,-12,-309,26,324,354,19,-127,-146,290,51,21,-263,161,114,84,-175,-120,144,-292,189,114,-88,-98,185,234,-14,189,47,-9,300
218852,-308,43,-13,-296,51,328,321,-1,-111,-129,295,55,30,-267,164,90,73,-161,-105,148,-300,177,75,-104,-105,177,224,-37,163,31,-32,272
218853,-305,34,-12,-284,51,328,322,8,-101,-122,295,68,21,-260,165,90,71,-173,-116,136,-305,199,65,-102,-92,167,245,-32,149,16,-39,267
218854,-325,45,11,-313,40,341,316,5,-113,-131,297,68,25,-262,146,82,97,-165,-133,156,-294,211,92,-87,-87,175,247,-31,159,30,-14,292
218855,-337,74,-22,-292,39,368,290,3,-120,-116,302,87,25,-268,164,107,102,-141,-115,144,-275,166,115,-88,-77,199,246,-15,181,45,0,286
218856,-373,-25,-76,-296,32,368,264,-2,-132,-121,325,60,17,-271,173,96,37,-156,-121,156,-283,168,113,-103,-77,193,272,-28,161,28,-4,277
218857,-435,-107,-109,-340,-1,340,234,-24,-152,-140,294,20,-16,-271,134,61,28,-194,-143,130,-303,146,58,-145,-117,171,272,-118,103,-34,-38,259
218858,-478,-82,-133,-332,5,326,200,-31,-145,-145,245,0,0,-276,110,45,9,-209,-148,112,-323,139,27,-148,-145,156,229,-134,89,-52,-60,241
218859,-472,-61,-156,-335,1,320,224,-35,-141,-140,241,-7,-14,-277,127,55,11,-196,-159,124,-316,145,46,-157,-136,168,238,-121,81,-54,-72,257
218860,-516,-62,-183,-314,-5,304,222,-17,-148,-138,208,25,-25,-293,108,28,38,-203,-190,115,-336,150,46,-184,-170,149,252,-109,53,-79,-83,226
218861,-501,-102,-115,-269,26,358,265,29,-133,-129,249,31,13,-293,140,100,74,-187,-154,135,-308,131,74,-160,-145,160,281,-86,60,-60,-82,233
218862,-409,-144,-141,-265,34,307,317,30,-131,-130,239,33,5,-290,166,236,64,-166,-150,144,-267,103,86,-144,-120,186,343,-92,94,-36,-71,295
218863,-341,-136,-167,-292,27,274,295,36,-122,-141,198,39,2,-281,145,196,69,-169,-163,136,-247,245,88,-134,-126,206,356,-95,91,-43,-36,333
218864,-318,-65,-127,-287,34,318,265,44,-124,-140,202,47,0,-290,156,160,112,-189,-141,176,-242,247,58,-122,-98,212,362,-94,70,-68,-40,315
218865,-403,25,-153,-303,26,341,273,6,-141,-144,275,17,3,-274,165,20,55,-212,-146,161,-228,209,34,-143,-109,216,363,-127,36,-96,-70,326
218866,-524,46,-169,-298,8,340,240,15,-146,-174,267,-57,-16,-271,138,-65,0,-184,-155,141,-269,200,36,-154,-128,191,337,-138,21,-110,-78,342
218867,-493,73,-178,-305,-7,339,220,18,-132,-176,233,-65,-21,-286,108,70,33,-166,-157,136,-279,143,-4,-139,-139,170,310,-139,17,-113,-108,299
218868,-396,56,-233,-305,0,334,231,127,-121,-159,224,-68,-1,-286,120,93,74,-267,-169,133,-289,134,-59,-163,-144,164,306,-174,4,-137,-115,241
218869,-411,-69,-296,-204,19,344,243,218,-77,-129,251,-86,12,-271,142,48,39,-280,-150,132,-288,101,-53,-170,-150,175,336,-181,0,-127,-127,248
218870,-428,-130,-303,-235,12,337,240,33,-118,-148,226,-61,-30,-306,118,27,-39,-246,-202,110,-316,74,-28,-199,-186,151,286,-202,-47,-173,-162,222
218871,-499,-131,-317,-261,1,362,133,-56,-127,-151,190,-156,-71,-310,113,18,-84,-284,-217,96,-337,96,-67,-223,-192,126,276,-211,-72,-194,-159,177
218872,-543,-17,-315,-283,10,369,199,-31,-110,-137,229,-101,-47,-308,128,18,-124,-253,-198,85,-336,152,-27,-224,-201,114,281,-208,-53,-182,-146,218
