,Fp1,Fp2,F7,F3,Fz,F4,F8,FC5,FC1,FC2,FC6,T7,C3,Cz,C4,T8,TP9,CP5,CP1,CP2,CP6,TP10,P7,P3,Pz,P4,P8,PO9,O1,Oz,O2,PO10
121644,1242,951,780,-40,-166,254,2242,316,154,22,629,267,236,-202,189,378,16,50,-113,-79,-58,507,337,101,172,192,305,113,233,123,-29,357
121645,1361,1235,788,-83,-160,329,2307,297,167,24,579,282,212,-215,178,298,50,13,-132,-99,-91,482,348,88,139,135,191,179,208,20,-159,191
121646,1436,1407,740,-63,-176,297,2369,301,130,4,570,259,199,-235,162,168,32,5,-123,-104,-146,421,293,94,132,100,25,134,207,-27,-232,-78
121647,1442,1436,754,-68,-175,260,2300,299,129,2,547,321,240,-200,194,208,46,57,-71,-65,-78,416,374,159,188,188,113,175,326,157,-24,224
121648,1433,1413,773,-81,-150,279,2328,319,165,50,623,350,251,-181,231,242,72,55,-66,-32,-13,472,385,155,220,248,207,348,342,174,13,477
121649,1432,1344,710,-94,-158,281,2291,291,143,36,615,308,210,-200,205,289,7,-9,-123,-74,-49,534,275,82,166,173,164,212,239,47,-158,276
121650,1380,1364,730,-90,-171,286,2292,270,139,7,596,225,203,-232,157,268,-5,-12,-148,-134,-142,343,325,98,95,66,-22,-32,185,-67,-364,-232
121651,1380,1300,735,-46,-158,319,2289,289,142,-7,613,62,200,-244,151,242,35,-37,-159,-129,-165,250,367,59,91,58,-104,212,189,-55,-346,-480
121652,1406,1208,690,-25,-145,321,2312,295,153,-6,589,14,190,-219,152,249,10,-47,-136,-127,-155,280,283,46,124,99,-41,184,192,-24,-268,-296
121653,1342,1337,623,-48,-155,301,2339,227,126,-34,528,21,152,-244,120,234,-111,-92,-162,-129,-164,301,167,54,123,114,-17,-137,158,-57,-243,-100
121654,1366,1451,666,-58,-150,309,2356,260,136,-19,560,87,176,-246,124,169,-103,-50,-163,-115,-129,255,288,64,142,110,-34,-105,166,-76,-281,-246
121655,1370,1341,679,-45,-161,320,2385,277,159,-8,576,152,222,-212,151,36,-44,15,-108,-94,-111,267,434,91,198,143,-18,64,190,-4,-216,-311
121656,1286,1223,675,-57,-168,318,2399,252,149,15,582,92,215,-207,150,6,-135,-14,-109,-80,-109,304,338,100,200,177,97,-23,208,29,-141,-224
121657,1231,1168,645,-55,-191,336,2410,275,159,-4,590,138,245,-206,154,-15,-99,42,-96,-67,-128,260,481,162,216,183,141,-100,266,90,-86,-5
121658,1129,1065,516,-5,-185,323,2341,294,168,8,546,76,231,-193,135,0,-134,-13,-106,-61,-113,249,270,96,200,187,64,-39,196,60,-71,202
121659,929,960,381,5,-177,352,2245,231,159,31,498,-50,189,-202,113,-119,-171,-92,-142,-95,-144,260,6,36,165,143,-10,39,169,30,-118,100
121660,851,1094,340,48,-170,409,2211,280,166,27,547,-91,221,-211,119,-284,-140,-35,-130,-85,-185,271,145,92,168,104,-19,-60,159,-32,-239,-179
121661,820,1226,427,50,-181,377,2111,283,156,9,523,36,250,-215,113,-314,-113,65,-119,-113,-220,205,434,140,164,79,-108,-201,156,-48,-248,-142
121662,914,1287,558,32,-159,371,2112,219,163,31,597,110,229,-219,119,-200,-95,-2,-133,-115,-247,223,280,64,167,107,-76,193,209,25,-144,104
121663,1083,1237,613,-36,-173,375,2128,150,124,2,537,27,147,-243,104,-154,-167,-146,-171,-133,-257,200,111,5,114,87,-20,200,179,-6,-183,-120
121664,1163,1047,635,-62,-148,412,2183,185,143,27,494,32,146,-208,127,-21,-184,-148,-172,-87,-176,240,78,-3,144,148,156,215,151,-23,-171,-406
121665,1293,969,660,-104,-161,346,2235,201,144,29,535,89,147,-219,143,23,-129,-156,-171,-72,-158,218,81,-22,141,163,76,152,122,-58,-153,-281
121666,1405,1206,591,-155,-188,327,2287,146,111,3,554,103,127,-227,177,117,-150,-169,-199,-82,-153,258,81,-44,108,103,23,-184,36,-92,-210,-28
121667,1478,1357,601,-248,-190,311,2333,146,82,21,593,102,111,-211,199,179,-98,-148,-204,-64,-158,319,85,-58,114,128,8,-232,1,-107,-209,20
121668,1434,1436,653,-176,-178,297,2367,206,111,27,586,104,137,-200,237,141,-134,-129,-171,-22,-98,358,111,-36,132,195,46,-61,75,-45,-122,67
121669,1328,1391,627,-129,-180,257,2348,163,121,17,546,128,153,-221,232,-113,-95,-131,-171,-20,-58,353,195,-13,146,213,135,-51,107,3,-129,52
121670,1334,1315,652,-148,-181,233,2335,156,128,20,555,140,139,-225,211,322,-81,-161,-172,-28,-68,387,104,-40,148,191,179,-53,100,18,-110,65
121671,1381,1353,662,-159,-188,211,2383,152,115,17,564,160,148,-219,157,417,-62,-150,-171,-46,-229,388,111,-40,136,158,73,-27,129,21,-115,71
121672,1248,1322,616,-211,-165,287,2350,167,96,7,539,160,153,-223,159,98,-61,-93,-184,-80,-240,374,236,-25,123,133,13,5,167,45,-104,108
121673,1025,1253,504,-126,-184,290,2258,218,87,-6,546,202,139,-251,147,20,-79,-75,-190,-106,-233,369,306,-7,112,110,12,34,127,12,-135,45
121674,996,1218,415,-38,-172,265,2235,238,104,-8,544,192,150,-239,162,4,-98,-95,-191,-97,-221,388,217,-13,102,105,7,45,110,-58,-192,42
121675,1060,1215,442,-90,-154,309,2229,275,134,8,485,234,176,-201,180,2,-27,-52,-158,-67,-95,434,349,20,153,139,36,-302,126,-47,-188,95
121676,1172,1192,417,-72,-166,342,2266,328,121,20,524,231,194,-212,203,0,23,-50,-157,-66,-46,426,317,-16,134,149,43,-274,54,-80,-233,-36
121677,1215,1101,466,-39,-173,355,2236,275,85,12,560,129,175,-217,203,255,-9,-143,-172,-79,-216,509,-28,-36,151,146,75,60,120,-4,-143,75
121678,1165,1116,587,-37,-169,389,2249,276,113,12,618,143,213,-200,220,88,-35,-106,-133,-47,-202,571,104,34,173,170,114,5,216,68,-66,238
121679,1093,1134,636,-69,-155,387,2199,238,130,28,611,190,235,-193,231,-54,27,-11,-83,-29,-69,508,223,92,211,240,162,116,298,166,25,284
121680,1118,1189,777,-97,-157,361,2196,252,144,32,573,205,265,-191,187,-107,25,44,-73,-39,-154,492,336,150,246,231,143,67,335,200,18,251
121681,1184,1229,902,-33,-152,397,2186,414,175,9,523,294,295,-190,167,-174,83,72,-68,-64,-185,433,409,160,228,206,154,13,274,131,-51,157
121682,1119,1265,913,32,-155,293,2191,414,180,-10,549,331,283,-198,159,-74,139,63,-66,-56,-161,373,349,138,228,229,260,229,254,126,-11,204
121683,1213,1210,883,27,-184,216,2117,344,162,-11,516,352,314,-209,127,-130,166,150,-42,-69,-148,428,515,200,261,214,263,28,282,128,-11,429
121684,1386,1197,931,0,-144,355,2107,418,156,12,611,434,365,-195,153,53,203,219,-14,-24,-97,445,548,246,283,227,189,203,400,211,-16,318
121685,1382,1230,914,-2,-137,420,2195,407,156,8,639,339,376,-197,166,198,185,219,-1,-31,-109,408,464,274,263,206,90,156,429,167,-144,-237
121686,1275,1210,894,-20,-142,391,2295,383,160,-10,635,286,357,-194,184,331,156,172,-12,-22,-86,482,359,262,258,225,144,190,368,150,-55,-105
121687,1362,1134,890,4,-131,286,2353,412,175,-3,693,346,377,-189,183,384,177,186,11,-7,-64,547,322,244,303,263,182,275,329,226,33,225
121688,1390,1247,886,15,-139,292,2412,438,210,-4,652,404,394,-174,204,414,168,205,44,33,-31,538,417,309,319,298,223,53,363,239,88,309
121689,1420,1367,838,-13,-147,302,2450,423,195,24,670,402,374,-153,243,387,129,176,32,50,40,585,375,284,341,351,344,288,391,271,155,496
121690,1430,1237,709,25,-173,329,2401,409,200,10,668,397,380,-166,237,317,181,202,23,52,49,595,484,283,352,345,385,253,432,309,186,563
121691,1364,1206,664,103,-166,350,2441,418,201,10,650,370,388,-179,236,263,197,186,11,36,28,566,476,282,331,326,322,208,411,302,142,348
121692,1324,1331,682,85,-159,303,2480,399,189,9,641,391,375,-169,239,259,165,202,4,23,7,545,478,293,326,296,237,291,412,215,-4,33
121693,1370,1437,725,28,-171,250,2447,420,162,-10,629,357,353,-193,208,163,206,191,-23,-12,-12,526,550,242,270,229,176,358,337,61,-233,-143
121694,1387,1391,813,-26,-135,268,2472,474,171,28,644,330,372,-187,229,-97,200,194,-19,2,39,486,552,249,278,285,219,327,381,201,-51,84
121695,1328,1297,796,-6,-141,313,2429,496,144,23,691,374,360,-212,243,324,196,180,-35,15,104,572,533,252,295,335,316,345,464,314,101,400
121696,1330,1177,778,-11,-160,330,2380,462,164,30,757,453,366,-212,259,658,254,214,-46,14,37,621,648,282,297,342,424,336,517,338,181,612
121697,1341,1229,865,15,-153,359,2377,411,172,39,718,417,358,-217,231,475,221,198,-71,-32,21,572,501,248,253,287,404,524,471,241,5,250
121698,1191,1337,912,21,-159,379,2371,413,173,24,690,341,323,-215,218,322,209,131,-82,-36,54,604,362,193,238,300,357,460,424,211,-14,92
121699,1149,1348,883,3,-135,378,2381,461,201,38,702,331,322,-202,233,149,205,112,-74,-10,39,642,372,186,252,326,251,51,325,209,69,413
121700,1266,1260,845,46,-137,320,2370,487,191,33,711,335,322,-223,223,138,140,89,-105,-29,35,606,451,151,228,285,201,-132,241,109,-25,234
121701,1383,1227,903,114,-140,450,2398,566,219,38,740,339,337,-219,203,230,172,121,-92,-46,0,555,571,139,222,258,223,229,269,97,-76,18
121702,1426,1345,953,95,-130,430,2442,569,224,34,668,358,356,-202,173,77,232,184,-93,-45,-59,435,642,150,231,215,133,210,266,75,-156,-288
121703,1338,1298,882,108,-132,416,2386,486,206,-2,602,307,302,-232,115,-151,188,100,-112,-81,-147,485,389,103,201,186,27,142,251,90,-127,-147
121704,1268,1230,782,76,-164,494,2390,389,185,2,633,293,272,-225,107,-206,174,23,-130,-88,-192,402,270,77,198,170,4,222,264,96,-102,16
121705,1279,1316,826,16,-135,383,2412,382,208,16,622,309,294,-215,163,189,186,59,-97,-46,-122,321,370,84,226,212,114,227,266,109,-82,85
121706,1324,1432,876,-34,-141,275,2317,386,208,4,689,309,299,-197,199,279,170,93,-88,-10,-53,338,455,124,258,277,199,201,327,182,18,268
121707,1280,1377,735,-57,-183,336,2307,367,182,9,689,277,287,-188,205,54,130,88,-70,-4,-24,376,491,157,289,280,172,134,317,182,52,339
121708,1228,1205,637,-31,-155,397,2352,362,200,38,689,264,304,-178,228,-102,111,57,-52,17,13,468,368,153,312,289,154,299,374,214,54,193
121709,1225,1225,607,-27,-156,421,2322,327,170,28,661,293,310,-161,222,-51,120,98,-17,30,31,469,498,196,325,319,183,296,408,200,27,-24
121710,1318,1349,642,-103,-176,384,2347,282,166,13,660,323,281,-185,214,447,157,116,-21,8,-153,380,550,211,310,256,109,369,400,182,-36,-22
121711,1341,1381,617,-53,-162,354,2425,355,174,25,675,242,279,-178,219,493,102,77,-34,6,-193,384,380,195,311,226,94,212,347,174,-22,167
121712,1233,1334,577,4,-163,326,2446,384,190,18,646,44,244,-172,234,372,2,-29,-72,30,-51,419,203,115,295,240,145,81,284,152,-40,110
121713,1133,1287,588,-67,-162,279,2397,282,152,17,618,20,181,-195,240,385,15,-107,-91,17,-82,425,181,56,283,254,131,175,271,149,-36,12
121714,1163,1198,521,-126,-167,269,2347,166,148,12,610,35,162,-205,251,363,0,-137,-99,2,-47,459,197,82,291,289,185,26,281,194,20,232
121715,1098,1178,561,-161,-188,320,2286,141,119,38,642,86,160,-198,259,255,-41,-118,-107,17,-55,381,156,76,295,291,177,79,307,220,52,436
121716,1134,1253,561,-249,-199,296,2216,97,106,43,662,109,137,-206,278,180,-22,-112,-127,43,-34,324,177,69,292,322,200,157,330,246,115,614
121717,1259,1285,556,-266,-183,295,2233,114,116,53,598,117,146,-196,274,83,-6,-94,-103,43,-25,331,194,95,277,311,229,63,300,201,55,329
121718,1286,1114,537,-210,-193,350,2232,150,135,38,565,105,169,-200,261,0,-29,-85,-90,35,-51,361,203,85,279,278,214,0,260,146,8,48
121719,1195,1106,604,-176,-186,289,2232,159,142,23,582,124,186,-194,229,47,-22,-46,-97,10,-93,357,289,77,265,240,84,-52,199,87,-86,-30
121720,1152,1113,616,-184,-204,322,2162,185,118,2,545,111,189,-220,204,109,-19,7,-79,-17,-149,389,422,97,247,215,4,-129,203,89,-57,139
121721,1189,1115,633,-181,-195,255,2132,216,114,2,536,96,201,-218,202,-126,-43,-7,-116,-32,-171,321,240,58,228,173,-66,-17,183,41,-141,-199
121722,1116,1053,592,-149,-175,244,2146,199,147,19,532,80,206,-198,245,-326,-100,-28,-99,-16,-95,328,116,74,220,198,-5,-14,216,72,-166,-434
121723,1105,1061,514,-147,-212,259,2168,159,133,-5,502,169,200,-207,204,154,-116,-4,-113,-4,-117,359,224,97,223,222,87,-123,225,97,-108,-200
121724,1063,1123,514,-141,-201,268,2187,209,125,4,516,183,214,-209,153,195,-95,0,-112,-58,-270,389,235,86,193,144,-6,-43,189,-20,-262,-269
121725,996,1157,553,-107,-177,287,2202,257,144,18,544,109,241,-191,172,76,-9,9,-109,-58,-224,445,182,96,213,149,-36,28,215,21,-225,-235
121726,1047,1084,619,-101,-181,287,2142,300,154,-2,486,151,256,-219,137,23,-36,60,-94,-90,-260,368,255,137,194,111,-110,-99,242,0,-257,-239
121727,977,941,561,-92,-183,302,2159,323,160,-8,466,254,283,-205,122,-20,4,87,-83,-89,-274,269,357,140,199,105,-114,-9,226,15,-204,-150
121728,937,1008,450,-47,-187,314,2207,322,184,11,481,272,309,-171,149,-51,54,127,-55,-64,-226,162,327,146,221,147,-71,179,296,73,-134,-46
121729,1055,1142,473,-100,-192,316,2241,308,185,-3,525,286,297,-185,146,21,66,107,-46,-53,-198,192,255,153,231,159,-29,140,307,114,-98,-5
121730,1132,1184,537,-79,-179,300,2229,333,201,8,542,299,324,-170,182,88,117,174,-30,-16,-152,284,428,223,272,217,34,4,320,163,-30,126
121731,1094,1219,553,-28,-164,290,2230,359,225,23,593,329,368,-151,216,8,150,241,16,2,-133,378,524,261,304,250,63,75,309,144,-56,155
121732,969,1199,557,-31,-182,249,2233,365,203,0,603,300,358,-151,197,5,87,184,31,10,-111,412,387,240,302,256,97,209,301,118,-63,107
121733,1030,1175,600,3,-184,297,2222,351,216,26,613,354,341,-161,222,-21,124,223,47,47,-46,396,522,287,326,307,180,132,373,239,89,259
121734,1129,1178,672,19,-172,359,2240,346,204,52,665,350,363,-151,264,73,213,248,46,60,6,473,537,328,356,362,297,256,441,307,178,529
121735,1186,1092,772,-19,-174,405,2219,417,219,49,676,386,386,-161,275,172,267,302,60,43,28,499,587,364,359,335,191,404,414,164,-64,160
121736,1075,951,755,-85,-190,393,2263,511,214,29,646,414,383,-184,250,201,288,345,56,29,10,526,662,360,335,280,177,607,492,183,-125,-144
121737,1054,1091,740,-66,-185,460,2271,452,202,45,687,444,380,-197,273,24,254,316,52,50,16,479,744,341,328,307,303,427,407,181,-58,-44
121738,1192,1236,752,-55,-159,401,2298,375,224,83,783,404,373,-169,316,146,182,267,47,66,65,460,618,332,325,335,262,174,339,104,-85,-8
121739,1320,1166,770,-92,-173,377,2283,348,207,69,755,353,352,-180,316,350,170,189,41,62,56,527,300,310,323,344,219,151,387,173,-46,32
121740,1380,1117,796,-112,-186,442,2285,365,193,80,752,346,329,-200,313,414,185,129,-1,63,56,607,220,240,296,345,260,213,314,176,4,93
121741,1399,1307,773,-116,-171,361,2336,405,205,73,763,344,339,-199,314,320,187,119,-23,51,66,571,272,210,289,342,217,217,266,163,14,195
121742,1357,1414,797,-85,-166,364,2351,438,237,65,786,348,350,-189,317,252,181,141,-27,61,106,492,313,213,287,350,221,54,286,191,72,309
121743,1281,1258,764,-84,-174,416,2333,370,208,57,742,284,342,-200,324,213,63,145,-7,56,108,421,357,257,300,366,316,-109,354,276,201,453
121744,1254,1141,655,-84,-175,332,2341,331,202,51,677,229,327,-184,288,166,59,139,-17,38,91,390,301,228,305,331,272,21,301,240,145,354
121745,1194,1220,579,-94,-175,377,2348,307,198,30,663,144,305,-187,253,197,88,97,-39,7,30,358,235,150,268,287,102,221,217,61,-122,-28
121746,1048,1210,556,-43,-179,351,2326,309,209,18,631,111,318,-199,203,215,31,108,-31,-25,-70,339,301,161,223,208,-18,62,193,-25,-291,-319
121747,1018,1167,558,-14,-205,304,2298,337,225,-11,604,158,324,-202,167,150,3,128,-23,-31,-69,321,507,170,220,176,-51,-53,181,-22,-226,-180
121748,1127,1248,638,27,-169,292,2350,371,270,5,584,190,332,-197,173,-59,-49,149,6,-16,1,320,424,167,263,238,-8,-45,224,24,-132,-83
121749,1146,1263,650,20,-184,302,2403,341,237,2,631,159,307,-186,202,-167,-36,64,-16,25,74,375,215,184,293,278,136,-4,258,108,-53,40
121750,1169,1212,622,-8,-199,313,2395,319,201,3,670,75,273,-198,212,15,-46,-22,-47,11,-95,426,150,159,292,262,204,83,257,159,-3,234
121751,1136,1136,651,25,-167,261,2297,368,246,6,625,192,339,-149,188,221,9,161,29,30,-159,358,595,271,323,252,112,-1,358,183,9,289
121752,1134,1086,620,-40,-166,327,2298,333,239,3,561,194,315,-163,143,23,60,184,24,-4,-256,225,637,254,304,177,-107,27,346,127,-108,-30
121753,1128,1195,576,-120,-182,313,2241,228,189,-11,562,174,232,-187,123,-77,-46,-2,-40,-29,-269,176,205,128,270,160,-144,233,303,79,-166,-219
121754,1079,1307,581,-142,-187,220,2217,271,178,-23,587,166,207,-188,151,115,-116,-80,-72,-17,-182,191,111,120,284,183,-61,130,241,72,-117,-25
121755,987,1267,574,-163,-172,288,2227,243,180,0,623,135,215,-193,196,175,-78,-69,-62,-1,-183,236,170,135,301,168,-77,42,214,52,-149,-34
121756,889,1217,526,-150,-173,323,2234,176,203,11,656,147,197,-199,221,296,-52,-52,-60,2,-144,243,249,160,307,199,-29,104,280,59,-135,-115
121757,941,1224,511,-98,-177,250,2268,144,206,5,639,180,212,-189,220,275,-53,-45,-49,-7,-138,264,291,182,308,192,15,118,272,66,-162,-230
121758,1058,1187,518,-50,-178,339,2244,205,207,44,660,70,243,-154,260,133,-49,7,-36,40,-103,244,252,207,332,217,23,72,292,107,-75,-78
121759,1121,1058,489,-40,-181,372,2238,226,194,38,620,-11,248,-150,276,30,-64,37,-7,76,-44,274,259,261,382,279,46,42,413,273,101,247
121760,1141,1130,408,-161,-214,345,2183,168,145,39,567,-27,217,-170,252,0,-82,17,-22,69,-87,372,266,251,380,289,36,128,405,280,149,353
121761,1160,1180,436,-160,-195,351,2106,260,169,56,623,83,257,-159,262,-20,43,56,-6,66,-119,405,360,268,379,262,0,257,395,184,-29,-50
121762,1245,1105,514,-98,-178,264,2089,284,184,52,647,148,263,-163,244,-54,34,62,12,56,-97,253,361,260,352,247,-4,121,325,102,-150,-252
121763,1256,1033,546,-146,-197,259,2106,244,152,44,673,121,224,-183,241,47,-9,-1,-32,27,-114,243,268,211,327,229,28,73,262,116,-82,-14
121764,1283,1093,591,-99,-202,317,2140,269,189,51,568,109,244,-185,230,125,14,-15,-39,6,-182,342,230,201,316,213,-17,24,274,78,-117,-66
121765,1289,1113,595,-80,-193,305,2125,278,199,49,538,133,281,-174,212,132,-5,15,-24,21,-157,354,233,220,330,223,9,113,337,141,-92,-45
121766,1288,1100,541,-80,-190,317,2142,299,177,34,553,144,295,-166,233,138,-27,37,-4,18,-71,319,359,261,354,245,105,83,367,210,-53,-9
121767,1152,1148,510,-84,-193,257,2178,357,191,18,505,181,319,-166,238,87,-24,76,-6,24,-44,346,455,267,354,282,180,39,388,226,17,139
121768,1120,1125,543,-111,-195,325,2194,323,193,25,534,231,308,-170,245,87,47,101,-4,23,-71,359,513,242,335,282,113,109,341,230,18,232
121769,1188,892,559,-120,-204,347,2184,235,177,46,534,170,283,-177,233,109,-5,22,-30,-13,-111,405,368,191,285,227,82,-54,205,89,-90,140
121770,1206,887,521,-159,-194,399,2106,138,175,49,533,109,261,-181,204,97,-79,-35,-45,-9,-111,442,211,170,287,238,142,-73,219,106,-53,276
121771,1255,1041,603,-215,-200,431,2071,163,150,59,502,60,267,-172,214,0,-49,-49,-33,-14,-113,446,116,198,293,249,134,89,319,154,-45,143
121772,1198,1138,625,-161,-227,344,2071,239,156,54,474,58,296,-174,194,-322,-43,18,-3,-4,-81,445,204,230,290,243,134,15,308,146,-61,-18
121773,1060,1216,564,-108,-219,244,2084,239,180,10,467,77,299,-193,190,-156,2,77,-24,0,-83,379,244,224,292,227,122,118,289,110,-106,-13
121774,1017,1209,567,-88,-197,142,2125,255,185,-22,511,114,334,-181,155,209,9,84,-15,-27,-195,391,243,199,279,186,101,123,237,72,-126,-42
121775,1075,1066,599,-55,-189,202,2153,314,221,14,516,250,360,-181,138,88,11,128,7,-63,-238,344,357,228,254,189,94,-25,248,96,-91,-98
121776,1106,1003,573,-65,-216,229,2052,314,189,17,521,302,357,-189,160,-78,72,157,9,-74,-172,267,525,261,237,174,93,-97,237,59,-121,-105
121777,1030,1123,566,-63,-200,241,2070,308,203,21,536,231,347,-191,164,-109,36,105,0,-48,-134,264,291,226,238,184,115,38,225,82,-80,41
121778,944,1186,552,-57,-219,227,2083,352,231,-1,560,187,371,-171,140,-89,8,117,5,-55,-117,277,220,252,242,167,116,101,260,80,-106,111
121779,1007,1185,496,-76,-228,189,2097,377,205,-23,549,265,409,-171,133,-117,22,184,21,-49,-76,373,357,283,237,170,160,119,284,53,-149,73
121780,1139,1142,491,-55,-215,288,2113,354,207,18,534,148,408,-177,150,-128,36,195,29,-35,16,417,400,298,244,202,182,88,268,92,-122,126
121781,1155,1108,550,-38,-205,337,2127,337,220,5,548,125,391,-170,145,-64,88,186,17,-70,28,369,437,295,230,170,132,38,215,15,-182,15
121782,1109,1150,597,-37,-185,355,2154,364,227,35,585,264,395,-176,172,287,113,235,32,-59,-91,456,488,320,242,176,160,173,291,95,-107,87
121783,1168,1117,613,-83,-201,379,2168,350,194,11,575,383,400,-189,147,156,137,301,21,-76,-159,465,596,329,229,148,93,175,278,62,-154,10
121784,1242,1097,688,-41,-204,367,2139,378,207,-5,581,356,421,-206,158,97,134,322,39,-67,-59,480,664,339,249,175,150,-13,270,61,-150,1
121785,1289,1055,727,2,-176,349,2104,493,244,32,612,285,455,-186,205,228,57,328,75,17,51,566,436,407,315,263,313,-160,346,144,-41,108
121786,1287,1006,680,-9,-177,330,2133,494,224,46,602,348,449,-200,181,215,118,306,61,-22,21,516,538,385,299,267,264,32,312,124,-50,100
121787,1228,1090,670,-9,-185,362,2221,500,235,12,602,319,427,-203,189,244,107,264,52,-32,-25,467,582,337,294,258,202,85,281,95,-59,119
121788,1154,1201,720,-60,-190,316,2309,527,231,31,643,373,448,-167,236,308,29,289,85,30,41,474,493,356,335,323,256,159,334,173,10,230
121789,1141,1171,639,-127,-207,342,2215,476,222,9,620,470,445,-171,237,361,-15,332,80,39,72,465,628,381,332,315,292,89,321,165,-34,128
121790,1076,1141,619,-127,-215,178,2157,425,204,-35,562,444,426,-170,198,303,7,303,70,13,41,442,583,364,307,297,256,6,285,113,-51,92
121791,960,1058,663,-153,-215,222,2252,355,203,-13,571,387,415,-146,213,232,152,233,84,34,51,380,360,371,368,346,211,107,326,143,-28,51
121792,993,917,639,-106,-197,242,2162,295,203,-6,542,291,409,-153,216,117,125,209,83,57,54,400,282,384,371,376,232,77,352,177,13,-57
121793,1115,840,639,-79,-199,162,2129,286,178,-20,457,230,388,-163,190,-21,55,208,78,55,32,425,357,375,364,360,263,-5,363,194,33,-51
