,Fp1,Fp2,F7,F3,Fz,F4,F8,FC5,FC1,FC2,FC6,T7,C3,Cz,C4,T8,TP9,CP5,CP1,CP2,CP6,TP10,P7,P3,Pz,P4,P8,PO9,O1,Oz,O2,PO10
48406,163,301,429,-122,101,507,315,-79,16,-90,92,-328,-90,236,132,-97,-494,-361,-24,-43,-388,-28,-354,-224,-34,-126,-471,-553,-300,-295,-444,-525
48407,180,304,417,-131,91,498,303,-111,4,-117,26,-340,-84,214,120,-153,-542,-346,-28,-46,-366,-14,-298,-225,-45,-137,-449,-575,-295,-296,-453,-549
48408,194,319,423,-127,95,510,285,-90,1,-132,102,-304,-63,218,126,15,-499,-333,-36,-58,-418,-47,-289,-220,-40,-160,-466,-580,-345,-367,-505,-596
48409,178,327,427,-125,82,500,287,-70,-14,-145,90,-331,-83,178,38,52,-477,-368,-53,-91,-533,-101,-347,-249,-76,-205,-498,-533,-310,-324,-514,-583
48410,184,282,414,-116,84,482,232,-57,-11,-115,48,-310,-79,174,89,-62,-517,-329,-58,-106,-493,-131,-222,-216,-82,-197,-490,-532,-297,-281,-485,-554
48411,206,296,436,-101,85,510,279,-40,15,-124,125,-282,-69,203,74,27,-511,-299,-32,-95,-464,-68,-195,-193,-56,-165,-436,-504,-242,-268,-456,-468
48412,187,304,440,-103,89,485,280,-67,20,-127,92,-299,-55,204,8,45,-437,-327,-32,-84,-449,21,-292,-174,-47,-159,-402,-436,-206,-251,-436,-477
48413,186,309,432,-111,97,480,273,-47,0,-128,79,-293,-48,212,51,-1,-398,-320,-28,-85,-444,-36,-273,-170,-51,-161,-427,-469,-203,-223,-420,-499
48414,195,326,469,-82,108,501,314,-4,11,-132,110,-254,-28,227,75,49,-383,-282,23,-42,-399,-17,-204,-135,-11,-96,-368,-444,-183,-172,-349,-404
48415,186,332,487,-67,108,501,307,4,27,-134,139,-238,-15,246,78,28,-367,-275,22,-15,-368,-1,-149,-100,5,-31,-297,-400,-162,-161,-324,-412
48416,202,350,503,-80,82,525,332,15,32,-111,185,-198,4,236,103,6,-341,-242,34,-17,-389,20,-126,-81,22,-30,-375,-365,-122,-110,-287,-389
48417,229,353,544,-68,100,518,357,39,32,-128,110,-182,10,214,83,50,-313,-247,45,-19,-402,37,-102,-73,40,-46,-402,-275,-47,-73,-283,-389
48418,230,311,552,-45,104,511,300,87,41,-127,79,-186,24,244,84,20,-280,-243,31,-11,-390,-1,-73,-66,31,-48,-381,-329,-59,-97,-320,-441
48419,221,296,565,-68,79,510,309,65,38,-135,109,-175,21,244,84,-32,-289,-228,42,-24,-407,-7,-204,-76,17,-61,-426,-346,-113,-144,-372,-474
48420,198,315,557,-52,80,500,351,48,42,-159,101,-143,7,225,81,-49,-357,-221,41,-35,-411,29,-230,-102,-40,-86,-489,-526,-272,-261,-418,-447
48421,223,356,581,-28,88,536,355,110,58,-134,127,-101,30,236,125,-30,-328,-205,33,0,-370,26,-212,-99,-16,-65,-446,-478,-278,-254,-425,-433
48422,265,352,610,-16,90,544,371,113,49,-108,157,-110,55,259,144,70,-327,-192,75,28,-354,27,-198,-64,25,-22,-395,-302,-131,-156,-374,-429
48423,280,361,619,-2,96,586,310,111,66,-95,188,-107,64,259,195,111,-288,-178,81,39,-344,80,-131,-46,22,8,-342,-354,-154,-165,-344,-437
48424,253,377,585,-26,87,551,438,80,69,-85,197,-117,76,275,229,128,-202,-156,93,61,-295,126,-154,-37,45,31,-313,-401,-197,-198,-331,-399
48425,243,352,597,-28,83,534,446,78,44,-81,175,-153,71,293,224,123,-258,-147,91,71,-273,165,-164,-43,34,27,-304,-327,-155,-138,-307,-352
48426,208,327,579,-54,78,537,366,81,36,-85,195,-130,87,284,238,129,-313,-127,91,51,-273,169,-99,-51,31,33,-281,-354,-132,-121,-289,-322
48427,244,344,618,-46,90,547,409,118,50,-95,176,-69,89,280,204,213,-278,-131,97,63,-243,161,-129,-36,34,46,-222,-332,-99,-95,-234,-305
48428,240,335,637,-41,60,541,400,114,42,-86,166,-103,62,292,205,180,-270,-159,82,48,-235,127,-163,-34,7,48,-229,-339,-107,-88,-241,-332
48429,245,336,647,-48,70,518,395,108,44,-83,232,-108,74,274,165,151,-276,-147,113,55,-229,207,-119,0,70,88,-191,-312,-61,-17,-181,-228
48430,244,348,636,-51,90,551,426,102,42,-84,237,-95,88,276,190,190,-283,-127,145,118,-195,271,-81,51,134,149,-51,-259,-5,74,-108,-189
48431,241,360,625,-36,88,570,452,115,58,-90,228,-47,110,320,200,203,-286,-86,163,130,-179,284,32,90,162,155,-77,-223,34,96,-87,-257
48432,212,356,600,-53,72,539,427,99,51,-109,239,-47,97,309,191,211,-269,-116,148,103,-230,249,-42,69,141,126,-207,-155,60,81,-80,-193
48433,203,352,573,-50,72,539,403,99,63,-94,238,-72,101,291,208,177,-274,-129,144,102,-217,276,-47,51,122,122,-153,-210,45,56,-118,-245
48434,181,337,573,-64,69,540,405,92,59,-110,205,-110,104,257,175,44,-285,-133,138,96,-238,215,-57,16,123,108,-207,-244,46,78,-84,-228
48435,184,341,609,-47,67,530,414,110,65,-94,189,-102,105,257,173,53,-295,-161,127,95,-253,214,-129,26,133,114,-210,-181,38,109,-101,-204
48436,185,332,597,-43,61,528,415,99,76,-87,229,-113,91,267,221,214,-315,-168,120,79,-221,298,-137,0,114,109,-163,-255,-70,17,-146,-212
48437,157,319,537,-68,52,547,439,64,55,-84,239,-137,67,264,205,265,-272,-187,108,82,-244,316,-124,-24,94,97,-163,-297,-96,-25,-174,-223
48438,192,334,571,-54,54,552,447,81,60,-81,222,-112,78,283,202,210,-255,-199,117,81,-230,302,-177,-5,82,106,-168,-260,-94,0,-156,-178
48439,222,363,594,-49,55,563,439,115,71,-82,269,-79,103,297,238,251,-209,-168,121,100,-214,267,-119,11,111,117,-149,-253,-63,12,-121,-179
48440,183,368,567,-46,33,532,451,113,67,-93,248,-72,109,301,249,248,-253,-139,126,118,-203,283,-87,21,140,125,-131,-301,-33,53,-97,-150
48441,170,343,567,-53,13,538,431,112,82,-98,219,-69,134,303,257,258,-258,-93,159,148,-168,337,-72,58,160,142,-92,-236,30,105,-56,-80
48442,178,347,552,-99,22,538,389,125,63,-83,326,-35,139,307,297,241,-238,-75,181,173,-136,288,-3,72,162,166,-49,-239,34,123,-49,-105
48443,210,378,561,-63,51,551,432,121,56,-85,304,-19,133,310,273,219,-258,-84,189,163,-139,282,10,85,169,161,-66,-178,75,112,-107,-255
48444,257,417,586,-16,70,540,482,166,77,-92,175,-13,162,313,268,249,-226,-61,207,158,-126,313,22,97,181,168,-104,-122,107,93,-127,-226
48445,279,418,609,-39,57,539,477,172,66,-105,197,-16,130,295,279,280,-181,-43,169,120,-177,319,15,91,159,140,-40,-156,66,68,-101,-235
48446,254,416,590,-39,67,539,462,169,64,-101,162,-22,138,295,332,243,-195,-44,164,129,-158,268,73,68,154,136,-53,-221,36,64,-128,-288
48447,235,422,588,-44,46,532,427,155,60,-104,224,-47,133,280,291,257,-219,-85,161,119,-181,246,-53,55,146,114,-222,-178,23,31,-171,-199
48448,289,431,654,-35,40,530,469,147,77,-148,284,21,144,286,189,292,-206,-31,168,100,-150,279,-13,74,160,141,-148,-199,2,19,-167,-190
48449,263,425,637,-24,32,540,486,192,74,-134,254,16,146,300,266,252,-166,-29,151,107,-157,278,-13,69,128,106,-145,-236,-31,-2,-168,-203
48450,254,428,620,-28,41,570,527,187,66,-88,288,2,129,300,283,330,-175,-53,156,124,-98,260,-53,67,120,153,-100,-239,-40,6,-167,-164
48451,257,426,624,-33,69,579,521,182,64,-70,298,13,135,319,290,367,-123,-40,162,125,-114,238,5,67,140,160,-48,-196,-24,17,-169,-167
48452,234,411,644,-42,59,595,475,174,76,-94,263,-2,141,297,275,292,-113,-51,145,107,-179,288,12,60,128,96,-94,-193,5,-6,-191,-232
48453,239,414,630,-56,44,589,481,171,67,-83,242,-19,130,303,285,264,-140,-87,137,91,-219,262,-4,50,119,102,-159,-211,9,9,-175,-225
48454,221,376,591,-62,43,561,468,148,46,-100,241,5,139,309,235,259,-113,-66,145,86,-216,221,10,61,89,102,-162,-186,32,13,-181,-235
48455,196,372,561,-104,19,547,463,117,36,-99,214,-27,127,293,241,244,-127,-70,120,78,-210,257,1,57,102,113,-121,-170,39,46,-159,-180
48456,209,363,579,-96,22,545,458,109,38,-72,193,-53,95,268,275,212,-180,-95,100,66,-247,211,-53,12,68,49,-198,-299,-89,-64,-237,-273
48457,206,352,570,-117,32,557,443,109,35,-60,242,-58,75,275,278,222,-187,-116,93,68,-230,194,-35,2,71,58,-222,-304,-109,-108,-273,-306
48458,239,378,601,-85,66,599,480,132,57,-59,302,-59,109,291,226,260,-177,-140,94,74,-202,201,-75,-16,78,72,-195,-295,-122,-111,-266,-311
48459,267,394,625,-37,83,603,486,133,54,-42,265,-59,102,278,258,247,-190,-163,98,65,-210,211,-111,-30,64,47,-195,-280,-146,-143,-322,-292
48460,261,398,633,-15,95,619,489,145,68,-44,249,-71,105,262,274,255,-195,-117,98,86,-191,232,-48,9,96,55,-187,-223,-87,-87,-266,-266
48461,253,408,604,-52,94,628,493,146,58,-49,279,-66,112,260,285,192,-197,-112,101,99,-181,250,-50,4,77,62,-194,-266,-67,-58,-238,-266
48462,265,403,626,-49,86,614,464,166,53,-53,255,-50,127,260,263,220,-207,-113,131,106,-199,264,-13,54,96,92,-163,-251,-40,12,-181,-215
48463,265,386,587,-55,90,588,459,151,70,-67,243,-94,125,274,256,234,-206,-107,158,117,-207,237,-25,76,134,147,-146,-190,49,72,-93,-193
48464,254,367,589,-43,85,607,382,133,60,-72,247,-115,119,248,254,191,-207,-94,159,131,-184,222,-47,87,134,144,-147,-127,88,127,-59,-162
48465,298,399,633,-36,96,579,437,141,63,-68,249,-96,103,250,238,189,-246,-81,151,109,-192,217,-51,73,135,135,-145,-171,28,83,-75,-187
48466,342,440,701,-11,117,549,535,187,69,-101,218,-36,124,246,228,193,-204,-68,159,99,-201,220,-38,79,141,143,-147,-148,29,70,-98,-259
48467,353,425,726,24,126,576,484,226,67,-99,236,-30,134,236,233,179,-182,-100,124,72,-198,241,-56,46,116,109,-175,-223,-55,-15,-190,-264
48468,373,446,722,41,152,604,503,227,87,-86,248,16,157,234,267,173,-152,-61,145,94,-156,291,-4,57,153,134,-122,-205,-12,16,-181,-210
48469,393,490,720,54,164,616,527,189,102,-79,230,-2,172,248,253,57,-158,-22,170,115,-120,275,11,71,152,124,-116,-259,-26,20,-172,-262
48470,395,490,724,53,148,610,495,190,101,-91,241,-33,183,255,263,166,-167,-50,180,132,-209,235,27,58,162,137,-197,-234,-28,35,-157,-249
48471,354,484,711,58,147,625,469,226,106,-107,218,-36,176,272,225,234,-216,-44,169,101,-344,259,-37,52,172,97,-188,-201,25,62,-126,-192
48472,343,464,651,34,115,591,457,201,77,-122,179,-19,147,243,177,165,-251,-66,154,84,-287,187,-64,53,177,69,-165,-197,54,79,-138,-266
48473,344,437,633,14,111,584,411,180,86,-121,191,-30,161,245,170,174,-248,-42,171,97,-286,149,-15,85,164,99,-186,-179,67,69,-133,-251
48474,354,448,644,0,111,559,431,190,84,-121,175,-30,174,255,164,182,-227,-34,192,83,-280,158,14,98,169,92,-205,-146,81,61,-140,-265
48475,350,460,676,-8,118,559,464,188,82,-113,182,-6,174,253,182,151,-153,-26,207,97,-271,294,85,112,184,106,-213,-213,2,46,-150,-269
48476,345,494,677,21,124,590,485,206,91,-86,257,6,161,286,254,134,-137,-9,219,146,-235,342,80,119,200,159,-148,-160,23,75,-101,-214
48477,351,515,717,30,116,569,437,208,78,-102,202,-27,161,278,250,171,-109,-42,216,160,-202,304,-16,133,229,176,-104,-62,120,145,-65,-145
48478,393,528,725,29,119,555,461,220,100,-96,190,17,186,284,264,215,-59,8,253,171,-174,328,119,163,252,183,-53,30,178,195,15,-84
48479,390,531,676,16,131,583,489,215,89,-75,211,63,179,284,292,227,-61,25,270,187,-150,380,104,195,269,200,-37,70,229,230,58,-51
48480,398,534,688,14,147,591,507,238,92,-73,184,56,190,288,328,237,-93,10,256,180,-156,394,103,182,249,204,-85,-1,187,203,-4,-61
48481,400,532,720,38,132,585,483,248,82,-90,209,56,184,279,299,255,-73,-3,234,154,-188,390,82,144,230,174,-105,-109,87,133,-58,-82
48482,430,542,734,52,138,611,535,234,73,-85,264,78,181,289,231,293,-102,14,224,152,-183,424,83,138,228,167,-138,-107,98,122,-69,-108
48483,380,519,697,34,145,594,532,208,76,-51,235,76,172,286,301,289,-100,-4,217,147,-161,387,116,132,213,175,-115,-101,102,123,-95,-148
48484,359,529,674,25,138,611,509,189,71,-34,224,41,131,299,338,285,-95,-60,185,142,-150,324,22,99,181,171,-92,-64,89,102,-89,-136
48485,350,526,622,26,146,637,505,165,64,-30,216,-22,104,311,331,295,-114,-117,162,160,-155,308,-2,48,176,151,-81,-117,49,83,-77,-100
48486,340,505,609,14,125,649,523,126,60,-21,288,-53,84,309,351,246,-192,-119,151,162,-131,342,-26,34,168,145,-60,-193,21,77,-78,-107
48487,325,498,650,11,149,666,525,131,49,-33,292,-44,87,298,265,240,-142,-113,155,133,-164,302,-25,46,125,127,-115,-215,-5,37,-113,-131
48488,332,490,643,11,152,654,501,146,70,-25,243,-67,90,326,309,295,-142,-104,163,154,-175,326,-19,37,156,166,-87,-210,-5,24,-140,-122
48489,310,464,613,2,131,623,483,140,65,-43,238,-88,76,296,311,266,-152,-154,119,131,-206,342,-88,6,151,113,-105,-177,-19,1,-193,-234
48490,296,451,588,1,100,624,469,147,56,-51,242,-75,70,286,281,274,-174,-141,128,127,-200,342,-50,8,129,87,-136,-188,-4,0,-205,-337
48491,320,477,597,2,112,644,506,158,74,-37,250,-56,102,314,323,278,-167,-120,170,167,-141,347,-40,30,163,160,-94,-174,23,11,-163,-280
48492,278,458,589,-15,115,639,515,150,72,-39,259,-67,86,328,348,197,-172,-115,179,173,-123,329,-56,31,170,186,-63,-168,10,47,-121,-259
48493,287,457,610,-24,109,656,515,153,93,-26,295,-34,123,320,354,215,-179,-85,192,167,-122,303,-33,65,170,197,-56,-152,39,68,-103,-195
48494,291,467,616,-8,85,633,527,173,83,-26,273,-37,153,314,327,308,-182,-85,195,152,-136,308,11,66,171,180,-18,-208,11,59,-110,-210
48495,294,460,637,-21,89,631,544,175,77,-55,205,-22,149,310,323,259,-179,-63,188,158,-124,298,19,76,180,188,-15,-182,-2,62,-89,-200
48496,333,481,619,-25,128,685,552,159,77,-31,296,-9,140,297,365,343,-182,-61,195,157,-97,325,19,91,203,217,-12,-145,37,87,-88,-194
48497,343,517,629,20,121,687,596,151,68,-40,371,18,139,284,294,413,-146,-52,184,150,-96,360,17,84,183,235,8,-160,49,85,-78,-208
48498,332,510,655,13,107,683,595,124,64,-48,299,22,136,292,308,335,-101,-52,175,154,-100,345,20,78,197,218,-1,-231,12,76,-72,-164
48499,326,483,658,-16,107,670,567,141,66,-33,290,19,141,288,305,335,-67,-53,173,159,-112,342,54,109,186,238,-8,-223,18,81,-82,-179
48500,306,484,642,-10,116,672,560,116,64,-31,312,-7,140,302,297,337,-79,-36,195,168,-100,334,93,122,184,271,23,-71,99,153,-16,-155
48501,345,539,670,13,132,676,581,149,83,-31,298,36,150,289,318,329,-98,-17,218,174,-90,351,70,128,225,259,37,-51,145,181,-12,-123
48502,330,551,650,-8,126,658,585,141,63,-47,302,32,151,290,326,313,-169,-10,211,161,-83,382,42,154,227,268,49,-19,189,184,-34,-110
48503,329,565,670,5,128,659,594,180,84,-55,294,58,181,298,326,289,-120,14,209,160,-78,397,118,138,220,253,127,-83,180,167,-15,-100
48504,324,568,663,13,137,649,568,186,88,-82,279,57,183,298,320,248,-77,-8,186,142,-76,389,109,131,197,233,116,-174,102,126,-37,-147
48505,335,522,660,5,117,643,535,173,74,-87,264,-8,145,285,274,234,-96,-50,173,113,-128,339,29,92,155,196,-32,-130,59,99,-95,-150
48506,330,527,604,-9,121,649,513,152,59,-75,249,-39,135,288,267,288,-103,-38,174,102,-146,338,44,90,151,166,-90,-80,107,132,-65,-139
48507,328,540,570,-20,103,640,533,134,70,-73,236,-54,124,271,239,278,-84,-57,158,85,-168,330,81,102,177,163,-78,-104,114,128,-77,-186
48508,336,537,610,-26,91,639,461,148,66,-85,200,-41,137,240,242,200,-112,-71,166,96,-172,332,29,119,150,147,-105,-79,112,106,-96,-182
48509,325,523,596,-40,80,590,497,169,55,-104,184,-6,142,261,226,185,-114,-40,178,86,-186,335,35,100,145,154,-87,-75,94,86,-98,-158
48510,328,514,596,-39,100,537,532,150,78,-116,184,29,166,288,236,239,-87,-3,212,107,-167,377,91,118,171,195,-53,-69,114,92,-84,-146
48511,319,484,593,-42,101,573,467,156,56,-113,174,25,155,292,233,231,-91,4,224,116,-201,349,116,117,176,173,-103,-56,135,105,-90,-143
48512,291,468,536,-62,66,541,484,139,44,-128,184,6,130,278,247,246,-131,-21,214,116,-227,348,120,105,168,147,-75,-134,122,93,-87,-172
48513,301,486,560,-39,78,588,473,130,52,-103,336,16,141,297,271,283,-161,-7,213,149,-155,339,116,106,198,184,-41,-113,148,141,-42,-157
48514,307,482,598,-39,83,578,494,130,62,-104,192,7,135,290,275,232,-162,-28,200,151,-147,348,63,91,195,210,-49,-116,122,156,3,-86
48515,305,478,613,-50,64,548,508,124,52,-109,74,-46,114,268,268,176,-133,-90,199,130,-167,347,-81,62,168,162,-62,-108,85,134,-45,-78
48516,314,464,634,-71,63,573,447,136,31,-96,177,-72,114,264,301,186,-157,-63,191,137,-179,304,-49,47,147,133,-116,-151,15,24,-153,-205
48517,309,471,619,-66,66,581,442,136,31,-97,274,-8,131,251,266,241,-189,-27,192,155,-175,335,33,63,142,127,-146,-236,-21,-6,-211,-304
48518,294,448,640,-41,66,592,488,135,33,-113,293,14,140,274,212,280,-152,-57,197,130,-183,318,-7,43,134,117,-156,-296,-94,-62,-276,-333
48519,293,401,647,-57,55,603,485,125,25,-97,224,-102,144,274,233,255,-152,-93,175,134,-186,291,-102,20,149,110,-139,-142,-69,-51,-244,-315
48520,270,420,612,-44,57,597,486,130,59,-81,194,-44,145,262,270,265,-114,-114,187,138,-174,323,-83,33,148,132,-96,-156,-43,-6,-202,-256
48521,276,433,619,-40,80,604,500,132,49,-84,247,2,112,251,270,261,-141,-131,182,124,-171,340,-67,21,149,124,-135,-289,-68,-21,-215,-276
48522,298,459,631,-43,70,615,482,136,36,-83,257,1,122,248,269,269,-149,-110,170,130,-161,355,-55,37,158,142,-141,-272,-54,-3,-220,-251
48523,315,468,644,-46,73,616,507,141,60,-106,261,-26,137,281,288,281,-156,-102,200,143,-164,336,-47,38,169,157,-72,-223,-23,12,-188,-256
48524,302,468,628,-67,58,590,507,137,59,-108,251,-18,139,268,281,282,-206,-105,194,146,-169,375,-48,20,179,164,-76,-220,-14,25,-165,-253
48525,342,479,655,-24,56,578,495,165,56,-81,240,-8,169,258,282,298,-234,-41,207,162,-168,337,-43,63,183,188,-81,-246,-15,28,-156,-230
48526,353,470,677,-24,67,593,526,189,66,-81,265,-10,163,282,292,273,-206,-27,228,157,-176,276,6,83,198,187,-78,-236,-26,14,-158,-252
48527,304,449,648,-59,54,573,527,150,50,-88,248,-37,141,284,300,261,-234,-58,218,156,-155,317,2,85,205,168,-93,-192,-6,45,-152,-251
48528,305,441,691,-41,53,580,506,167,42,-111,206,-38,143,293,289,190,-199,-101,216,182,-116,317,12,84,201,174,-91,-186,18,57,-149,-243
48529,329,449,689,-45,55,587,545,168,72,-107,239,-13,160,318,320,145,-168,-75,229,229,-32,322,-34,88,242,207,-63,-177,24,69,-160,-243
48530,319,445,643,-53,40,572,531,141,58,-87,287,-8,167,329,342,263,-169,-44,252,227,-112,391,-2,96,243,233,-74,-151,68,135,-66,-208
48531,332,463,658,-49,60,605,550,164,61,-61,290,18,181,352,325,316,-181,-46,268,206,-191,380,34,110,253,237,-60,-154,94,164,-17,-91
48532,342,489,665,-38,90,622,557,185,63,-66,295,26,176,354,335,340,-147,-54,250,219,-131,323,11,126,272,244,-22,-136,98,144,2,-109
48533,356,522,698,-13,94,615,527,199,87,-71,270,26,192,344,358,336,-87,-35,261,225,-118,418,21,154,257,255,-9,-129,99,112,-50,-200
48534,387,534,698,-5,94,617,545,200,87,-69,263,52,210,357,384,316,-61,26,307,229,-114,413,74,212,258,254,-39,-75,159,125,-48,-187
48535,410,547,686,-12,87,621,559,180,80,-81,286,74,207,346,363,344,-71,58,303,240,-138,350,129,228,270,253,-63,-61,194,167,-26,-136
48536,401,542,694,-1,80,623,541,228,69,-99,299,70,209,324,330,355,-78,43,292,224,-179,395,159,232,256,244,-26,-142,191,168,-19,-92
48537,422,545,739,22,94,636,537,225,68,-98,286,58,220,329,345,317,-85,72,288,223,-151,356,136,228,247,233,-43,-162,153,132,-14,-108
48538,420,529,754,29,94,624,534,241,69,-75,276,69,200,319,331,301,-107,56,256,202,-161,355,95,177,227,212,-102,-57,186,130,-90,-231
48539,425,522,767,4,94,619,543,226,59,-77,278,89,195,306,341,222,-80,44,253,188,-150,351,107,159,212,180,-172,-58,174,88,-154,-296
48540,442,549,785,13,110,638,568,237,48,-67,290,79,180,311,370,210,-7,24,245,192,-101,413,104,180,211,208,-86,-83,161,109,-103,-244
48541,403,526,728,-2,98,621,549,215,51,-77,264,82,156,312,367,307,-46,22,241,191,-111,405,103,170,194,213,-28,-37,190,136,-65,-204
48542,385,492,716,-1,94,618,530,237,64,-78,295,76,175,326,339,373,-67,45,258,201,-117,343,145,183,197,230,-33,-47,230,163,-24,-164
48543,387,478,684,-23,107,616,533,230,63,-53,228,61,174,315,363,324,-47,36,262,202,-150,379,129,175,215,246,-49,-85,222,181,-33,-152
48544,356,450,658,-28,93,607,477,186,47,-66,174,47,169,311,392,298,-98,8,257,196,-137,388,109,153,206,214,-29,-107,192,167,-44,-200
48545,363,471,682,-6,95,611,477,175,63,-71,309,89,191,358,344,316,-35,39,278,227,-119,387,176,195,216,218,-18,-58,247,216,18,-118
48546,368,491,709,-5,96,602,547,162,78,-86,321,80,211,367,288,360,-38,56,299,242,-98,436,168,189,225,263,11,-34,237,197,86,-55
48547,349,503,687,5,89,604,538,172,61,-65,293,64,209,343,351,377,-74,48,288,255,-60,406,142,180,241,290,17,-83,137,160,54,-41
48548,367,530,709,21,107,648,566,218,59,-47,341,79,204,333,384,408,-51,53,290,267,-37,464,141,192,250,322,83,-71,189,201,71,25
48549,431,594,747,52,123,703,617,255,94,-33,359,142,246,341,421,470,13,133,322,299,1,528,185,259,296,350,134,29,277,267,114,75
48550,468,577,781,81,122,761,612,275,111,-5,378,177,285,352,442,447,47,160,328,306,12,555,246,253,300,347,123,9,267,235,101,89
48551,464,617,809,99,127,708,638,286,115,0,404,169,271,339,475,460,61,139,315,313,35,589,211,249,295,375,160,43,289,267,108,77
48552,451,626,765,73,125,646,685,260,95,-60,390,149,276,314,381,523,106,140,317,291,31,596,237,263,293,362,163,78,291,268,85,-3
48553,456,638,766,51,148,679,682,257,97,-42,419,200,270,326,370,494,123,129,315,269,38,532,219,256,290,363,177,16,260,229,110,7
48554,466,644,785,86,170,706,699,298,112,-10,434,188,273,339,451,491,113,130,308,280,45,581,211,255,304,385,200,30,280,263,114,39
48555,444,632,735,93,147,710,705,265,112,-24,439,118,248,310,432,511,75,84,291,274,42,613,232,220,285,388,173,28,271,258,138,79
