,Fp1,Fp2,F7,F3,Fz,F4,F8,FC5,FC1,FC2,FC6,T7,C3,Cz,C4,T8,TP9,CP5,CP1,CP2,CP6,TP10,P7,P3,Pz,P4,P8,PO9,O1,Oz,O2,PO10
171103,95,241,461,194,-53,585,262,469,86,143,361,277,488,-136,278,231,185,86,155,145,93,461,310,189,274,373,405,-11,456,133,93,259
171104,96,307,424,231,-21,596,241,506,115,152,381,372,497,-105,315,224,225,107,169,180,123,428,333,216,300,407,410,-5,484,159,122,282
171105,111,340,359,341,-11,590,201,509,106,157,469,385,515,-89,331,255,257,124,182,209,151,483,355,222,295,443,432,9,495,173,155,297
171106,84,286,420,378,-32,629,105,540,89,159,431,389,498,-112,326,229,223,109,162,185,132,488,329,195,282,434,440,-27,481,166,161,321
171107,105,291,459,346,-53,611,83,536,93,149,371,432,497,-135,324,210,191,132,158,186,126,425,376,207,287,436,466,-42,500,199,224,374
171108,130,263,449,301,-35,660,143,504,91,168,421,376,505,-128,342,252,237,166,167,191,168,416,444,232,284,451,491,43,542,217,231,379
171109,183,299,494,321,-27,634,195,625,89,163,378,416,521,-134,330,236,292,133,143,179,141,460,434,226,255,427,467,53,493,140,103,336
171110,196,263,488,275,-34,618,243,661,93,180,375,415,523,-131,329,241,299,128,160,187,168,487,388,230,263,448,497,81,544,173,150,382
171111,187,244,629,229,-42,572,163,642,81,164,279,357,563,-140,305,211,305,155,174,169,163,427,369,239,264,438,504,121,568,218,201,382
171112,207,301,595,199,-40,586,198,547,71,159,275,402,544,-148,308,238,281,147,142,162,167,467,321,205,233,403,480,42,506,152,106,265
171113,232,377,591,210,-49,588,238,527,52,174,355,490,438,-134,342,233,273,101,120,190,237,500,325,155,233,425,539,-70,434,108,102,341
171114,246,365,602,251,-55,638,158,546,57,185,317,437,491,-117,335,267,283,123,144,175,182,508,352,177,238,423,518,6,451,133,137,389
171115,286,409,691,329,-43,499,150,719,93,201,356,446,553,-117,333,300,265,166,168,178,114,488,395,185,246,406,447,-24,436,108,94,316
171116,232,359,619,347,-43,408,162,731,94,204,416,501,560,-100,333,339,257,174,179,211,161,639,404,211,279,421,500,41,502,148,131,352
171117,217,298,410,326,-61,620,196,438,80,200,494,455,520,-114,373,315,274,138,179,218,213,676,398,233,310,469,546,89,529,189,167,368
171118,187,255,527,378,-65,684,165,450,72,192,574,432,505,-118,389,194,260,152,160,222,295,567,390,227,289,456,577,94,514,162,128,283
171119,203,303,649,373,-75,604,283,552,92,174,378,599,554,-118,338,340,295,162,180,198,220,503,385,231,285,437,552,-1,501,171,148,324
171120,181,369,578,348,-76,510,313,608,131,177,273,518,560,-91,328,424,362,158,181,191,44,533,445,232,296,411,437,43,528,178,145,285
171121,111,337,532,304,-94,459,206,512,104,159,364,377,535,-112,348,284,325,167,177,187,140,517,435,206,281,424,439,67,506,167,130,287
171122,155,216,574,254,-102,517,214,525,80,178,394,359,534,-115,331,305,277,153,183,188,139,509,406,202,285,404,450,33,487,152,116,302
171123,208,237,525,208,-76,582,265,597,80,175,425,371,539,-106,332,267,288,155,189,191,131,524,434,224,287,407,469,80,517,188,145,349
171124,260,324,647,245,-69,642,277,662,93,189,425,435,525,-107,338,171,295,131,175,202,121,504,411,208,269,415,485,64,493,155,138,416
171125,249,342,489,284,-72,595,166,663,86,179,380,499,529,-110,302,136,283,157,172,178,107,423,426,221,260,390,454,84,482,159,126,350
171126,127,406,360,289,-61,569,112,740,73,179,366,423,537,-118,291,218,285,152,169,176,72,420,422,210,268,364,426,103,514,165,132,292
171127,95,398,436,312,-34,581,212,802,83,176,413,401,526,-113,305,177,359,111,142,171,160,395,412,203,257,375,469,94,524,192,161,330
171128,177,303,422,311,-42,520,330,723,73,177,318,427,541,-100,346,182,348,160,176,215,350,398,435,241,295,438,566,107,539,199,177,361
171129,174,254,506,314,-71,520,218,654,81,161,370,434,557,-125,279,306,316,173,159,169,67,397,413,201,255,351,416,98,514,154,114,308
171130,168,267,553,255,-66,510,159,536,61,160,337,470,527,-146,243,333,281,149,149,153,-84,483,415,182,227,317,370,75,499,147,74,252
171131,152,269,566,226,-56,503,137,427,42,159,352,408,476,-146,280,209,214,85,130,152,71,482,396,163,233,337,404,68,488,143,69,226
171132,177,290,620,232,-38,556,163,450,64,169,348,540,490,-145,285,205,247,86,119,141,77,478,372,145,224,327,386,-30,453,87,37,209
171133,215,333,741,212,-48,536,194,573,80,167,345,555,511,-146,285,199,259,84,123,142,71,447,342,140,209,329,373,-97,386,46,31,244
171134,190,326,739,280,-58,472,224,593,58,163,358,413,488,-153,309,243,238,100,118,141,82,445,368,141,203,334,432,-25,399,63,44,307
171135,172,363,550,283,-67,552,278,459,31,183,392,388,485,-133,315,298,263,116,138,166,85,423,414,191,226,352,438,123,503,148,116,344
171136,159,315,499,246,-86,446,246,396,45,202,378,410,482,-134,324,302,256,116,132,172,107,409,402,194,246,370,446,152,529,191,155,383
171137,148,258,451,237,-62,252,272,452,65,193,397,399,470,-130,350,241,271,110,130,188,150,616,403,176,252,419,546,127,540,196,175,529
171138,81,269,358,260,-67,304,318,484,26,175,399,340,459,-121,358,53,248,80,128,202,139,567,346,142,228,397,467,20,467,147,116,315
171139,37,276,392,259,-58,557,259,478,39,183,437,225,434,-150,350,-16,177,73,87,162,98,515,292,91,177,337,380,-172,354,34,-9,143
171140,82,312,385,266,-78,644,214,467,46,199,414,216,444,-132,362,132,228,39,89,178,117,503,321,121,213,369,462,-23,441,120,79,329
171141,96,292,397,217,-75,613,110,445,40,184,347,277,438,-139,336,172,267,-13,86,172,111,434,257,127,214,380,466,40,481,138,107,314
171142,36,231,410,251,-61,645,73,459,45,201,360,300,416,-129,358,181,259,-3,107,181,133,464,282,144,236,398,482,-5,475,126,115,302
171143,-89,187,355,274,-56,645,77,454,58,223,397,332,435,-101,374,270,207,41,134,223,168,492,338,179,268,398,503,94,542,202,142,349
171144,-40,260,371,223,-62,639,239,450,28,220,434,305,418,-126,372,352,193,35,112,197,164,449,266,157,238,397,481,16,507,163,125,377
171145,204,430,471,269,-18,702,389,417,37,233,514,331,427,-112,391,447,177,47,98,206,178,547,224,142,221,406,499,-47,455,121,106,369
171146,310,514,585,280,-4,686,464,443,42,225,514,299,440,-124,376,444,220,-4,79,192,187,698,238,110,200,374,508,-95,339,41,64,325
171147,285,472,509,260,-15,703,413,441,32,217,481,289,428,-132,369,363,205,-22,80,176,158,538,257,116,190,348,395,-41,365,46,40,183
171148,243,444,457,257,-21,667,405,441,39,233,479,335,445,-107,373,369,180,-2,99,201,160,545,281,133,209,366,395,-42,408,87,69,230
171149,190,410,552,274,-25,679,363,497,51,228,446,304,432,-111,368,382,196,22,116,182,156,567,333,127,201,387,451,-28,387,105,117,379
171150,136,402,467,248,-43,703,350,432,28,206,429,237,410,-142,365,297,115,-18,84,175,149,487,239,91,163,363,398,6,372,52,46,252
171151,104,388,273,169,-33,692,246,316,38,219,400,275,421,-122,396,224,172,-4,95,201,289,497,226,104,193,407,479,23,416,85,65,243
171152,110,370,382,143,-41,665,209,374,36,216,378,303,413,-138,349,328,179,-20,68,168,159,368,250,78,167,354,413,-121,367,32,20,243
171153,69,353,311,126,-23,708,288,367,18,205,431,249,408,-171,307,398,151,-46,49,134,-32,411,243,64,140,292,314,-114,341,11,-10,241
171154,29,322,260,138,-25,694,305,395,19,214,482,329,371,-167,339,325,107,-134,45,133,104,438,208,46,133,315,361,-96,346,-4,1,203
171155,21,352,236,256,-33,673,292,398,-1,220,445,213,369,-153,340,267,71,-117,36,124,102,533,207,59,141,336,382,-115,355,17,23,234
171156,-14,325,257,260,-63,673,267,388,20,207,395,6,391,-154,339,208,86,-63,64,128,94,496,231,89,152,336,370,-6,393,44,8,204
171157,0,295,354,270,-61,637,251,468,39,201,406,44,420,-148,340,275,100,-23,78,122,118,507,242,95,162,337,383,36,429,77,69,252
171158,47,339,187,286,-56,604,284,577,57,195,410,112,480,-154,332,305,106,17,79,135,117,485,245,107,154,348,396,8,414,60,60,292
171159,87,412,182,203,-49,641,338,345,25,207,435,240,435,-157,337,303,167,9,68,148,116,470,252,96,183,351,390,-132,351,4,19,229
171160,153,416,358,217,-26,718,335,303,5,220,433,308,346,-147,328,261,112,-45,68,125,119,435,228,83,175,326,375,-169,326,-20,-33,214
171161,118,376,276,200,-49,734,267,416,25,215,401,202,388,-161,324,258,74,-15,84,135,109,497,195,91,166,330,398,-104,344,14,3,289
171162,53,365,222,144,-49,806,158,579,34,199,429,205,404,-169,315,172,100,-16,67,125,78,497,185,88,154,308,401,-106,347,10,24,273
171163,72,377,187,187,-51,801,146,612,21,191,481,140,389,-164,326,51,134,-63,41,102,84,368,242,76,141,295,351,-47,375,19,-8,109
171164,42,369,160,178,-78,488,333,641,22,203,405,151,402,-153,341,125,84,-82,44,128,183,418,206,66,146,322,422,-89,364,28,6,191
171165,56,362,107,192,-71,423,287,686,18,178,378,150,418,-169,314,65,108,-62,64,123,52,435,217,91,137,274,325,-91,369,28,-14,172
171166,98,350,138,236,-63,562,248,650,51,198,387,304,424,-141,333,182,157,-47,76,145,75,523,240,112,161,301,354,-108,350,14,0,190
171167,113,346,245,227,-58,579,270,502,44,188,360,293,436,-134,263,300,121,-11,83,116,30,406,251,131,181,312,388,-75,377,65,73,312
171168,111,396,248,198,-63,591,213,515,35,176,370,198,438,-141,296,249,126,17,96,143,93,446,282,154,205,340,399,-3,450,116,100,304
171169,66,421,249,261,-70,630,226,461,49,179,369,163,455,-118,303,247,171,24,117,153,60,520,327,165,221,329,377,30,457,90,74,281
171170,28,400,286,217,-68,686,208,161,31,209,406,156,423,-124,339,284,155,49,124,147,127,536,387,157,229,360,430,83,484,111,72,337
171171,68,368,415,191,-64,639,85,193,39,200,438,345,435,-136,328,208,209,64,114,143,90,375,375,171,206,339,391,91,499,104,36,214
171172,59,354,281,196,-62,611,152,338,48,200,466,412,419,-134,311,240,253,14,97,126,83,343,217,114,195,318,327,-119,334,11,-12,115
171173,60,335,273,203,-56,629,156,474,56,185,405,263,468,-119,315,259,194,44,118,152,142,489,258,140,221,365,438,-86,396,110,125,390
171174,125,295,408,220,-50,641,108,536,50,195,354,276,485,-110,315,221,198,64,125,176,143,561,334,172,254,407,447,60,525,191,170,358
171175,149,299,458,183,-78,615,195,413,43,183,365,302,438,-129,318,247,185,12,115,173,132,569,327,161,242,383,439,31,495,166,157,290
171176,199,393,459,249,-44,602,221,438,48,187,339,349,454,-128,322,277,227,72,121,183,140,554,354,182,252,375,443,88,465,67,47,242
171177,168,448,392,274,-18,648,221,392,28,212,404,394,460,-123,334,301,229,89,133,200,183,554,391,198,262,413,470,172,494,83,56,224
171178,143,431,445,252,-30,691,201,391,61,220,443,369,476,-120,374,314,260,102,134,226,245,659,350,206,300,474,559,106,521,167,190,423
171179,146,417,368,215,-38,703,286,369,58,204,417,367,467,-121,391,218,316,20,119,218,346,662,301,152,281,503,656,-111,462,163,207,562
171180,168,388,442,280,-39,715,277,486,58,213,386,431,467,-112,403,212,390,58,134,246,438,624,427,212,297,554,703,106,563,244,282,585
171181,230,416,447,312,-20,687,288,489,51,217,404,499,460,-122,347,409,483,102,125,221,121,667,500,247,290,465,541,247,610,254,223,431
171182,223,450,449,316,-33,670,326,458,39,189,395,416,439,-153,316,393,385,63,119,175,55,608,490,200,262,392,449,251,570,204,172,273
171183,255,527,487,260,-28,686,377,490,62,185,410,364,489,-130,324,347,301,126,127,176,158,593,494,212,257,396,493,253,611,209,189,342
171184,285,493,517,236,-35,644,332,559,70,181,405,356,505,-121,323,296,271,136,127,181,125,534,391,203,245,384,472,119,557,186,152,375
171185,216,468,462,191,-32,592,304,482,54,183,384,451,497,-136,321,252,376,117,125,164,97,541,404,168,253,344,430,0,449,60,37,260
171186,257,487,533,281,-35,557,240,612,86,179,344,499,525,-114,322,275,444,153,133,183,108,544,462,194,247,369,415,6,419,62,34,199
171187,259,463,478,321,-58,480,262,693,84,205,401,372,529,-107,361,274,254,114,147,209,188,501,431,224,248,423,498,76,494,159,128,330
171188,268,501,338,301,-49,343,303,740,99,199,408,485,527,-108,340,177,367,106,130,188,170,405,432,240,257,418,493,86,500,167,131,332
171189,204,487,179,288,-47,406,317,798,131,197,407,545,554,-117,350,241,407,122,164,180,173,641,437,244,270,420,496,97,508,194,157,347
171190,145,463,136,229,-39,588,259,764,112,203,427,316,553,-124,348,336,364,167,169,192,173,702,459,264,282,436,525,170,557,206,172,374
171191,142,450,205,251,-36,668,230,714,96,203,415,326,527,-107,344,385,460,172,169,197,196,668,548,277,296,451,551,210,591,258,227,446
171192,174,484,376,302,-6,712,304,738,92,205,422,479,527,-129,360,384,493,201,187,215,202,680,582,302,298,464,558,243,629,294,279,464
171193,250,490,546,342,0,725,350,733,90,198,452,498,526,-130,364,386,434,214,171,213,203,700,531,278,281,465,537,148,617,267,230,402
171194,309,463,526,378,-22,710,299,613,66,198,415,525,511,-144,340,347,337,206,158,195,161,583,511,282,301,446,496,193,624,276,236,339
171195,322,469,493,418,-19,680,309,572,80,187,370,557,524,-140,307,301,323,171,148,177,128,510,479,268,268,429,455,156,598,263,230,294
171196,336,553,498,361,6,657,397,587,97,214,475,518,526,-116,364,264,380,173,164,191,165,596,500,274,294,472,499,149,616,262,256,370
171197,374,627,548,339,24,630,405,558,69,227,546,583,502,-102,405,266,431,162,187,261,231,644,518,287,332,496,564,192,629,282,303,445
171198,428,613,586,187,0,701,405,506,51,238,505,487,482,-113,394,336,341,166,179,251,208,637,476,259,330,503,564,144,585,265,275,437
171199,430,589,644,187,-2,653,367,542,13,215,492,407,478,-141,375,412,316,150,141,206,188,572,440,230,293,476,511,109,561,226,194,345
171200,348,522,640,272,-9,505,330,536,58,219,464,522,508,-120,377,384,418,205,176,219,188,580,522,287,353,511,551,176,603,282,290,393
171201,306,458,526,258,0,663,316,370,44,226,498,493,486,-110,376,357,383,195,179,237,208,625,505,286,353,527,596,207,621,321,345,455
171202,282,443,570,290,-12,693,304,487,49,223,453,458,499,-116,381,321,332,167,165,239,210,636,453,265,324,497,599,181,649,321,340,490
171203,238,454,486,344,-32,629,273,544,65,181,418,612,501,-146,363,228,358,86,129,197,152,519,398,213,276,459,547,68,527,211,219,386
171204,208,468,493,355,-31,656,334,551,45,204,477,484,451,-139,357,281,351,22,113,192,174,487,412,213,271,461,542,94,535,216,222,402
171205,183,428,406,373,-31,673,341,630,80,225,475,333,475,-124,376,320,402,114,144,219,217,547,492,289,339,517,611,315,724,372,360,524
171206,190,410,466,337,-48,659,304,561,74,186,364,317,476,-123,356,227,288,131,158,208,172,512,455,279,323,502,584,285,700,350,338,474
171207,228,363,627,326,-53,631,219,567,74,186,325,377,474,-131,316,194,213,134,135,188,145,480,417,246,288,487,550,158,631,282,259,425
171208,270,440,492,272,-28,658,262,548,62,194,395,320,478,-126,327,296,192,65,109,187,161,562,284,190,281,466,530,-143,469,159,175,324
171209,236,456,458,232,-43,643,214,401,29,188,414,323,426,-146,322,324,264,43,99,156,171,602,304,193,265,463,566,20,474,162,207,420
171210,257,474,498,253,-28,634,249,417,47,193,445,381,467,-134,333,335,313,97,122,191,188,674,348,239,299,491,610,88,560,233,266,498
171211,266,503,473,276,1,660,347,421,48,203,485,375,459,-136,367,376,278,89,132,203,218,722,371,248,306,506,598,91,564,232,237,413
171212,213,476,491,242,7,693,311,393,54,219,515,355,452,-139,388,370,273,119,149,219,226,649,407,258,305,518,619,75,601,257,267,469
171213,198,473,506,230,0,715,220,428,58,222,551,343,464,-145,375,320,264,112,141,215,221,574,441,245,296,484,579,105,602,277,270,444
171214,219,479,524,255,1,710,180,464,62,237,560,376,444,-148,381,311,306,70,126,204,213,641,352,223,279,451,536,108,572,215,172,290
171215,264,398,547,336,-18,625,275,551,60,215,379,448,474,-136,375,324,373,116,146,213,212,707,388,243,279,469,582,147,597,254,198,327
171216,251,416,479,337,13,706,381,641,107,231,478,376,479,-135,400,289,316,110,149,225,186,643,390,253,277,462,520,96,584,220,184,314
171217,215,494,388,340,8,711,377,774,87,228,493,257,496,-130,413,204,286,74,143,221,206,573,357,214,279,438,513,82,534,161,164,364
171218,143,437,300,338,-24,617,176,815,103,187,396,262,496,-130,369,138,295,38,135,200,168,509,368,197,261,399,459,134,537,143,127,265
171219,101,433,191,306,-18,596,206,715,122,201,438,336,477,-124,375,259,294,-3,118,205,180,590,369,191,244,420,506,75,519,157,155,306
171220,52,458,264,321,-34,582,247,536,90,165,440,372,423,-139,355,314,321,-7,99,186,162,566,389,191,226,403,481,34,499,137,99,253
171221,131,496,435,309,-31,536,267,421,71,174,388,297,417,-133,350,281,278,50,104,184,193,551,421,203,237,409,491,147,532,156,104,281
171222,191,420,521,275,-38,529,232,444,79,193,359,354,444,-103,359,133,167,117,131,206,266,477,388,197,244,440,517,86,550,188,182,314
171223,166,340,422,256,-24,551,255,441,63,199,374,374,431,-96,368,287,188,94,129,230,314,537,382,188,260,479,600,6,512,198,230,465
171224,220,394,498,356,-7,571,328,475,68,219,412,399,433,-117,335,446,178,83,108,180,71,620,333,152,214,390,488,-33,345,32,52,382
171225,248,400,641,330,-35,586,279,490,70,197,355,458,440,-132,325,314,236,118,125,186,123,581,372,163,212,388,460,91,468,79,30,245
171226,281,399,692,319,-16,611,281,499,77,198,365,460,498,-112,345,339,351,142,152,200,188,552,400,192,259,409,487,-6,477,113,95,260
171227,337,417,687,254,3,624,287,350,68,199,382,438,474,-118,340,361,269,119,136,183,158,534,345,194,246,395,507,-124,437,77,77,278
171228,335,405,617,217,0,620,284,362,72,190,390,449,463,-111,338,326,231,118,136,196,163,526,376,201,252,416,502,45,531,133,99,268
171229,287,405,558,268,-14,609,273,557,86,197,386,442,491,-112,340,203,223,159,172,214,235,473,423,233,269,445,574,172,607,237,192,418
171230,277,349,604,299,-46,595,158,630,81,173,337,473,467,-117,345,29,225,134,145,193,300,463,347,205,250,435,563,81,495,131,112,326
171231,275,342,465,261,-6,651,155,594,84,204,405,422,457,-111,354,229,260,82,152,214,233,449,379,194,262,434,521,29,450,102,111,308
171232,217,386,358,229,-4,672,271,566,34,210,407,248,411,-128,300,401,182,15,123,179,-28,505,270,169,243,377,464,-150,402,110,126,373
171233,277,401,367,240,12,655,210,559,60,218,315,278,428,-125,318,290,164,-9,110,194,106,522,254,146,236,383,453,-204,369,24,49,232
171234,274,457,408,295,12,657,206,625,73,223,381,383,444,-106,321,278,228,-3,117,205,126,497,300,172,228,400,444,-73,431,26,4,112
171235,202,464,437,268,-22,600,223,503,64,211,407,359,429,-122,334,362,206,0,115,203,166,567,276,153,244,434,506,-78,426,78,53,215
171236,212,432,432,298,-36,566,209,447,60,187,307,285,454,-112,316,294,260,41,111,195,167,626,304,171,241,434,459,-25,447,96,83,210
171237,160,395,429,305,-53,555,232,492,72,189,339,239,468,-110,320,214,202,51,130,194,123,431,297,165,243,403,405,5,485,119,114,267
171238,159,388,415,292,-59,677,211,417,46,202,370,270,430,-128,329,242,146,27,118,198,133,508,272,138,240,391,421,-19,466,94,76,260
171239,186,427,458,246,-54,647,184,252,23,216,394,287,385,-121,363,238,155,5,88,180,130,564,257,134,217,396,393,-50,413,42,59,197
171240,179,431,513,256,-53,434,170,357,41,206,414,247,412,-122,346,171,147,9,95,160,115,421,241,137,205,363,360,-65,391,36,67,228
171241,244,414,564,308,-29,480,171,397,36,196,380,222,405,-115,332,23,36,-18,113,158,79,411,189,106,186,322,306,-167,334,-33,4,112
171242,167,329,299,220,-42,579,114,339,21,179,359,221,420,-103,324,8,54,-15,108,159,67,421,199,111,182,316,294,-103,358,-44,-46,80
171243,116,308,332,228,-56,567,118,304,19,194,347,197,388,-114,323,149,34,-46,88,162,74,441,181,92,165,289,334,-143,321,-46,-32,166
171244,190,366,437,263,-46,570,153,380,25,175,329,203,400,-150,317,208,17,-32,85,134,35,445,171,100,152,280,323,-143,305,-59,-47,172
171245,206,324,599,294,-48,543,131,512,36,154,268,243,421,-147,262,135,12,-35,84,120,-7,366,160,86,143,226,276,-160,281,-100,-104,51
171246,202,338,435,260,-65,520,127,462,56,150,259,299,423,-136,266,133,64,-56,103,106,5,369,171,77,136,231,274,-165,276,-103,-110,48
171247,98,304,145,158,-88,533,96,310,58,167,357,193,403,-107,303,160,61,-46,133,140,35,345,181,112,202,299,358,-138,331,-7,11,255
171248,-35,195,87,144,-104,540,-64,329,67,191,390,147,440,-80,300,99,59,-3,161,158,14,214,202,142,246,285,296,-153,348,-32,-35,134
171249,-71,189,140,159,-110,475,51,391,77,169,229,58,493,-69,295,158,65,7,196,172,19,321,199,164,253,304,305,-127,357,-15,-44,96
171250,12,251,301,214,-88,465,141,456,47,153,168,196,429,-84,309,190,87,-11,163,167,60,436,199,162,256,333,325,-96,363,9,-7,91
171251,203,312,540,315,-37,529,116,616,77,190,285,272,462,-74,301,75,68,-12,161,184,103,387,188,138,234,343,343,-115,360,27,18,115
171252,288,404,530,342,-30,549,172,614,84,181,268,187,486,-76,316,49,38,24,148,189,242,414,249,144,211,373,432,-132,355,42,47,215
