,Fp1,Fp2,F7,F3,Fz,F4,F8,FC5,FC1,FC2,FC6,T7,C3,Cz,C4,T8,TP9,CP5,CP1,CP2,CP6,TP10,P7,P3,Pz,P4,P8,PO9,O1,Oz,O2,PO10
52911,87,241,603,107,242,369,240,593,493,409,211,579,757,324,368,406,458,563,700,410,372,675,622,747,601,624,534,357,833,1056,570,299
52912,122,240,550,104,248,430,192,531,483,436,261,553,749,330,382,436,474,539,670,428,375,628,604,740,612,632,561,378,844,1091,577,273
52913,90,203,539,132,251,426,171,615,498,429,308,564,764,334,415,446,428,557,680,449,426,654,603,751,622,664,657,420,854,1151,622,307
52914,62,179,527,129,241,412,179,649,480,407,331,588,763,328,409,375,418,525,687,453,414,651,551,748,621,654,608,444,857,1146,670,348
52915,77,205,570,170,251,352,219,676,488,408,276,648,789,336,401,383,485,553,702,467,421,703,585,788,656,676,613,452,873,1175,671,321
52916,76,251,533,199,248,291,264,726,501,410,205,687,805,338,408,395,518,589,743,460,445,636,599,804,674,687,628,479,892,1211,675,394
52917,78,128,511,167,253,388,257,740,485,429,217,629,800,333,415,395,505,575,732,478,427,611,614,813,665,667,539,453,876,1173,670,399
52918,93,81,595,139,247,436,277,680,509,447,253,588,785,344,432,398,529,565,717,498,454,706,591,800,668,678,585,359,837,1141,640,374
52919,92,161,596,140,242,309,237,699,501,434,223,583,784,353,434,430,505,593,715,504,483,642,613,815,687,695,648,412,888,1182,674,362
52920,53,175,554,154,212,369,197,718,476,414,224,601,793,343,446,411,533,605,725,488,468,584,661,819,674,671,616,465,935,1186,678,307
52921,67,189,635,148,239,447,246,605,485,450,241,624,808,359,440,391,560,597,728,510,468,700,672,815,693,709,612,483,955,1212,680,393
52922,35,238,600,173,248,412,255,565,494,443,262,621,810,359,448,406,521,606,726,517,485,764,643,821,701,718,627,425,910,1190,668,443
52923,-74,185,489,152,228,468,249,579,485,440,315,582,776,332,445,387,456,599,711,506,450,654,654,781,658,692,603,335,883,1175,671,423
52924,-143,80,469,147,231,486,134,616,497,463,319,622,787,358,457,343,445,626,714,511,449,614,711,814,656,703,572,412,959,1219,713,535
52925,-22,114,527,113,230,407,83,671,499,468,298,639,778,345,440,275,456,587,693,488,429,592,660,790,614,662,510,439,887,1140,612,352
52926,44,168,538,139,245,396,181,644,497,466,263,684,773,328,429,329,434,532,652,450,424,587,574,719,585,613,517,351,772,1029,517,254
52927,59,165,539,141,231,342,284,567,490,432,58,687,744,313,380,419,387,504,646,445,416,644,502,687,570,625,575,274,722,1016,499,344
52928,53,180,546,132,238,357,277,586,509,440,78,656,768,348,375,372,493,531,669,460,416,640,559,711,604,644,599,353,784,1075,530,366
52929,15,153,524,105,221,347,173,577,481,413,138,614,759,343,390,374,532,552,684,474,433,653,629,736,613,648,595,354,829,1091,594,223
52930,78,126,574,130,231,345,157,588,500,448,175,575,764,333,406,362,533,560,685,474,423,662,633,748,623,660,636,284,841,1094,587,216
52931,84,131,585,134,246,348,117,595,504,450,226,607,764,360,419,316,612,574,701,470,395,588,671,751,624,647,550,268,852,1126,636,333
52932,63,94,538,118,226,392,12,591,479,451,290,659,774,340,424,329,509,578,673,459,386,574,746,752,597,625,522,290,847,1119,606,403
52933,51,33,510,111,233,416,78,599,493,452,256,676,777,329,430,375,426,567,658,458,404,522,698,722,606,639,531,309,835,1105,596,360
52934,38,29,527,128,246,419,95,629,488,460,241,645,773,338,438,465,420,558,665,479,442,471,592,723,621,678,567,273,823,1125,621,392
52935,21,104,541,149,243,429,177,592,490,463,257,592,745,334,431,472,357,532,650,469,439,471,580,719,598,683,634,289,792,1090,598,325
52936,-9,87,470,157,216,486,241,586,481,468,350,539,732,327,438,277,444,531,628,476,467,589,577,691,588,681,687,327,798,1097,586,233
52937,-88,50,327,128,205,445,174,651,478,453,242,610,764,340,448,46,519,560,657,501,512,695,696,735,615,718,693,372,843,1148,661,403
52938,-108,78,349,131,199,396,140,690,491,443,181,659,784,340,423,122,543,573,675,512,499,687,740,753,642,718,645,344,856,1165,662,394
52939,-57,162,465,165,196,362,210,638,483,410,214,682,785,332,440,516,575,580,668,487,451,695,703,735,609,688,585,216,794,1136,623,333
52940,-35,183,551,177,210,359,240,650,481,444,263,631,784,340,483,789,586,561,686,504,446,744,619,726,644,737,700,315,849,1215,729,490
52941,9,145,602,166,213,389,231,661,466,444,251,665,784,343,469,570,537,586,694,513,491,771,591,743,644,748,708,491,874,1241,742,560
52942,88,157,610,158,233,338,235,686,503,456,228,768,837,362,468,507,611,649,707,518,485,776,696,799,669,729,643,488,934,1259,771,519
52943,101,145,658,119,229,387,224,632,479,446,242,757,795,339,448,511,671,632,692,491,473,814,737,796,647,726,641,384,920,1237,760,570
52944,103,72,653,138,227,402,233,617,466,436,268,688,770,323,421,481,511,579,678,460,442,751,665,752,609,700,603,302,832,1158,659,502
52945,100,22,618,140,221,415,218,610,464,439,226,604,777,320,421,473,572,588,670,463,441,714,707,766,612,699,643,458,866,1184,663,497
52946,72,60,599,115,204,489,118,608,471,442,242,575,760,327,423,448,603,584,672,473,449,629,716,769,601,683,644,656,890,1195,668,510
52947,34,165,602,135,202,454,122,626,460,432,256,564,763,324,430,413,512,555,641,451,430,661,621,721,564,651,623,511,842,1114,604,431
52948,36,167,620,163,205,372,188,710,473,417,298,597,781,330,428,398,465,549,629,456,428,710,550,715,576,657,635,404,827,1117,605,299
52949,63,213,611,165,210,303,240,752,511,420,313,647,805,337,417,389,480,535,658,450,432,729,537,697,570,664,668,362,772,1118,603,244
52950,64,251,641,167,224,313,269,686,517,425,201,697,791,334,426,377,505,520,661,461,434,757,479,666,559,677,694,347,734,1100,609,408
52951,26,201,587,126,213,280,268,572,497,409,155,668,771,319,425,381,462,511,647,448,433,755,492,687,585,676,647,392,777,1101,603,412
52952,7,195,569,145,213,294,214,609,497,404,158,691,774,318,408,369,458,538,668,439,440,734,557,707,584,668,614,433,815,1121,603,397
52953,-8,194,474,171,209,290,229,648,485,408,178,644,785,324,410,390,451,530,660,440,451,695,537,702,572,660,581,444,793,1109,603,415
52954,1,146,386,99,204,355,246,650,480,440,260,537,779,331,451,423,450,518,667,477,473,680,511,698,589,684,610,389,790,1135,650,476
52955,-57,131,484,138,195,352,211,668,487,443,269,512,785,340,459,469,507,534,685,506,517,674,533,729,631,718,678,446,861,1198,704,520
52956,-44,134,580,167,198,359,210,663,491,448,219,539,791,351,451,494,551,550,703,529,526,748,532,763,638,746,737,535,909,1231,724,542
52957,0,97,570,143,201,441,150,633,487,480,319,582,792,373,480,412,524,553,705,545,522,758,535,758,637,750,722,502,880,1216,706,497
52958,0,65,539,79,174,464,76,514,449,474,450,603,761,350,525,435,554,540,689,545,552,729,575,739,619,769,744,512,883,1212,687,508
52959,25,43,553,60,192,439,72,538,466,480,423,611,780,362,547,524,530,583,702,574,580,716,595,776,655,802,798,511,903,1228,728,504
52960,46,71,583,73,220,452,195,568,461,491,364,584,779,350,493,476,483,557,688,530,525,694,608,778,651,766,748,455,904,1212,713,499
52961,22,71,570,80,209,444,215,587,486,484,368,607,784,354,471,490,522,558,674,504,521,672,655,773,605,735,684,457,881,1150,627,404
52962,13,82,547,116,221,417,268,614,502,444,137,629,818,345,426,503,540,590,665,489,518,656,649,776,602,720,642,428,848,1121,607,368
52963,-17,106,488,130,221,402,297,604,516,447,164,622,816,344,464,555,433,557,669,502,539,598,573,743,592,727,719,358,823,1100,590,237
52964,-22,110,441,134,217,347,290,657,507,444,211,664,797,357,438,522,504,559,682,513,512,553,622,748,598,701,733,502,871,1070,556,245
52965,-24,118,438,134,228,330,293,620,501,454,225,591,775,362,434,499,511,521,688,502,478,609,566,731,597,689,721,308,836,1129,621,371
52966,-13,90,472,74,223,363,289,570,492,455,239,492,755,356,453,464,469,495,668,502,509,661,533,716,605,716,856,276,803,1117,613,183
52967,-20,101,534,88,220,371,238,596,472,447,217,544,747,346,438,434,410,496,646,493,523,710,504,699,597,732,910,233,774,1085,598,234
52968,-16,95,576,124,216,417,154,648,513,474,203,642,763,365,434,132,533,550,663,496,531,737,596,733,612,721,764,292,840,1124,628,515
52969,-8,28,563,116,226,398,118,690,502,459,189,684,783,349,434,59,574,586,664,484,525,709,662,746,594,685,555,302,848,1137,640,597
52970,-40,11,506,116,234,477,228,641,497,466,287,632,759,342,445,428,497,537,655,469,481,698,592,712,595,673,518,288,813,1135,634,583
52971,-27,93,538,120,237,472,342,571,476,450,308,641,770,332,437,685,531,553,656,467,352,650,602,749,600,651,540,375,847,1159,642,520
52972,-11,136,511,143,235,400,326,635,488,442,276,688,779,353,463,628,537,584,690,483,409,737,653,774,616,679,599,462,908,1193,676,536
52973,38,147,551,141,249,402,340,622,480,452,310,692,797,369,481,580,524,611,710,506,488,826,697,791,631,710,646,447,910,1204,702,583
52974,74,206,608,163,255,378,316,609,489,448,284,681,807,369,467,542,601,638,696,503,472,841,745,799,631,693,649,490,900,1184,658,551
52975,105,279,636,194,265,378,317,683,511,446,253,720,848,385,461,543,560,623,695,499,494,843,698,804,634,683,687,480,875,1146,630,462
52976,121,301,678,182,255,377,314,671,497,460,241,774,837,360,436,512,553,626,702,488,468,843,714,789,608,669,671,424,867,1148,643,414
52977,65,251,663,145,218,334,287,620,477,421,250,755,812,339,424,496,623,618,682,460,449,754,716,761,591,650,638,524,862,1122,616,284
52978,-19,248,662,178,237,372,290,634,494,431,322,686,801,362,470,535,663,580,689,495,508,780,612,751,623,691,737,503,851,1145,639,385
52979,28,228,693,186,270,405,313,655,509,464,328,669,793,348,455,515,637,587,688,484,487,648,610,742,608,670,698,403,816,1121,626,379
52980,70,157,644,173,250,437,351,649,505,452,362,639,781,325,452,536,599,577,667,464,477,659,604,704,555,635,691,345,755,1078,571,334
52981,65,118,592,210,251,439,349,718,518,435,320,648,808,336,432,555,550,561,657,454,465,709,594,684,530,627,674,382,742,1053,539,306
52982,54,152,592,200,265,427,338,727,512,429,321,632,792,342,397,501,514,539,662,441,412,626,549,671,527,577,518,306,733,1017,522,277
52983,-11,128,556,164,246,406,293,662,492,417,355,603,769,313,385,455,536,516,628,426,364,665,539,637,507,543,435,208,716,1007,494,323
52984,-7,154,547,142,229,332,302,641,495,429,210,629,785,327,390,442,567,545,641,424,401,740,592,661,530,595,500,149,732,1024,527,335
52985,-7,204,618,138,248,330,303,632,502,445,211,647,793,330,408,478,529,595,677,458,445,775,681,720,553,619,613,298,785,1056,558,298
52986,-7,250,638,137,260,349,299,595,508,429,274,650,800,335,438,524,489,596,674,486,466,801,665,750,582,652,710,342,821,1083,563,239
52987,67,279,702,158,252,366,306,639,514,428,238,721,806,349,430,507,591,599,683,473,447,773,651,751,586,655,666,311,834,1116,599,342
52988,99,296,752,169,252,334,329,665,514,422,243,726,800,338,405,477,589,588,680,469,444,776,585,737,573,636,602,350,829,1102,622,475
52989,133,321,766,191,279,382,418,670,524,438,308,713,790,344,428,454,458,549,653,441,435,712,474,691,569,628,558,360,749,1058,558,384
52990,137,267,735,191,285,414,388,695,529,435,286,706,796,340,445,492,491,585,694,468,477,727,546,710,566,649,594,587,833,1122,593,403
52991,113,174,754,166,255,385,277,681,488,430,258,692,794,350,417,524,537,564,679,452,474,649,551,728,556,645,615,582,836,1118,619,395
52992,117,174,754,152,259,404,295,648,490,429,314,736,812,345,418,549,561,569,666,467,481,607,574,730,547,668,664,459,834,1138,639,418
52993,151,233,716,92,278,444,285,636,474,443,377,734,777,326,430,593,528,561,663,460,490,648,563,696,511,646,630,283,758,1067,564,369
52994,93,165,653,99,292,463,204,652,478,486,472,686,799,343,498,624,621,588,697,505,531,724,622,721,569,660,639,275,789,1088,584,374
52995,67,101,642,150,263,486,286,683,500,475,413,711,820,354,494,597,635,629,698,510,533,784,670,741,604,680,684,322,820,1118,607,430
52996,75,63,697,167,264,512,286,731,521,483,409,746,814,367,490,576,615,645,701,516,559,813,662,771,612,698,735,406,846,1148,649,513
52997,74,79,709,153,271,516,265,733,509,470,451,746,818,359,513,574,624,612,706,521,555,906,645,750,615,700,747,366,829,1142,651,446
52998,94,163,731,173,256,414,281,819,533,450,328,823,850,348,440,520,600,654,712,493,517,894,698,770,607,662,753,472,855,1129,629,402
52999,105,234,702,164,249,384,307,858,529,453,343,802,850,344,439,406,628,655,709,494,504,688,732,764,576,656,713,467,850,1134,606,247
53000,99,322,652,173,260,326,314,773,512,438,299,742,818,342,456,252,603,615,682,491,571,708,667,745,562,691,782,471,826,1137,641,79
53001,89,292,589,178,250,375,349,737,518,438,195,715,804,322,427,484,475,560,677,484,573,798,536,707,576,693,858,424,771,1121,623,111
53002,73,192,597,210,267,478,363,792,527,472,301,771,831,338,423,749,508,591,706,467,414,833,574,713,561,612,660,442,794,1143,632,513
53003,82,160,648,231,270,483,287,779,524,466,330,831,844,339,405,684,593,617,701,445,334,783,596,735,559,575,607,167,788,1136,624,566
53004,75,176,669,209,268,487,304,748,535,469,313,842,851,345,406,531,640,629,706,456,395,750,669,756,581,610,648,210,808,1146,642,522
53005,47,124,686,185,271,450,350,763,525,462,281,822,842,348,419,615,646,638,702,454,421,747,704,750,591,634,611,441,836,1170,667,485
53006,69,79,715,189,270,472,394,727,516,473,377,824,858,344,466,593,662,651,723,488,486,930,753,780,612,691,723,517,871,1196,695,615
53007,87,137,765,180,248,443,413,719,500,471,427,767,846,341,461,583,668,633,708,482,495,969,680,778,604,710,720,539,859,1190,703,626
53008,120,158,766,210,258,497,401,720,503,474,433,713,851,350,455,582,727,626,720,482,486,945,608,783,617,709,646,587,866,1209,737,593
53009,103,106,741,220,247,409,392,757,518,440,406,766,873,353,476,562,745,662,749,499,495,964,655,819,656,745,694,668,912,1282,779,642
53010,7,94,618,190,230,388,366,740,514,461,380,783,883,347,456,595,721,689,754,506,487,931,712,832,667,751,677,662,909,1253,761,603
53011,4,124,635,211,254,395,396,752,518,459,322,755,887,367,450,597,687,688,761,514,480,921,719,821,656,732,625,614,907,1245,750,567
53012,29,182,725,197,267,369,375,749,531,444,278,759,880,372,459,529,767,704,780,520,469,776,764,855,659,727,583,731,992,1273,748,430
53013,57,270,703,156,257,365,325,714,514,442,336,734,852,385,464,533,748,675,769,528,517,818,736,816,664,745,687,607,932,1236,718,408
53014,105,308,755,176,258,374,357,724,503,463,359,726,852,364,475,579,660,616,731,519,534,861,655,751,635,751,720,349,835,1181,683,490
53015,169,316,781,166,263,432,404,687,500,471,373,719,839,356,485,605,633,603,738,526,539,869,644,756,637,753,683,391,836,1186,676,528
53016,166,230,703,180,266,523,420,683,487,500,425,717,845,371,522,608,664,623,754,553,568,923,669,763,661,768,696,497,864,1207,720,617
53017,141,180,587,162,257,466,389,713,487,472,491,721,847,361,518,545,703,626,740,543,557,897,660,773,635,748,667,558,885,1213,718,568
53018,119,155,611,176,238,412,252,763,484,438,410,715,838,344,485,571,711,603,710,529,538,818,639,771,622,726,670,519,862,1209,699,512
53019,102,172,692,203,264,429,192,815,518,466,424,744,866,344,496,613,678,612,734,536,562,731,667,767,634,746,717,527,886,1228,707,561
53020,32,154,677,170,244,497,247,778,499,473,458,764,867,352,521,615,545,603,729,533,563,757,632,775,636,763,724,535,871,1195,683,488
53021,-47,170,686,173,241,440,319,702,492,459,400,772,837,359,519,612,510,599,727,540,585,755,603,753,640,788,756,473,859,1217,716,452
53022,52,207,703,137,232,385,384,663,506,464,312,725,837,368,516,592,530,606,744,540,610,843,639,746,668,815,843,431,876,1260,752,462
53023,115,241,642,171,246,367,410,678,520,469,311,709,857,377,524,609,564,602,756,556,607,879,668,764,680,800,762,421,901,1284,766,586
53024,103,324,641,200,248,392,417,727,511,468,359,775,865,370,496,593,637,617,743,537,580,878,668,762,660,778,648,483,882,1235,730,681
53025,17,312,630,158,232,413,361,791,489,469,479,776,836,344,496,593,608,597,705,505,544,828,616,723,599,734,623,397,814,1130,634,515
53026,-72,249,615,189,256,486,301,808,487,507,509,755,817,358,514,581,531,560,671,503,541,828,552,679,568,696,623,249,739,1082,580,471
53027,-73,219,641,190,241,481,246,768,489,484,409,691,807,338,489,502,504,558,664,484,522,806,554,673,554,692,644,298,751,1113,619,581
53028,-51,171,638,181,238,563,262,696,484,469,306,621,810,332,449,446,545,565,666,482,482,765,587,686,538,661,592,278,733,1084,588,465
53029,-24,62,622,142,242,605,293,669,480,486,453,559,769,319,483,534,542,520,655,470,500,782,597,659,527,634,559,201,736,1056,544,354
53030,45,37,646,113,264,470,342,607,492,491,373,640,757,340,463,571,487,525,673,483,504,789,627,671,550,664,593,254,749,1080,570,396
53031,78,82,677,109,266,384,381,569,493,460,245,683,765,348,419,321,472,554,677,479,488,716,626,684,570,657,574,314,747,1072,573,415
53032,81,103,693,142,272,384,350,620,492,480,324,638,791,361,494,189,557,567,700,501,571,716,668,718,587,697,647,341,747,1083,567,425
53033,118,179,693,134,275,337,361,613,498,458,306,633,806,357,487,530,595,569,697,502,593,561,649,704,572,684,664,353,753,1061,563,346
53034,140,256,675,150,277,326,399,681,518,458,321,678,818,346,466,858,731,571,709,506,489,620,654,701,568,645,697,196,723,1028,542,257
53035,130,262,625,131,257,295,354,723,504,437,285,753,828,342,423,696,659,600,715,476,392,714,695,717,563,616,610,223,746,1036,554,311
53036,138,264,708,148,251,275,342,707,521,420,243,759,838,344,394,470,451,605,720,446,385,767,697,736,569,604,533,367,778,1064,573,277
53037,135,193,748,143,252,321,308,674,521,421,253,671,809,343,408,458,507,581,719,460,370,733,642,720,555,601,500,289,765,1056,555,229
53038,148,190,765,156,266,376,221,684,517,457,257,651,837,363,439,472,579,580,730,498,437,732,622,738,596,655,572,338,791,1110,614,248
53039,124,285,719,166,264,331,256,685,519,460,262,628,817,355,445,473,534,577,717,493,444,673,627,734,591,660,626,344,779,1092,589,245
53040,93,260,616,144,254,319,241,673,499,443,316,594,771,332,420,375,505,530,678,447,395,590,520,687,534,599,525,256,697,1037,530,242
53041,87,243,574,150,254,373,191,700,513,460,334,614,774,328,417,390,457,508,678,440,380,664,423,665,534,612,506,276,686,1048,540,347
53042,85,226,620,197,268,380,203,726,521,454,319,627,782,330,407,397,391,490,681,457,402,675,417,668,541,641,543,330,709,1088,563,321
53043,53,208,602,195,261,354,139,757,516,404,217,659,794,324,358,340,381,504,658,419,363,637,409,651,527,605,561,330,697,1069,559,269
53044,-31,165,564,213,268,400,107,771,529,421,238,670,824,308,391,368,444,505,646,419,367,646,437,657,524,601,543,335,692,1058,566,346
53045,-16,61,559,235,279,450,125,765,553,444,218,673,804,328,372,377,463,529,658,416,367,658,479,677,525,606,518,421,713,1064,591,388
53046,-21,4,604,197,281,510,139,723,524,436,232,654,779,316,375,312,424,500,644,406,345,592,426,627,502,585,482,323,643,971,498,285
53047,7,72,647,178,263,463,182,661,512,425,280,573,755,297,390,327,416,454,628,415,356,590,366,590,488,568,458,206,610,953,475,225
53048,62,74,664,181,261,382,206,592,500,428,303,569,761,311,397,396,461,468,640,439,388,586,416,626,507,605,479,281,642,989,494,235
53049,40,16,610,124,252,357,174,554,494,447,328,597,770,322,428,391,498,518,668,460,436,643,524,679,553,648,577,395,717,1046,568,320
53050,5,21,556,80,272,395,224,567,497,459,408,639,780,347,449,426,507,536,685,465,445,646,570,685,549,656,594,290,726,1056,551,334
53051,59,95,624,54,262,409,310,612,482,446,397,689,796,325,427,382,573,584,662,451,398,463,627,666,518,612,515,240,741,1052,549,274
53052,43,131,640,121,248,372,294,653,481,434,323,705,805,295,401,279,629,584,666,419,359,394,710,684,525,585,516,255,777,1071,568,138
53053,-59,129,588,167,260,352,209,745,485,424,294,602,806,286,405,305,595,556,640,420,362,497,735,694,512,591,570,214,759,1048,540,59
53054,-43,95,624,170,284,389,249,771,509,432,254,597,815,298,405,353,492,558,651,429,396,490,712,713,513,579,600,288,771,1023,528,100
53055,-1,128,672,145,284,403,266,703,504,454,251,647,811,308,403,371,419,543,649,421,393,486,616,708,518,557,524,240,739,998,521,149
53056,66,171,650,153,282,387,254,671,503,459,272,700,801,315,402,401,399,535,635,421,392,561,500,680,503,570,495,222,729,1057,558,379
53057,83,158,709,185,280,421,188,745,517,466,334,779,819,315,392,366,439,549,659,407,342,496,475,663,507,536,366,334,716,1041,543,349
53058,34,207,705,164,273,385,141,642,511,463,360,703,801,309,397,337,429,515,645,412,350,556,485,642,511,547,347,388,722,1037,559,389
53059,3,205,639,146,254,388,148,619,492,477,386,652,775,310,424,395,463,504,635,424,395,634,480,659,507,561,418,349,727,1026,555,383
53060,49,222,621,164,259,312,168,711,507,433,179,667,799,306,358,395,495,548,647,408,367,672,498,681,493,540,434,347,727,1038,558,400
