,Fp1,Fp2,F7,F3,Fz,F4,F8,FC5,FC1,FC2,FC6,T7,C3,Cz,C4,T8,TP9,CP5,CP1,CP2,CP6,TP10,P7,P3,Pz,P4,P8,PO9,O1,Oz,O2,PO10
89564,-107,-114,312,148,-123,196,-83,152,25,-134,132,320,291,-21,130,107,245,-39,6,-70,-96,24,160,-6,12,214,95,-152,220,-53,-129,0
89565,-97,-129,324,153,-123,202,-70,178,35,-139,150,359,316,0,157,121,247,21,16,-62,-54,58,224,37,30,242,119,-49,316,49,-42,29
89566,-95,-110,314,163,-123,194,-45,200,34,-143,156,385,312,-14,146,100,292,59,26,-69,-68,62,228,43,33,238,106,41,350,64,-72,-123
89567,-93,-74,323,183,-114,216,-24,205,36,-127,173,397,321,-33,137,105,281,33,1,-81,-102,89,204,10,2,211,91,15,273,-37,-178,-174
89568,-99,-62,321,174,-99,237,-29,203,30,-119,175,380,300,-42,133,130,263,-13,-25,-98,-80,103,163,-21,-24,213,128,-100,204,-87,-170,-32
89569,-80,-60,345,196,-90,239,-3,232,45,-114,185,354,310,-36,155,156,270,-16,-39,-87,-42,138,131,-39,-4,225,177,-130,202,-37,-97,91
89570,-68,-64,363,192,-87,234,-11,233,42,-125,188,348,321,-36,149,140,312,-15,-32,-84,-72,140,163,-33,-7,214,147,-77,235,-40,-130,-31
89571,-103,-107,353,179,-82,246,-42,213,50,-116,184,340,316,-47,147,121,270,-12,-6,-97,-78,146,213,3,-13,209,152,57,290,-18,-160,-82
89572,-120,-112,334,188,-83,240,-56,197,57,-137,149,344,309,-53,142,95,233,-19,-7,-89,-82,131,205,22,-1,215,136,99,339,-8,-150,-119
89573,-125,-103,316,181,-100,212,-35,190,39,-154,146,313,292,-61,121,84,229,-61,-22,-114,-80,80,135,-35,-37,195,97,-139,219,-91,-173,-95
89574,-104,-91,334,181,-96,221,-38,186,37,-144,169,322,276,-51,111,100,197,-95,-42,-129,-87,101,96,-69,-51,183,113,-279,132,-132,-191,-21
89575,-123,-86,346,174,-98,238,-27,183,39,-132,181,310,303,-31,111,92,188,-66,-27,-116,-88,138,116,-42,-18,201,113,-168,180,-95,-156,-14
89576,-131,-100,314,153,-90,237,-36,168,44,-140,163,309,306,-39,93,59,206,-64,-30,-112,-134,44,129,-25,-32,169,54,-75,207,-86,-170,-119
89577,-112,-112,318,167,-78,260,-14,189,46,-147,162,334,308,-47,98,43,240,-57,-11,-131,-142,-83,140,-34,-34,147,17,-74,188,-84,-192,-179
89578,-121,-120,335,157,-98,264,12,179,44,-135,177,326,289,-57,99,75,247,-82,-32,-142,-127,-48,112,-65,-41,158,66,-233,137,-81,-145,-22
89579,-145,-126,321,168,-96,254,-67,162,46,-130,175,314,297,-37,124,128,267,-77,-16,-109,-93,41,132,-25,-9,191,113,-192,211,-5,-62,69
89580,-137,-126,298,161,-107,228,-91,161,31,-157,174,306,299,-52,117,158,248,-70,-16,-106,-87,81,159,-3,-10,207,116,-99,294,27,-57,91
89581,-121,-121,334,166,-83,239,-49,174,36,-140,185,326,315,-34,120,161,272,-17,-7,-100,-64,80,159,24,10,211,122,-28,345,82,-25,23
89582,-101,-76,337,180,-55,267,-34,177,46,-139,178,336,315,-37,137,115,221,-29,-19,-120,-88,61,114,6,-27,160,74,-104,252,-29,-159,-184
89583,-60,-61,351,169,-57,281,19,180,49,-120,206,312,287,-55,148,85,234,-63,-52,-123,-77,90,63,-58,-60,158,106,-279,106,-132,-181,-118
89584,-55,-43,340,168,-54,285,16,186,26,-111,203,302,266,-68,125,91,222,-92,-73,-138,-80,112,18,-99,-94,136,77,-355,-11,-213,-264,-124
89585,-72,-40,313,169,-61,278,15,157,26,-133,164,316,260,-73,119,116,214,-96,-62,-139,-97,141,61,-78,-82,132,80,-282,62,-213,-309,-157
89586,-65,-55,324,163,-75,265,15,153,32,-104,196,310,272,-63,138,134,235,-81,-56,-122,-60,177,110,-41,-36,185,121,-199,144,-116,-184,-33
89587,-94,-60,313,141,-94,268,24,149,18,-113,195,291,264,-65,136,129,189,-69,-59,-113,-51,166,98,-27,-33,197,142,-157,173,-59,-90,7
89588,-85,-31,326,131,-69,277,63,165,23,-107,216,291,260,-48,157,157,218,-80,-54,-85,-36,181,95,-44,-16,218,168,-193,183,-28,-66,26
89589,-82,-56,338,145,-65,272,39,174,21,-98,215,325,248,-41,176,160,233,-94,-65,-91,-19,185,89,-39,-23,224,166,-206,167,-4,-40,1
89590,-91,-30,330,144,-75,289,26,172,27,-93,207,323,254,-22,184,171,193,-81,-52,-59,-17,176,101,-36,12,247,159,-180,204,24,-19,44
89591,-75,-17,351,126,-77,280,22,151,8,-109,189,304,240,-43,153,131,196,-102,-67,-96,-89,99,92,-62,-28,173,55,-213,150,-73,-205,-143
89592,-87,-36,330,115,-87,277,7,116,1,-115,171,297,249,-50,139,112,186,-118,-82,-93,-77,106,79,-90,-46,180,62,-208,152,-74,-182,-101
89593,-109,-41,301,107,-92,295,16,119,0,-98,180,294,237,-39,169,156,180,-121,-75,-66,-22,153,104,-72,-33,207,147,-189,185,-31,-105,13
89594,-92,-52,345,110,-84,262,5,136,-5,-112,205,327,238,-59,162,149,223,-112,-87,-94,-55,132,132,-97,-51,165,102,-249,126,-132,-220,-82
89595,-91,-59,351,120,-94,260,13,141,8,-103,200,340,221,-51,156,156,271,-102,-80,-102,-66,193,150,-73,-66,168,41,-172,157,-122,-249,-182
89596,-99,-41,342,106,-120,249,15,148,2,-119,185,319,218,-65,156,121,242,-112,-76,-79,-62,89,92,-74,-32,165,57,-112,193,-50,-192,-180
89597,-107,-70,313,106,-95,246,-14,144,-2,-108,172,314,223,-52,147,137,214,-115,-78,-69,-55,34,78,-82,-24,197,94,-136,203,-16,-124,-41
89598,-89,-76,360,126,-94,260,-22,156,8,-117,188,322,232,-51,148,155,270,-115,-91,-81,-81,100,82,-111,-62,151,33,-182,112,-182,-319,-275
89599,-112,-68,374,112,-112,239,-29,183,2,-115,195,328,248,-41,155,150,265,-90,-61,-90,-81,126,86,-100,-39,157,48,-180,117,-175,-300,-294
89600,-129,-76,329,100,-108,242,-40,146,-12,-114,185,325,248,-31,162,151,216,-83,-51,-77,-42,97,127,-58,-6,197,105,-144,228,-51,-178,-106
89601,-144,-85,316,103,-99,234,-45,122,-7,-115,167,303,232,-35,160,130,183,-93,-50,-78,-63,27,122,-75,-8,195,114,-125,223,-23,-134,-16
89602,-135,-64,338,113,-96,242,-35,133,4,-105,201,305,252,-40,171,91,213,-87,-40,-74,-71,-15,115,-74,-9,211,124,-114,222,-4,-102,38
89603,-121,-76,318,124,-95,253,-52,130,0,-89,198,315,251,-33,168,102,269,-89,-38,-91,-73,68,131,-50,-6,202,118,-83,224,2,-83,-14
89604,-112,-83,298,116,-96,248,-37,140,12,-106,181,298,257,-43,158,116,269,-87,-30,-90,-50,107,145,-50,9,195,125,-64,228,6,-85,-15
89605,-143,-101,291,107,-112,241,-19,123,6,-101,183,291,276,-30,151,123,250,-75,-8,-72,-49,158,170,-31,13,229,171,-18,266,33,-79,22
89606,-134,-77,292,119,-92,246,50,122,29,-83,197,312,292,-10,157,155,269,-77,10,-66,-39,191,189,-14,24,234,177,25,310,28,-91,11
89607,-128,-105,320,116,-99,227,8,152,31,-115,173,326,289,-36,133,129,289,-66,-12,-88,-51,162,211,-2,2,203,140,23,289,-3,-125,-70
89608,-122,-111,309,137,-106,215,-49,174,45,-126,151,360,307,-42,126,134,325,-31,5,-89,-61,169,247,16,33,214,141,57,301,31,-66,-50
89609,-90,-86,333,138,-103,229,14,180,46,-119,168,356,322,-44,127,160,337,-27,16,-79,-47,204,234,25,38,230,135,20,294,34,-76,-16
89610,-105,-79,371,156,-105,243,19,193,54,-124,171,314,330,-40,128,165,303,-23,20,-82,-34,232,225,23,35,224,175,6,319,34,-40,78
89611,-130,-99,379,146,-101,233,-19,200,40,-135,144,303,334,-31,109,132,304,0,15,-94,-47,200,221,19,42,236,198,10,301,62,-6,151
89612,-126,-123,373,158,-92,215,-37,217,48,-119,146,341,346,-37,113,113,351,23,30,-92,-39,117,251,47,50,251,181,48,353,106,37,187
89613,-116,-102,375,163,-88,213,-36,221,56,-124,153,351,333,-44,114,103,357,5,30,-82,-57,133,273,56,43,236,151,43,356,78,-5,82
89614,-107,-85,365,178,-96,228,-14,244,43,-131,178,365,349,-44,116,161,350,13,20,-93,-56,155,286,43,36,229,126,44,349,74,-50,-41
89615,-100,-78,397,185,-79,237,0,242,44,-122,179,377,359,-43,128,219,335,19,40,-93,-22,229,293,77,66,251,160,56,358,75,-27,-36
89616,-99,-93,400,181,-93,222,-27,229,44,-126,165,398,340,-31,120,178,364,27,42,-93,-29,208,327,87,81,242,157,74,363,83,-36,-72
89617,-91,-86,392,184,-84,218,-24,237,54,-119,169,404,335,-24,133,157,377,32,35,-79,-52,232,322,66,78,258,152,62,368,77,-18,-64
89618,-112,-103,383,156,-90,222,-43,213,47,-121,143,384,315,-34,120,124,382,16,14,-104,-63,291,314,55,55,235,163,105,359,51,-40,-47
89619,-96,-74,394,148,-97,240,-18,220,41,-144,157,378,331,-44,124,116,397,19,2,-101,-54,362,310,43,34,212,143,145,335,9,-106,-104
89620,-74,-48,441,169,-84,249,-9,259,56,-129,168,397,332,-46,131,155,384,15,-14,-94,-63,321,268,48,22,195,117,19,291,-27,-138,-100
89621,-79,-62,435,166,-91,247,-23,262,34,-117,159,387,324,-49,111,117,361,9,-8,-96,-81,82,292,64,32,212,99,70,345,49,-96,-86
89622,-61,-22,408,166,-81,259,13,245,27,-106,184,364,317,-60,133,97,360,19,0,-93,-82,9,290,51,35,197,105,76,359,63,-58,-34
89623,-71,-14,401,174,-79,264,0,233,24,-121,164,377,309,-76,134,54,376,6,-18,-115,-106,-31,273,53,24,190,88,62,352,63,-58,-23
89624,-77,-13,409,180,-76,276,8,229,30,-131,156,382,307,-65,140,77,410,-2,-25,-116,-96,28,270,42,23,199,88,66,320,37,-84,-41
89625,-38,-17,433,193,-76,271,-1,251,51,-114,171,405,309,-61,140,81,409,12,-26,-99,-76,34,280,43,25,182,91,82,330,41,-91,-8
89626,-59,-16,424,181,-82,256,-1,236,44,-115,184,428,297,-62,144,73,379,19,-39,-111,-87,55,284,47,16,180,78,78,318,48,-81,3
89627,-49,-8,422,181,-97,260,3,234,28,-125,179,409,286,-76,121,76,390,5,-57,-146,-106,33,271,15,-44,149,52,105,300,0,-125,-54
89628,-35,-1,444,202,-85,268,-11,262,36,-112,205,404,287,-88,138,114,391,6,-66,-135,-103,89,260,1,-47,144,66,79,296,9,-122,-15
89629,-64,-44,416,175,-86,266,-19,225,17,-118,200,332,259,-113,133,110,323,-51,-90,-140,-97,116,147,-62,-75,121,57,-141,182,-69,-166,-13
89630,-83,-80,393,158,-87,242,-43,206,16,-107,173,290,250,-101,119,82,268,-79,-115,-163,-132,107,101,-90,-118,80,31,-128,157,-71,-195,-57
89631,-57,-68,419,205,-71,272,-20,239,53,-97,198,331,296,-77,141,123,236,-67,-108,-156,-113,172,96,-96,-128,89,48,-153,141,-79,-177,-83
89632,-56,-62,420,194,-61,251,-42,253,30,-112,186,332,266,-107,107,96,204,-85,-147,-185,-152,99,99,-146,-163,53,-5,-178,108,-134,-225,-133
89633,-43,-51,445,197,-58,260,-37,272,30,-127,186,318,278,-125,108,64,228,-75,-143,-214,-160,-41,121,-145,-171,46,-18,-148,120,-110,-229,-98
89634,-73,-22,430,190,-70,262,3,248,19,-120,182,307,250,-128,102,66,236,-103,-163,-233,-156,-46,84,-165,-194,37,-13,-167,101,-114,-235,-86
89635,-45,-23,417,200,-52,283,43,235,26,-107,208,293,238,-103,133,107,183,-129,-180,-212,-147,7,35,-193,-199,41,-15,-271,43,-171,-274,-95
89636,-42,-38,435,212,-66,266,-4,247,32,-123,187,321,239,-108,120,98,284,-103,-173,-221,-138,5,123,-156,-193,44,2,12,160,-91,-223,-96
89637,-16,-19,475,206,-50,252,-39,260,33,-127,175,330,239,-100,111,108,324,-113,-178,-217,-129,29,150,-162,-200,53,18,83,182,-63,-185,-64
89638,-3,0,473,215,-60,274,15,238,28,-121,203,295,198,-111,112,120,173,-189,-228,-232,-113,37,-18,-256,-233,39,25,-361,-19,-229,-257,-110
89639,-31,-17,463,218,-61,287,14,265,29,-121,202,332,231,-133,111,94,245,-152,-211,-210,-121,29,57,-215,-207,54,31,-140,137,-86,-151,-36
89640,-23,-26,480,226,-57,271,-4,285,34,-136,178,345,242,-143,100,98,306,-113,-190,-227,-144,2,104,-198,-203,38,17,-17,180,-67,-168,-38
89641,-20,2,468,233,-37,293,41,279,49,-117,208,310,236,-127,98,126,231,-159,-203,-240,-132,25,30,-227,-210,27,33,-210,85,-138,-220,-56
89642,-45,-23,459,223,-48,282,38,271,60,-113,204,310,227,-122,102,120,209,-175,-207,-243,-152,21,41,-224,-196,32,30,-217,92,-117,-188,-51
89643,-49,-24,457,221,-45,277,18,261,57,-112,201,325,226,-114,97,114,230,-132,-193,-233,-162,7,50,-225,-181,47,33,-201,107,-106,-179,-54
89644,-56,-38,421,194,-59,265,4,249,36,-111,191,291,219,-112,90,93,211,-162,-184,-226,-150,23,59,-191,-170,68,39,-150,138,-81,-162,-45
89645,-26,-20,436,200,-31,288,11,278,51,-92,210,329,258,-87,101,87,282,-116,-148,-197,-133,57,126,-125,-132,99,69,-58,215,-21,-110,-22
89646,-49,-53,409,207,-40,289,0,262,59,-80,199,354,282,-58,96,89,324,-92,-97,-170,-122,62,163,-72,-78,128,86,75,298,48,-77,-3
89647,-60,-69,391,188,-71,269,-8,248,57,-93,152,350,277,-69,94,85,322,-55,-73,-149,-122,62,249,-38,-29,164,90,248,417,135,-33,27
89648,-62,-55,407,190,-59,274,10,250,74,-120,180,366,304,-63,119,92,310,-13,-46,-138,-101,69,304,25,20,189,124,345,539,229,45,46
89649,-53,-21,418,211,-53,286,52,241,77,-82,244,375,312,-41,160,135,299,21,-1,-104,-74,126,332,87,57,254,157,341,593,301,93,70
89650,-34,-21,437,212,-57,285,44,259,73,-86,221,402,319,-33,185,103,367,73,27,-60,-43,141,420,144,112,284,189,467,683,394,155,123
89651,-61,-68,414,185,-65,278,34,246,69,-116,212,399,324,-20,171,87,415,73,35,-63,-39,162,449,167,135,287,214,443,694,423,194,201
89652,-28,-49,438,183,-70,279,45,253,61,-118,191,401,310,-23,149,126,379,36,12,-74,-61,154,351,138,81,249,208,177,527,263,80,136
89653,-14,-27,494,202,-73,274,37,276,39,-107,212,420,304,-39,135,160,386,7,0,-86,-62,155,245,53,15,195,155,-127,262,-47,-132,28
89654,-32,-68,468,181,-83,252,14,265,42,-109,179,388,297,-38,127,141,378,-18,1,-109,-83,151,214,32,22,186,93,-218,218,-67,-122,22
89655,-32,-71,445,180,-82,234,1,274,50,-106,183,392,308,-27,130,136,406,8,5,-89,-72,156,263,52,53,212,118,-161,287,9,-85,-27
89656,-32,-69,436,183,-91,221,4,276,40,-115,188,381,312,-29,129,109,417,1,-5,-92,-67,164,212,26,35,200,118,-229,211,-76,-139,-32
89657,-43,-74,446,173,-97,246,23,251,43,-110,184,343,303,-13,149,76,456,-19,5,-85,-66,155,168,21,42,213,129,-234,153,-109,-100,34
89658,-49,-78,440,173,-92,241,25,244,34,-114,179,355,296,-15,141,69,435,-26,4,-93,-87,161,191,47,64,230,111,-166,257,-1,-50,26
89659,-47,-104,457,185,-94,221,1,234,46,-112,158,370,304,-28,133,81,439,12,20,-73,-82,148,284,89,90,239,108,-81,380,100,-5,30
89660,-48,-111,466,179,-98,233,3,251,56,-122,163,407,340,-21,130,75,460,60,36,-62,-83,148,333,119,100,243,102,-10,402,107,-6,35
89661,-23,-73,476,199,-85,239,44,270,58,-114,198,410,338,-16,148,116,413,59,42,-47,-61,157,347,116,94,241,128,16,381,77,-28,57
89662,-8,-41,500,221,-66,252,18,279,75,-124,181,439,346,-14,174,156,459,67,77,-41,-5,190,412,150,128,286,176,140,448,146,36,125
89663,-41,-24,469,210,-88,248,1,246,61,-139,168,426,340,-37,173,148,476,58,51,-49,1,217,399,144,125,294,193,177,485,187,72,111
89664,4,3,519,232,-78,267,79,275,56,-132,226,432,347,-41,178,187,508,42,17,-52,12,249,369,100,97,278,207,-2,363,81,-21,83
89665,8,25,521,238,-75,293,99,290,65,-110,232,482,355,-7,196,235,553,56,25,-48,34,275,364,73,83,281,225,-34,304,7,-37,97
89666,0,-6,487,204,-88,275,75,281,61,-103,242,453,331,-12,209,264,543,27,22,-39,43,278,339,55,75,293,249,-73,268,9,-32,107
89667,-13,-21,491,191,-82,303,90,275,62,-93,265,455,327,0,228,273,543,20,15,1,75,300,333,27,86,311,266,-129,234,-9,-39,124
89668,-35,-52,475,190,-91,291,67,280,56,-107,252,453,326,-8,210,229,531,-5,-2,-30,67,286,309,19,62,303,230,-55,265,6,-28,117
89669,-64,-43,448,174,-85,289,96,270,52,-99,255,416,323,-8,215,217,496,-20,4,-14,64,289,269,18,59,299,246,-14,274,41,-35,101
89670,-91,-47,412,153,-95,274,56,247,63,-110,225,398,293,-6,197,199,436,-40,-32,-47,29,268,233,-10,39,262,213,-34,254,15,-44,77
89671,-112,-74,393,164,-91,254,1,226,48,-101,175,383,308,-14,162,149,452,-45,-12,-75,-9,217,235,-24,19,235,156,-22,241,0,-75,42
89672,-109,-94,394,182,-90,263,-8,236,51,-91,197,377,291,-16,158,135,428,-46,-17,-70,-15,210,224,-33,10,224,154,29,241,3,-90,38
89673,-87,-75,408,157,-85,271,18,234,59,-94,205,371,274,-23,160,136,412,-61,-40,-77,-11,209,226,-47,3,234,181,13,256,8,-62,120
89674,-113,-86,397,127,-81,258,-4,225,36,-103,178,340,238,-42,146,130,393,-104,-50,-85,-21,172,200,-79,-17,227,197,-20,237,21,-63,174
89675,-118,-100,396,159,-87,266,-11,228,39,-107,168,337,268,-38,144,121,373,-102,-64,-91,-32,124,181,-91,-29,205,162,-70,179,-23,-102,153
89676,-112,-94,389,169,-95,257,-20,210,36,-104,154,325,252,-19,142,110,328,-115,-59,-104,-47,160,167,-98,-31,202,144,-27,190,-10,-101,-5
89677,-131,-105,359,148,-88,246,-51,185,44,-103,172,295,245,-22,158,134,288,-133,-62,-91,-31,149,145,-92,-26,218,147,18,242,41,-45,17
89678,-130,-114,365,149,-92,263,-27,163,54,-102,159,291,234,-24,172,123,263,-153,-88,-97,-43,136,118,-136,-52,185,129,-41,207,-22,-97,1
89679,-110,-81,390,156,-93,270,12,160,46,-77,168,262,205,-23,153,132,245,-198,-116,-120,-62,132,69,-169,-93,152,88,-206,110,-112,-166,-115
89680,-99,-88,374,155,-80,256,-13,163,42,-104,163,236,191,-39,131,113,220,-217,-150,-141,-93,111,1,-196,-124,141,68,-283,69,-120,-174,-102
89681,-120,-100,344,135,-78,247,-40,152,29,-107,149,213,182,-72,116,98,194,-237,-172,-169,-115,78,-14,-220,-162,104,30,-286,35,-169,-247,-138
89682,-118,-76,334,154,-74,247,-32,151,27,-91,156,221,184,-72,111,79,217,-238,-169,-172,-116,67,21,-193,-160,93,40,-202,81,-143,-239,-125
89683,-102,-79,364,162,-50,261,-28,159,43,-94,155,240,198,-69,131,92,164,-240,-153,-152,-88,97,-8,-210,-140,116,50,-282,55,-148,-213,-102
89684,-105,-78,386,153,-35,270,-11,181,63,-76,159,238,227,-52,119,100,192,-224,-141,-148,-90,101,-1,-207,-138,121,39,-256,90,-131,-206,-115
89685,-119,-64,370,162,-50,265,-15,180,55,-84,150,226,207,-59,111,103,193,-232,-157,-168,-102,112,-24,-212,-156,104,9,-291,49,-164,-244,-170
89686,-145,-84,357,155,-69,257,-38,161,28,-101,131,204,193,-59,96,74,158,-257,-156,-169,-119,69,-41,-218,-164,75,-15,-324,35,-175,-267,-197
89687,-146,-102,341,155,-77,260,-47,148,49,-80,132,201,223,-34,115,73,146,-245,-133,-166,-132,32,-32,-210,-138,75,-29,-296,53,-177,-266,-213
89688,-186,-135,310,118,-76,226,-92,113,31,-113,116,198,206,-53,95,27,114,-240,-141,-168,-159,-9,-12,-204,-154,62,-63,-234,82,-149,-275,-257
89689,-174,-153,323,136,-68,234,-96,140,57,-103,108,214,242,-25,99,40,116,-191,-107,-141,-141,-8,14,-171,-127,92,-55,-135,149,-98,-239,-272
89690,-192,-179,294,137,-95,217,-113,131,60,-107,91,203,239,-46,96,35,94,-216,-124,-162,-184,-58,-12,-173,-140,73,-112,-152,165,-97,-253,-263
89691,-205,-186,286,138,-89,222,-126,139,56,-100,70,183,234,-40,92,6,83,-240,-129,-170,-182,-24,-62,-198,-149,63,-119,-366,61,-173,-280,-254
89692,-195,-205,275,149,-82,229,-128,143,59,-90,95,184,240,-46,99,0,92,-231,-128,-159,-177,-20,-78,-233,-165,58,-125,-403,6,-220,-317,-335
89693,-211,-206,268,138,-70,222,-142,109,51,-96,89,179,230,-46,76,-67,101,-236,-131,-167,-223,-203,-74,-219,-166,5,-185,-330,18,-225,-324,-348
89694,-216,-186,229,130,-70,213,-134,121,67,-110,87,160,232,-36,71,-96,88,-228,-109,-173,-244,-299,-57,-193,-151,13,-189,-253,73,-165,-303,-323
89695,-246,-189,224,123,-87,197,-164,101,79,-112,44,141,228,-33,81,-91,73,-223,-94,-159,-226,-283,-58,-180,-132,29,-182,-279,104,-142,-295,-334
89696,-258,-202,221,109,-100,187,-198,98,75,-110,47,151,234,-36,67,-84,78,-212,-87,-150,-213,-258,-55,-181,-111,39,-181,-338,73,-148,-280,-292
89697,-282,-223,218,112,-107,183,-215,100,70,-100,56,149,246,-22,100,-75,67,-214,-95,-144,-202,-208,-37,-158,-88,67,-160,-295,80,-139,-250,-242
89698,-298,-232,223,102,-111,194,-188,89,66,-104,75,116,237,-22,91,-52,59,-215,-78,-133,-202,-179,-53,-156,-74,71,-150,-317,72,-191,-274,-281
89699,-290,-232,203,86,-127,191,-151,100,69,-86,80,130,235,-27,87,-74,42,-227,-99,-126,-191,-219,-59,-178,-78,60,-202,-358,40,-218,-332,-334
89700,-280,-243,228,79,-112,190,-168,110,65,-88,69,147,243,-6,106,-77,57,-217,-87,-110,-192,-229,-32,-160,-56,88,-199,-396,61,-194,-291,-310
89701,-280,-259,210,83,-124,167,-239,100,52,-100,42,122,233,-19,86,-101,51,-234,-83,-95,-186,-198,-58,-148,-52,94,-190,-384,49,-202,-291,-321
89702,-302,-279,192,72,-126,168,-223,74,54,-91,52,100,203,-11,121,-88,48,-261,-86,-83,-175,-173,-83,-176,-59,93,-171,-401,-5,-242,-300,-284
89703,-346,-294,159,48,-140,163,-211,52,35,-90,66,85,191,0,134,-86,13,-266,-76,-74,-166,-164,-47,-155,-31,115,-138,-269,95,-154,-259,-276
89704,-360,-291,154,41,-156,146,-226,52,48,-106,59,59,173,2,118,-85,-5,-271,-69,-82,-180,-147,-48,-162,-41,94,-125,-231,105,-144,-249,-298
89705,-357,-284,154,35,-155,151,-201,40,40,-118,65,39,183,-7,112,-61,21,-267,-81,-101,-176,-95,-51,-186,-35,95,-111,-294,49,-191,-261,-273
89706,-332,-233,142,60,-137,171,-160,37,39,-105,98,50,205,4,136,0,34,-254,-72,-78,-136,-25,-34,-161,-7,142,-54,-347,69,-166,-205,-194
89707,-307,-232,183,56,-127,177,-158,45,55,-79,125,80,227,25,154,10,71,-207,-48,-56,-104,-18,-9,-124,4,177,-18,-336,125,-118,-165,-155
89708,-321,-249,167,38,-143,195,-150,21,50,-85,104,77,227,4,133,-33,84,-209,-62,-81,-137,-143,10,-129,-14,152,-62,-303,136,-130,-174,-167
89709,-312,-218,165,29,-145,218,-134,16,34,-90,122,94,228,13,146,-51,92,-189,-71,-77,-122,-134,37,-122,-17,134,-50,-228,155,-107,-171,-205
89710,-289,-193,186,33,-113,237,-102,35,29,-81,136,100,230,36,186,-17,123,-155,-28,-42,-118,-69,69,-88,11,162,-33,-132,207,-67,-171,-200
89711,-261,-165,220,56,-93,251,-77,74,46,-55,152,131,240,27,191,22,183,-138,-21,-38,-78,-16,123,-36,28,169,-2,-49,243,-34,-148,-168
89712,-224,-148,256,70,-99,250,-76,73,58,-59,160,168,245,32,183,36,235,-115,-21,-47,-66,44,172,-17,38,187,22,34,263,-20,-148,-131
89713,-194,-132,299,97,-100,248,-43,76,57,-63,182,217,264,29,197,69,255,-96,-12,-46,-51,96,168,-23,43,224,60,-114,236,-17,-112,-79
