,Fp1,Fp2,F7,F3,Fz,F4,F8,FC5,FC1,FC2,FC6,T7,C3,Cz,C4,T8,TP9,CP5,CP1,CP2,CP6,TP10,P7,P3,Pz,P4,P8,PO9,O1,Oz,O2,PO10
10889,143,-79,161,-454,-80,69,-237,-606,67,-160,23,-153,-95,-255,186,-29,-455,-359,-257,-125,-286,94,-41,-208,-108,109,104,-199,-177,-229,-311,-187
10890,180,-83,191,-518,-78,140,-226,-546,55,-167,29,-142,-78,-272,160,-23,-382,-346,-280,-158,-289,100,25,-207,-126,72,81,-282,-185,-272,-323,-256
10891,183,-35,213,-494,-86,60,-202,-611,53,-181,18,-8,-96,-297,140,-7,-396,-327,-274,-181,-314,109,59,-230,-163,42,45,-421,-253,-312,-398,-289
10892,175,-7,170,-411,-74,36,-201,-528,86,-164,44,-80,-49,-270,144,12,-397,-289,-239,-157,-315,105,80,-202,-153,47,33,-383,-206,-266,-374,-189
10893,107,-53,107,-423,-71,45,-235,-507,105,-160,-29,-277,-21,-247,144,28,-368,-272,-217,-156,-296,192,66,-186,-113,54,36,-345,-187,-267,-364,-178
10894,13,-74,82,-460,-57,35,-201,-473,122,-170,4,-448,29,-238,150,9,-381,-310,-212,-164,-289,192,-12,-198,-130,64,60,-268,-201,-284,-366,-208
10895,54,-76,-28,-399,-87,29,-180,-506,114,-179,11,-305,44,-238,138,-11,-396,-316,-216,-182,-291,133,-58,-229,-162,42,42,-239,-247,-332,-422,-233
10896,148,-30,17,-474,-61,46,-155,-483,132,-160,64,-141,46,-206,159,-92,-396,-236,-200,-151,-273,171,17,-187,-131,68,60,-211,-205,-284,-367,-155
10897,119,-55,196,-521,-78,34,-204,-441,109,-162,84,-270,17,-216,159,-31,-434,-270,-221,-176,-296,153,20,-196,-132,52,37,-182,-201,-287,-369,-203
10898,150,-58,198,-505,-85,17,-268,-446,107,-175,57,-294,12,-199,167,77,-393,-275,-225,-181,-307,123,11,-180,-137,30,24,-175,-202,-277,-362,-264
10899,145,-106,196,-483,-85,32,-284,-521,116,-180,38,-143,-1,-194,145,110,-350,-245,-210,-186,-307,128,43,-198,-145,30,48,-151,-198,-273,-387,-262
10900,63,-113,200,-455,-98,-12,-255,-695,82,-211,26,-82,-11,-218,122,122,-366,-251,-235,-216,-327,104,-4,-206,-171,12,27,-141,-187,-275,-404,-231
10901,143,-95,166,-492,-100,1,-230,-688,84,-198,33,-48,-1,-197,131,75,-420,-244,-215,-194,-318,112,11,-169,-146,62,32,-137,-152,-226,-333,-173
10902,225,-59,181,-505,-67,31,-198,-624,97,-160,47,-35,6,-171,142,-6,-329,-237,-199,-154,-296,120,59,-130,-114,83,73,-159,-138,-205,-306,-172
10903,201,-60,181,-555,-87,-2,-214,-597,65,-180,30,-112,-39,-202,122,-32,-310,-277,-244,-184,-308,121,3,-174,-144,54,63,-202,-209,-265,-352,-192
10904,199,-36,244,-594,-90,29,-184,-605,43,-187,33,-101,-91,-228,131,-38,-328,-358,-284,-210,-335,124,-49,-250,-182,29,38,-198,-247,-312,-393,-273
10905,170,-7,272,-555,-56,49,-119,-610,66,-172,64,-106,-90,-215,174,12,-355,-374,-269,-199,-291,128,-109,-262,-157,43,27,-193,-218,-293,-409,-320
10906,153,-8,287,-548,-72,64,-110,-607,65,-172,59,-221,-102,-246,136,32,-378,-396,-281,-214,-324,111,-157,-270,-170,15,10,-224,-242,-295,-422,-365
10907,163,-14,290,-545,-75,34,-110,-597,52,-184,27,-286,-93,-259,114,-22,-414,-390,-303,-222,-344,115,-151,-279,-180,3,17,-227,-238,-293,-369,-371
10908,173,-1,258,-522,-68,38,-126,-561,57,-176,39,-309,-72,-265,118,-21,-498,-366,-283,-209,-329,100,-147,-261,-170,37,52,-245,-207,-272,-358,-459
10909,180,0,198,-509,-38,57,-133,-539,75,-154,67,-398,-58,-254,153,17,-515,-345,-246,-183,-291,127,-123,-228,-139,63,83,-225,-200,-239,-344,-387
10910,212,2,175,-487,-43,48,-127,-533,79,-173,81,-440,-52,-251,167,-18,-415,-333,-249,-176,-293,120,-90,-216,-158,63,70,-195,-181,-225,-332,-265
10911,255,23,214,-476,-58,93,-91,-546,84,-145,86,-253,-50,-263,166,-1,-322,-289,-233,-178,-300,96,-11,-186,-152,69,72,-163,-130,-214,-329,-185
10912,269,58,238,-441,-38,110,-96,-530,99,-145,93,-158,-27,-260,181,45,-303,-258,-226,-163,-284,189,43,-165,-142,81,93,-133,-114,-196,-313,-197
10913,200,39,226,-423,-36,155,-126,-497,107,-142,111,-124,9,-247,189,54,-334,-228,-221,-184,-260,203,60,-144,-127,81,101,-92,-92,-164,-303,-249
10914,203,38,200,-405,-38,215,-128,-468,109,-145,128,-32,20,-267,182,48,-376,-206,-203,-174,-266,142,94,-118,-132,79,98,-130,-96,-197,-327,-254
10915,255,70,232,-423,-24,113,-111,-416,124,-150,111,1,13,-260,187,14,-389,-204,-198,-166,-282,59,82,-103,-136,56,70,-218,-140,-234,-370,-243
10916,267,71,211,-456,-17,126,-64,-465,109,-138,121,66,-14,-267,184,6,-288,-225,-206,-184,-308,70,41,-129,-129,28,11,-274,-147,-250,-396,-222
10917,229,58,190,-435,-38,101,-74,-467,73,-165,78,91,-33,-286,162,-13,-227,-297,-233,-208,-323,130,27,-162,-158,22,-18,-344,-203,-302,-391,-237
10918,262,66,218,-448,-45,114,-78,-454,104,-170,90,-9,-27,-270,172,-106,-275,-281,-212,-180,-303,92,132,-125,-155,35,20,-416,-202,-282,-362,-268
10919,281,77,273,-541,-36,151,-103,-512,96,-142,112,-107,-41,-263,175,-194,-332,-247,-208,-162,-297,152,234,-124,-148,51,39,-285,-164,-237,-352,-253
10920,174,30,196,-493,-60,102,-131,-604,72,-159,64,-231,-35,-247,167,-55,-399,-272,-224,-162,-282,154,136,-150,-149,38,35,-203,-196,-241,-341,-221
10921,146,8,154,-424,-84,74,-145,-686,61,-187,51,-301,-37,-265,186,54,-381,-294,-248,-156,-273,139,60,-166,-117,46,27,-172,-205,-243,-368,-236
10922,202,32,157,-424,-57,84,-112,-595,74,-154,56,-304,-41,-228,196,15,-284,-281,-226,-117,-270,139,104,-166,-117,97,62,-191,-170,-245,-332,-244
10923,155,50,193,-482,-39,83,-95,-588,77,-136,72,-235,-40,-204,211,-73,-286,-286,-213,-100,-241,209,104,-150,-116,124,133,-182,-136,-220,-289,-183
10924,88,39,232,-458,-49,59,-123,-503,76,-137,67,-226,-48,-219,207,-118,-315,-304,-228,-105,-223,168,51,-173,-103,110,119,-235,-167,-209,-290,-199
10925,207,56,295,-483,-35,70,-139,-573,94,-146,35,-127,-55,-205,237,57,-283,-273,-216,-75,-206,137,19,-176,-95,143,149,-184,-139,-180,-287,-137
10926,284,76,350,-510,-42,45,-104,-580,97,-119,47,-135,-49,-191,254,129,-368,-278,-215,-81,-195,135,-58,-164,-99,134,140,-108,-136,-189,-302,-165
10927,243,33,332,-533,-68,49,-118,-626,72,-148,30,-170,-70,-223,223,104,-367,-316,-235,-120,-220,123,-85,-209,-114,128,106,-99,-170,-227,-314,-179
10928,255,7,291,-523,-74,77,-167,-610,68,-163,25,-188,-72,-218,202,48,-321,-327,-236,-138,-245,111,-72,-217,-135,106,103,-63,-174,-233,-307,-175
10929,199,-22,260,-536,-82,53,-214,-579,52,-168,18,-212,-85,-222,196,40,-313,-355,-231,-130,-262,113,-55,-219,-135,106,94,-55,-192,-236,-319,-307
10930,170,-8,241,-458,-65,84,-180,-526,97,-152,46,-206,-55,-206,206,53,-307,-331,-226,-138,-252,107,-34,-227,-135,116,74,-160,-216,-281,-347,-349
10931,216,-29,223,-423,-46,80,-136,-497,106,-155,45,-278,-23,-227,184,77,-281,-303,-231,-132,-285,122,-12,-222,-138,94,75,-174,-207,-275,-339,-237
10932,267,29,299,-427,-28,106,-102,-488,118,-146,64,-416,-16,-224,197,51,-264,-281,-243,-145,-273,140,8,-202,-136,79,51,-206,-186,-275,-351,-194
10933,241,27,331,-445,-29,106,-70,-473,116,-159,64,-288,26,-228,185,66,-381,-255,-229,-146,-257,106,-13,-214,-112,76,84,-214,-197,-250,-340,-191
10934,199,27,217,-441,-44,76,-62,-488,114,-167,55,-85,18,-258,181,51,-351,-222,-227,-157,-263,94,21,-204,-121,95,105,-132,-166,-238,-322,-308
10935,227,41,171,-399,-47,105,-72,-459,120,-160,56,-100,10,-263,169,-25,-262,-248,-244,-185,-284,133,-3,-214,-158,67,93,-174,-221,-296,-398,-380
10936,255,65,198,-375,-41,84,-95,-442,105,-179,68,-138,2,-267,158,-34,-251,-259,-249,-190,-299,133,-24,-244,-193,37,83,-270,-260,-314,-401,-278
10937,251,70,209,-398,-40,82,-135,-455,104,-172,74,-173,6,-274,161,39,-246,-256,-239,-186,-277,162,18,-209,-190,56,99,-288,-236,-278,-375,-181
10938,170,48,225,-384,-44,85,-190,-456,117,-169,89,-161,23,-283,158,69,-324,-234,-249,-186,-272,248,69,-194,-186,65,109,-384,-234,-277,-376,-151
10939,201,20,245,-414,-48,59,-180,-432,106,-168,89,-114,28,-285,168,68,-360,-225,-246,-175,-259,193,85,-204,-177,47,103,-288,-211,-271,-362,-191
10940,226,8,320,-411,-25,59,-146,-463,99,-149,98,79,-3,-280,172,73,-193,-212,-244,-186,-261,174,168,-188,-175,24,93,-337,-231,-289,-376,-170
10941,203,-18,312,-429,-53,147,-141,-537,105,-154,80,181,-46,-283,154,150,-169,-238,-241,-195,-279,176,259,-170,-184,22,87,-392,-283,-324,-428,-210
10942,211,-10,283,-504,-62,88,-142,-571,102,-159,86,16,-41,-264,187,164,-288,-245,-235,-175,-255,194,184,-182,-174,36,88,-341,-247,-310,-430,-207
10943,235,38,312,-530,-32,45,-112,-534,118,-158,114,-191,1,-236,215,103,-320,-240,-238,-137,-250,230,27,-201,-171,54,88,-133,-190,-282,-408,-191
10944,150,4,314,-483,-55,66,-130,-517,89,-174,85,-329,0,-245,202,37,-300,-296,-253,-162,-260,236,-127,-256,-174,40,83,-52,-200,-278,-373,-188
10945,176,7,335,-482,-58,103,-99,-508,98,-149,116,-206,5,-222,223,32,-237,-261,-232,-147,-229,239,-94,-219,-144,57,121,-64,-179,-277,-352,-186
10946,200,-5,277,-465,-34,109,-80,-555,113,-120,138,-11,6,-207,248,78,-259,-235,-219,-121,-208,233,-32,-204,-120,71,141,-86,-176,-257,-347,-172
10947,197,-68,233,-479,-74,68,-113,-466,104,-151,105,-102,-3,-229,219,55,-402,-291,-230,-156,-240,199,-65,-236,-170,26,111,-182,-203,-287,-371,-96
10948,243,-5,225,-469,-56,59,-87,-466,101,-144,117,-158,-16,-208,202,64,-317,-278,-231,-158,-244,200,-22,-208,-166,25,77,-171,-209,-293,-396,-106
10949,227,12,250,-476,-41,44,-92,-521,115,-145,96,-200,-3,-191,218,73,-244,-269,-213,-148,-234,224,-1,-177,-141,70,122,-109,-172,-233,-350,-57
10950,210,21,295,-444,-36,33,-73,-561,124,-146,95,-195,26,-191,198,81,-246,-250,-201,-138,-225,230,61,-154,-138,81,126,-151,-151,-222,-328,-75
10951,186,-13,297,-510,-75,75,-53,-620,94,-141,100,-172,-6,-204,197,51,-236,-246,-199,-151,-240,182,77,-169,-133,51,93,-186,-171,-294,-402,-284
10952,158,-46,262,-469,-72,70,-106,-580,99,-143,90,-167,17,-187,196,31,-271,-222,-204,-157,-256,159,87,-145,-129,31,84,-143,-198,-292,-440,-356
10953,204,-9,274,-511,-80,69,-119,-503,103,-155,75,-221,41,-184,189,17,-275,-235,-203,-145,-266,169,75,-146,-126,70,71,-136,-197,-285,-436,-308
10954,213,8,255,-535,-95,44,-155,-545,86,-159,47,-262,-10,-215,169,-29,-279,-271,-212,-182,-296,112,30,-183,-143,34,8,-121,-210,-302,-463,-285
10955,171,22,213,-479,-81,41,-152,-558,100,-169,43,-216,-8,-208,180,23,-304,-278,-220,-166,-289,70,0,-215,-152,19,-34,-123,-217,-311,-463,-267
10956,119,-5,114,-439,-66,41,-161,-555,103,-169,47,-229,-12,-212,179,-50,-284,-286,-221,-169,-306,67,-49,-212,-170,18,-52,-172,-251,-308,-458,-301
10957,38,-39,90,-412,-94,23,-175,-523,112,-190,33,-394,-19,-252,153,-177,-279,-320,-233,-192,-307,23,-30,-212,-182,26,-7,-181,-218,-272,-418,-253
10958,44,-20,165,-399,-86,49,-167,-520,118,-184,4,-372,4,-244,153,-91,-262,-269,-218,-188,-304,46,15,-186,-168,37,53,-186,-174,-249,-368,-213
10959,218,21,228,-476,-55,65,-155,-513,119,-175,27,-180,16,-238,186,-169,-241,-238,-215,-160,-288,96,91,-164,-137,41,65,-196,-191,-256,-357,-236
10960,192,-15,213,-504,-84,67,-174,-550,92,-187,52,-174,-23,-252,185,-257,-212,-270,-231,-156,-270,55,131,-180,-145,58,65,-195,-208,-249,-361,-217
10961,174,5,228,-486,-85,95,-144,-597,87,-191,38,-119,-26,-279,170,4,-178,-267,-226,-181,-287,-10,172,-160,-119,67,38,-176,-176,-252,-374,-272
10962,221,45,328,-454,-69,99,-104,-592,112,-174,3,-56,-10,-267,169,189,-168,-226,-208,-162,-277,130,138,-145,-131,85,75,-119,-124,-231,-338,-251
10963,208,11,382,-483,-60,96,-109,-486,101,-161,38,-82,6,-248,175,76,-172,-194,-188,-161,-261,192,163,-125,-104,97,111,-121,-122,-173,-299,-235
10964,218,-50,316,-483,-59,102,-103,-470,122,-160,62,-140,45,-234,196,-6,-194,-174,-180,-138,-261,127,198,-119,-98,114,105,-105,-135,-161,-280,-268
10965,237,-18,297,-424,-52,91,-103,-520,116,-156,70,-314,11,-244,169,-42,-204,-201,-199,-158,-299,96,135,-165,-129,49,69,-73,-179,-256,-351,-271
10966,229,40,329,-419,-47,109,-93,-556,126,-145,89,-340,-5,-239,190,-71,-188,-231,-209,-172,-330,71,70,-176,-157,9,-15,-85,-213,-317,-460,-317
10967,219,21,299,-478,-58,122,-126,-565,93,-160,64,-275,-29,-255,181,-79,-203,-245,-231,-174,-342,80,30,-192,-163,-4,-45,-124,-209,-316,-471,-286
10968,201,17,267,-516,-73,102,-138,-557,75,-164,50,-223,-33,-259,174,-43,-225,-261,-226,-159,-347,82,66,-194,-155,8,-40,-138,-208,-301,-436,-287
10969,222,2,286,-499,-51,92,-116,-588,106,-148,52,-150,-21,-240,164,-38,-225,-248,-215,-159,-330,78,44,-155,-152,26,-23,-105,-193,-274,-411,-309
10970,159,-25,308,-511,-75,73,-141,-561,86,-152,18,-167,-39,-232,159,-62,-195,-303,-213,-187,-342,55,-7,-190,-161,-8,-40,-125,-211,-296,-451,-301
10971,47,-54,280,-584,-98,143,-146,-553,68,-153,18,-139,-46,-218,183,-59,-182,-293,-221,-163,-342,56,25,-185,-139,-7,-42,-148,-204,-273,-431,-273
10972,2,-52,252,-566,-80,2,-150,-545,96,-158,31,-123,-34,-180,193,-43,-233,-276,-219,-135,-325,69,28,-166,-100,33,-16,-190,-188,-254,-424,-245
10973,64,-27,229,-504,-75,15,-150,-521,102,-150,44,-90,-33,-197,197,-25,-269,-266,-196,-128,-295,132,43,-146,-98,57,29,-154,-201,-225,-386,-224
10974,98,-39,229,-527,-83,39,-155,-578,102,-147,37,8,-38,-208,201,-22,-258,-237,-211,-129,-282,131,74,-145,-123,37,57,-135,-205,-245,-371,-240
10975,134,-31,199,-477,-58,35,-111,-663,100,-150,56,119,-83,-201,202,-5,-161,-266,-227,-133,-281,132,56,-165,-127,43,79,-136,-207,-254,-382,-333
10976,188,-12,213,-431,-51,43,-69,-613,118,-132,61,47,-69,-203,206,4,-174,-269,-227,-119,-270,136,43,-180,-130,57,107,-152,-209,-244,-373,-284
10977,189,-37,223,-407,-67,38,-110,-542,119,-157,33,-93,-52,-221,173,-13,-270,-266,-228,-139,-280,106,84,-180,-140,35,72,-169,-201,-258,-380,-198
10978,192,-24,250,-354,-50,49,-105,-463,143,-153,21,-110,-4,-201,178,-11,-215,-230,-198,-139,-302,105,134,-148,-119,20,25,-180,-197,-260,-387,-260
10979,166,-55,262,-310,-49,32,-90,-366,173,-132,41,-147,64,-196,194,8,-119,-210,-186,-119,-288,130,158,-139,-99,46,59,-112,-178,-217,-373,-314
10980,133,-87,248,-346,-80,29,-143,-426,139,-174,25,-176,45,-238,172,-10,-176,-226,-199,-156,-287,131,114,-147,-127,37,67,-104,-192,-244,-384,-312
10981,109,-56,213,-343,-80,5,-150,-437,153,-169,31,-153,61,-243,189,-6,-194,-218,-184,-145,-281,141,70,-139,-125,29,47,-120,-189,-263,-381,-275
10982,166,6,189,-385,-40,61,-113,-414,177,-139,65,-122,88,-213,195,14,-166,-169,-165,-133,-274,120,99,-129,-110,40,41,-101,-182,-248,-381,-186
10983,220,38,204,-379,-29,64,-89,-436,181,-144,64,-89,64,-204,169,89,-142,-189,-158,-132,-287,118,94,-135,-101,35,30,-107,-175,-254,-393,-164
10984,195,9,247,-388,-42,32,-133,-428,197,-172,21,-98,79,-231,149,94,-113,-197,-157,-160,-299,210,118,-125,-109,10,42,-104,-171,-244,-385,-144
10985,251,15,342,-392,-55,54,-133,-405,184,-173,26,-282,108,-234,139,22,-90,-198,-162,-178,-299,181,192,-89,-131,15,47,-68,-141,-218,-401,-179
10986,242,1,400,-409,-63,71,-131,-395,172,-174,18,-358,97,-244,160,-13,-119,-206,-155,-168,-293,197,167,-82,-99,36,81,-75,-90,-197,-356,-187
10987,261,-15,431,-417,-34,72,-112,-376,180,-177,59,-161,110,-241,176,12,-137,-143,-132,-153,-266,184,183,-47,-76,70,84,-70,-74,-166,-315,-153
10988,258,-11,447,-441,-35,47,-88,-391,186,-142,70,26,105,-227,175,26,-126,-111,-146,-141,-269,137,245,-43,-80,52,68,-125,-106,-166,-332,-157
10989,258,-41,435,-452,-44,35,-136,-398,163,-162,38,11,78,-214,181,-17,-136,-135,-146,-159,-291,169,262,-65,-105,28,70,-158,-130,-204,-332,-238
10990,226,-56,386,-452,-50,39,-169,-411,148,-173,33,52,74,-198,192,-7,-175,-136,-139,-117,-238,178,247,-46,-89,95,150,-172,-117,-178,-282,-235
10991,89,-92,308,-446,-82,1,-277,-422,137,-170,-5,-56,56,-222,193,2,-213,-188,-147,-113,-233,130,112,-86,-80,99,175,-131,-97,-154,-289,-129
10992,32,-113,257,-442,-102,-2,-405,-372,135,-171,-18,-209,50,-210,195,-15,-230,-259,-165,-116,-244,119,-8,-134,-101,92,141,-88,-92,-168,-302,-73
10993,55,-48,184,-431,-73,34,-277,-400,139,-143,64,-213,33,-205,235,62,-197,-239,-142,-88,-201,162,34,-101,-78,122,149,-84,-73,-154,-268,-42
10994,99,24,126,-414,-56,64,-167,-421,139,-132,109,-171,48,-182,265,221,-207,-180,-127,-74,-158,210,146,-56,-56,151,163,-48,-22,-126,-255,-120
10995,65,30,178,-407,-49,113,-161,-409,152,-129,115,-176,82,-190,249,199,-189,-159,-135,-74,-166,234,147,-45,-38,167,143,17,2,-86,-245,-104
10996,55,14,220,-435,-50,119,-193,-429,149,-136,123,-192,95,-164,262,152,-148,-158,-126,-76,-169,194,147,-39,-29,161,153,0,-6,-89,-250,-124
10997,77,0,282,-448,-51,87,-198,-467,136,-136,109,-142,52,-175,261,49,-245,-150,-135,-69,-178,185,164,-54,-36,162,156,-97,-32,-139,-283,-203
10998,140,-3,270,-551,-46,97,-176,-533,132,-124,105,-203,67,-185,261,-159,-288,-157,-131,-80,-216,184,149,-61,-68,145,131,-92,-75,-156,-295,-215
10999,167,-11,217,-519,-37,71,-232,-469,144,-138,79,-555,68,-186,232,-94,-259,-221,-137,-91,-245,116,32,-97,-73,130,108,-102,-96,-193,-311,-217
11000,229,10,176,-477,-46,91,-227,-502,124,-151,50,-618,40,-203,195,2,-306,-238,-162,-125,-262,121,-20,-124,-107,110,119,-159,-128,-202,-315,-122
11001,214,17,169,-467,-50,189,-156,-507,120,-143,83,-376,59,-236,188,43,-342,-219,-152,-136,-264,159,46,-127,-104,87,106,-183,-141,-213,-308,-132
11002,182,66,196,-434,-33,135,-137,-469,129,-134,70,-102,75,-228,183,25,-368,-188,-156,-140,-265,155,118,-109,-111,69,94,-156,-149,-236,-349,-206
11003,180,89,256,-447,-8,85,-138,-439,126,-125,87,29,63,-223,196,16,-294,-156,-150,-132,-267,151,184,-83,-104,75,99,-193,-139,-230,-346,-262
11004,207,64,252,-471,-44,126,-165,-451,112,-142,85,-95,44,-254,214,-13,-180,-186,-170,-125,-255,117,195,-87,-106,84,111,-219,-155,-196,-302,-321
11005,234,70,218,-508,-44,96,-189,-505,103,-161,55,-187,14,-264,204,-20,-201,-230,-175,-139,-267,85,124,-104,-107,96,105,-236,-146,-194,-304,-260
11006,256,144,218,-495,-21,106,-162,-497,122,-137,87,-155,34,-243,222,3,-266,-216,-142,-103,-233,122,143,-93,-76,108,147,-209,-115,-167,-286,-110
11007,321,121,272,-498,-41,77,-146,-489,117,-152,59,-124,14,-265,213,2,-240,-213,-163,-113,-241,114,151,-108,-92,106,103,-166,-152,-190,-314,-119
11008,365,164,346,-483,-9,91,-101,-466,121,-141,102,-156,33,-241,238,29,-173,-208,-153,-97,-209,159,89,-121,-67,137,127,-74,-129,-160,-266,-143
11009,361,187,352,-502,-21,71,-92,-468,121,-137,89,-246,21,-232,244,86,-188,-220,-144,-82,-186,172,24,-115,-59,156,177,-46,-120,-156,-239,-184
11010,369,226,300,-482,-44,63,-88,-409,114,-176,57,-342,9,-252,200,87,-197,-258,-175,-110,-207,181,6,-149,-82,133,167,-105,-151,-218,-311,-246
11011,369,232,308,-389,-49,101,-63,-374,126,-179,82,-231,14,-245,191,-222,-155,-251,-174,-129,-233,194,9,-150,-100,111,129,-116,-163,-234,-332,-194
11012,362,230,290,-426,-35,127,-67,-403,151,-132,104,-52,34,-206,221,-199,-100,-209,-157,-105,-211,204,80,-112,-74,149,113,-56,-143,-213,-264,-174
11013,329,221,232,-442,-36,103,-91,-404,134,-154,71,-106,39,-209,203,13,-148,-216,-170,-130,-224,179,112,-104,-88,121,82,-94,-148,-224,-325,-224
11014,294,209,205,-453,-43,86,-103,-424,128,-160,89,-145,42,-240,192,33,-150,-233,-180,-128,-248,117,143,-111,-100,84,74,-105,-147,-212,-366,-200
11015,327,214,264,-452,-48,89,-56,-370,115,-157,107,-183,40,-232,202,67,-126,-236,-190,-123,-234,96,113,-118,-100,84,76,-44,-127,-196,-361,-270
11016,363,242,296,-454,-28,139,-29,-375,121,-124,116,-208,57,-203,231,86,-95,-259,-191,-113,-207,143,72,-105,-98,99,113,-26,-102,-179,-335,-300
11017,334,225,256,-468,-32,121,-77,-440,110,-122,118,-150,18,-216,225,71,-89,-272,-213,-131,-224,119,66,-135,-114,71,70,-92,-142,-224,-326,-337
11018,303,204,207,-439,-29,107,-77,-464,98,-126,109,-147,-6,-217,221,56,-168,-258,-205,-120,-237,115,84,-152,-115,75,43,-140,-180,-250,-362,-288
11019,292,189,223,-466,-37,124,-92,-462,98,-125,98,-180,-12,-215,209,80,-228,-254,-211,-113,-237,141,109,-147,-113,70,67,-168,-164,-231,-368,-254
11020,263,168,266,-469,-39,140,-132,-461,102,-113,100,-210,-8,-226,208,110,-260,-262,-231,-114,-229,116,101,-142,-126,65,57,-163,-161,-225,-374,-277
11021,276,167,267,-443,-36,148,-146,-433,97,-125,48,-151,20,-238,186,87,-231,-243,-223,-117,-233,141,118,-141,-121,92,89,-116,-147,-193,-369,-323
11022,300,171,231,-407,-42,129,-72,-464,108,-121,71,-87,24,-237,204,87,-175,-232,-205,-111,-232,130,99,-121,-105,102,115,-87,-138,-192,-334,-309
11023,332,193,259,-407,-15,137,21,-477,125,-104,137,-24,43,-216,239,115,-107,-208,-183,-89,-193,147,100,-107,-81,134,133,-38,-107,-179,-306,-201
11024,327,188,389,-444,-29,127,14,-447,104,-104,137,-68,31,-251,215,110,-128,-210,-185,-95,-172,204,132,-113,-73,130,159,-15,-116,-142,-277,-94
11025,285,179,431,-457,-36,135,14,-409,107,-120,130,-119,33,-249,221,91,-156,-216,-193,-103,-186,230,156,-111,-74,113,135,-62,-93,-141,-270,-54
11026,202,188,402,-477,-33,150,38,-454,105,-120,130,-107,45,-255,238,109,-125,-181,-179,-95,-169,258,203,-71,-77,118,152,-119,-96,-158,-288,-104
11027,285,212,422,-567,-14,156,53,-413,114,-108,123,-182,51,-260,245,106,-268,-179,-185,-112,-184,235,237,-84,-85,118,155,-144,-124,-186,-311,-149
11028,400,207,433,-562,-2,190,45,-372,105,-115,156,-157,33,-240,241,141,-236,-162,-166,-112,-178,267,270,-67,-77,100,182,-67,-107,-185,-293,-101
11029,385,188,373,-497,-9,202,25,-423,96,-108,179,-190,15,-252,241,117,-92,-189,-190,-109,-183,266,202,-92,-87,106,160,-33,-96,-161,-271,-81
11030,363,202,299,-496,-17,149,-18,-383,98,-138,148,-379,22,-269,219,25,-39,-261,-219,-134,-213,235,119,-114,-123,103,147,-77,-98,-159,-269,-94
11031,331,176,258,-450,-33,109,-41,-385,101,-135,127,-373,16,-255,205,-59,-93,-247,-210,-126,-201,243,103,-110,-96,113,171,-56,-91,-155,-251,-102
11032,324,184,299,-428,-30,122,-19,-418,110,-116,124,-155,13,-223,219,109,-122,-199,-179,-87,-163,266,115,-103,-70,150,198,-65,-86,-120,-231,-179
11033,284,141,272,-421,-41,181,-20,-448,97,-122,89,44,11,-204,219,288,-131,-210,-167,-85,-164,282,128,-75,-56,158,230,-124,-89,-131,-193,-168
11034,251,146,264,-429,-64,105,-36,-418,101,-137,63,31,18,-200,206,160,-150,-212,-176,-79,-188,238,137,-89,-63,142,197,-183,-105,-156,-229,-109
11035,291,163,291,-449,-69,30,-62,-403,109,-132,56,-52,53,-190,202,38,-166,-197,-171,-82,-199,172,127,-103,-56,138,169,-128,-135,-147,-235,-118
11036,307,166,282,-433,-73,72,-121,-410,122,-141,34,-137,50,-170,202,13,-198,-198,-177,-88,-208,137,77,-103,-41,135,152,-77,-135,-155,-237,-168
11037,276,154,211,-437,-76,52,-111,-453,106,-146,50,-141,34,-182,204,-28,-212,-187,-178,-82,-230,104,31,-127,-61,125,126,-63,-136,-174,-270,-244
11038,256,146,201,-453,-81,54,-143,-441,93,-145,53,-134,26,-182,189,-16,-283,-187,-165,-79,-233,89,55,-116,-55,143,127,-97,-138,-182,-280,-272
