,Fp1,Fp2,F7,F3,Fz,F4,F8,FC5,FC1,FC2,FC6,T7,C3,Cz,C4,T8,TP9,CP5,CP1,CP2,CP6,TP10,P7,P3,Pz,P4,P8,PO9,O1,Oz,O2,PO10
124206,-74,-503,-53,89,-17,22,431,273,-27,-53,280,-214,52,-228,128,379,193,240,567,89,111,395,411,-45,183,495,493,237,90,189,180,275
124207,71,-454,-50,106,25,41,508,303,-1,-15,308,-92,93,-186,131,387,384,130,603,112,118,404,517,-35,211,541,543,322,151,228,222,303
124208,82,-488,-63,76,51,31,456,253,2,-12,265,-38,89,-197,134,375,384,75,568,80,97,386,574,-18,202,525,536,273,163,223,235,334
124209,43,-522,-118,72,5,-4,390,235,-15,-47,225,-40,94,-224,113,359,273,148,572,52,83,362,576,-14,176,481,497,158,107,179,204,294
124210,63,-504,-57,97,20,71,439,297,17,3,260,-79,112,-228,137,430,106,166,571,85,122,288,612,-11,184,509,575,88,60,167,199,327
124211,35,-542,-150,130,30,96,390,315,8,-4,258,-84,111,-239,148,434,28,233,559,72,124,249,591,-31,161,514,666,41,30,137,181,311
124212,25,-543,-234,98,26,120,396,319,15,-7,248,-76,124,-223,152,444,177,205,580,73,99,414,617,-22,183,535,610,107,86,185,199,304
124213,15,-500,-161,23,44,101,453,330,37,2,280,-120,129,-214,152,447,313,109,573,103,122,446,537,-38,196,561,526,177,112,217,202,289
124214,-7,-527,-144,23,-6,21,454,286,11,-36,247,-193,102,-221,145,445,246,111,570,93,143,319,479,-44,188,575,576,176,115,192,232,297
124215,-17,-552,-147,-15,-41,33,372,264,-26,-58,215,-238,80,-240,135,423,77,131,559,82,131,247,438,-51,171,544,496,159,104,195,223,267
124216,2,-594,-118,41,-25,89,307,293,-3,-12,229,-243,90,-222,156,305,146,165,575,112,133,369,440,-42,175,514,441,159,129,217,281,357
124217,-8,-574,-102,81,5,79,368,308,33,-11,202,-215,99,-208,152,326,283,160,583,129,131,397,526,-9,212,532,483,208,153,240,332,464
124218,-90,-578,-98,56,-18,14,399,325,-22,-1,127,-148,63,-218,145,364,232,124,556,79,122,323,549,-18,194,540,481,175,130,230,300,395
124219,-158,-634,-168,22,-35,-51,400,323,-46,-38,149,-138,34,-239,114,352,125,97,536,36,78,353,566,-43,150,489,416,136,140,183,208,323
124220,-162,-596,-174,54,-8,5,446,316,-1,-29,237,-123,54,-202,156,414,158,137,603,76,83,409,614,-19,216,525,497,141,166,214,248,346
124221,-74,-561,-102,97,34,39,526,316,29,21,254,-93,80,-183,204,483,145,153,610,101,130,493,559,4,238,566,581,100,176,248,320,430
124222,-10,-649,-145,54,34,20,499,239,12,-25,224,-129,82,-203,132,438,117,95,574,85,115,556,474,-18,226,576,602,134,182,258,385,574
124223,-52,-672,-226,80,-1,19,442,268,-13,-50,190,-263,65,-226,125,380,115,85,592,74,100,528,536,-17,223,572,590,158,216,315,443,673
124224,-121,-653,-179,148,-4,8,404,295,-7,-51,224,-324,80,-237,120,322,115,145,591,68,100,471,581,7,205,540,547,117,201,285,339,512
124225,-177,-628,-116,153,14,51,437,278,7,-52,234,-324,81,-226,94,283,36,147,597,52,47,445,597,22,194,486,450,66,140,189,149,199
124226,-144,-576,-86,133,3,32,433,306,7,-37,227,-259,105,-224,101,307,-29,163,584,64,42,322,591,32,193,502,449,134,149,213,187,203
124227,-66,-553,-82,121,25,63,485,319,20,-2,290,-164,132,-216,157,396,223,192,632,77,93,318,627,68,241,554,542,253,170,224,176,285
124228,30,-599,-78,115,19,79,508,326,16,-11,277,-96,97,-215,163,417,299,132,622,88,125,345,542,74,261,580,633,317,209,286,276,417
124229,76,-552,-41,103,33,96,469,359,29,10,282,-13,83,-196,176,468,299,107,642,136,188,444,582,105,294,634,748,284,269,414,477,621
124230,55,-520,-13,116,19,58,452,319,14,-28,244,-5,88,-198,177,451,295,172,648,145,142,426,641,137,282,618,711,336,293,448,475,632
124231,56,-511,-18,113,13,9,460,334,-6,-45,242,-197,115,-241,151,400,228,150,611,99,71,369,579,74,226,520,513,250,181,252,193,326
124232,38,-498,-115,95,19,-6,448,313,6,-26,236,-174,119,-245,128,350,100,161,606,103,64,363,535,64,216,491,466,127,123,150,111,339
124233,4,-532,-203,121,35,-4,385,293,14,-14,224,-21,126,-201,157,326,184,235,632,122,56,358,732,145,261,507,513,155,222,279,253,385
124234,-19,-516,-225,136,22,73,373,308,12,-15,221,167,155,-196,135,348,71,336,654,137,77,363,897,175,307,543,569,104,261,362,365,464
124235,-33,-546,-252,122,-14,98,386,349,11,-46,252,78,156,-241,95,317,-162,246,620,103,40,287,895,110,235,495,477,186,188,231,167,251
124236,-101,-591,-215,147,-17,93,403,395,5,-38,255,-20,153,-252,97,309,49,313,604,73,-6,248,779,79,180,418,364,370,105,31,-140,-198
124237,-222,-641,-193,132,10,101,363,385,28,10,258,-11,149,-206,157,339,336,280,636,107,110,316,717,91,227,502,513,408,196,187,114,-39
124238,-163,-650,-206,75,0,32,307,317,11,-3,252,-66,80,-244,157,357,306,42,566,86,104,232,706,34,186,467,535,375,162,144,66,81
124239,-68,-617,-132,105,7,-33,306,335,28,-20,245,-179,87,-224,144,354,225,54,550,95,86,243,512,-23,166,499,602,63,105,156,161,271
124240,9,-610,-17,108,16,29,339,268,6,-25,221,-172,74,-227,123,289,189,45,558,98,88,310,407,-20,166,495,540,121,111,189,222,270
124241,-8,-584,-64,103,21,38,377,295,18,-11,196,-188,86,-256,123,272,199,82,538,89,39,384,438,-2,179,449,382,300,122,174,158,132
124242,-68,-609,-110,81,-1,20,292,307,3,-44,126,-231,91,-284,94,252,243,89,500,49,-13,314,441,-29,143,411,306,270,62,126,70,77
124243,-70,-630,-114,45,-4,9,293,313,18,-55,97,-223,97,-277,93,336,145,78,500,46,12,283,376,-67,116,406,357,-45,-35,85,120,195
124244,-144,-629,-205,135,7,-37,332,348,32,-25,145,-182,107,-272,76,379,38,72,489,34,37,278,351,-93,118,420,421,-262,-115,19,118,320
124245,-160,-601,-228,174,23,-60,374,376,40,-45,157,-209,124,-278,79,328,74,71,496,51,60,303,407,-88,124,446,433,-165,-82,35,163,419
124246,-148,-561,-221,207,29,-29,469,392,49,-30,219,-191,158,-226,115,370,104,131,552,79,109,281,441,-21,157,493,459,-105,-12,151,243,454
124247,-278,-599,-285,185,3,-21,408,383,56,-16,219,-187,159,-209,99,344,101,153,577,83,82,283,509,22,178,481,442,50,49,165,183,223
124248,-266,-653,-256,174,-15,-76,378,344,23,-43,205,-197,103,-260,82,292,35,100,537,74,48,310,520,-10,155,459,429,85,32,137,102,61
124249,-148,-653,-142,180,13,-63,407,308,29,-36,205,-102,132,-243,120,363,51,135,522,88,104,331,533,-16,166,506,478,-11,-6,42,19,58
124250,-38,-599,-85,109,61,-25,439,240,22,-24,181,31,112,-250,111,356,-62,182,522,78,88,338,575,-16,156,481,393,-44,-38,-10,-54,-14
124251,38,-615,-84,19,38,-3,398,257,6,-35,193,72,100,-251,130,325,-165,194,553,79,57,289,599,15,182,489,422,-55,33,79,79,152
124252,38,-629,-152,-29,11,15,360,344,6,-31,175,-212,154,-250,140,311,5,137,542,65,28,347,564,17,158,486,446,-50,42,117,147,290
124253,28,-643,-139,0,18,91,319,338,-14,-25,206,-237,81,-245,165,289,92,83,549,79,45,476,449,-18,161,495,478,-47,2,115,223,413
124254,-71,-742,-236,-4,-21,57,305,352,-41,-53,183,-261,4,-268,118,284,159,53,500,32,7,400,390,-82,130,422,344,-111,-46,30,103,157
124255,-164,-802,-341,74,-9,3,319,366,-3,-17,187,-309,81,-244,131,351,-31,124,528,72,54,296,393,-53,172,440,441,-53,-1,82,156,226
124256,-137,-737,-288,102,3,-47,343,342,8,-10,233,-371,135,-203,153,381,-216,156,568,111,119,378,395,0,213,538,645,-19,73,203,334,560
124257,-137,-690,-219,84,-11,-61,363,350,29,-29,224,-360,127,-216,117,319,-29,167,569,100,53,355,490,26,211,505,546,-2,82,174,247,362
124258,-108,-643,-153,89,-40,-49,377,241,7,-68,167,-156,46,-256,62,340,21,147,561,45,-29,307,527,4,156,408,299,80,61,79,-5,-83
124259,-94,-589,-148,94,-40,-13,434,244,-14,-38,203,-84,49,-240,101,377,97,160,566,52,19,405,601,23,161,435,321,97,74,97,44,-54
124260,-58,-596,-235,122,-18,39,445,331,23,-11,236,-80,100,-206,131,351,117,190,584,79,78,455,694,44,185,469,462,55,89,147,133,149
124261,-64,-643,-326,111,-30,40,404,314,0,-28,222,-75,76,-249,120,339,80,193,570,52,75,367,641,20,159,467,450,11,77,108,122,138
124262,-121,-668,-262,99,-21,60,421,279,0,-21,215,-77,65,-258,101,334,129,161,570,53,74,357,621,22,177,448,456,77,90,147,160,157
124263,-216,-675,-227,124,-15,-2,419,248,11,-20,213,-36,64,-253,107,356,165,137,589,46,78,437,776,68,193,458,456,217,138,197,237,223
124264,-232,-646,-151,129,-21,42,404,268,17,-14,219,-65,103,-236,136,377,166,181,624,85,104,478,805,106,225,512,501,205,188,257,328,332
124265,-247,-627,-145,111,-10,32,400,306,10,-33,221,-115,109,-265,127,397,-66,200,596,70,113,480,721,87,222,537,505,17,158,241,283,374
124266,-247,-679,-227,97,-11,8,409,336,15,-23,242,-94,140,-257,164,432,-180,256,616,85,163,477,767,129,232,515,546,10,180,221,204,255
124267,-249,-793,-261,102,-12,-3,452,388,27,-20,257,-149,147,-241,178,425,10,240,604,109,151,531,648,123,235,521,565,170,175,198,209,202
124268,-292,-762,-297,111,-15,31,404,379,41,7,256,-218,160,-253,175,450,92,258,605,132,194,489,437,81,241,557,590,232,175,218,273,320
124269,-245,-694,-261,55,-39,26,374,325,0,-34,231,-198,163,-259,179,406,86,287,593,105,226,463,426,20,222,533,585,139,138,205,236,308
124270,-202,-675,-175,27,-41,36,346,279,-10,-28,266,-169,86,-271,190,358,132,90,576,89,206,342,475,26,218,523,578,183,163,208,224,295
124271,-151,-638,-214,46,11,31,379,303,37,-9,297,-84,117,-216,211,306,193,154,600,104,201,317,522,58,217,535,606,193,168,209,216,337
124272,-103,-664,-118,62,23,14,403,333,26,-1,230,-107,122,-230,195,275,219,205,591,107,194,407,546,82,235,540,627,216,200,226,220,381
124273,-60,-619,-149,73,21,77,406,316,14,29,251,-85,114,-248,197,348,268,223,600,99,180,426,588,100,240,536,538,259,222,202,190,225
124274,-159,-625,-225,36,-3,35,350,311,0,-17,279,37,86,-233,165,359,288,244,600,84,117,503,622,102,227,497,427,311,245,208,137,108
124275,-221,-660,-199,54,-6,24,332,340,22,10,301,-107,147,-216,196,351,226,264,602,96,148,447,613,104,254,518,413,220,209,225,200,177
124276,-176,-704,-194,76,-4,2,359,360,19,7,271,-168,145,-232,201,422,199,239,577,98,141,376,663,74,228,517,422,164,171,206,216,225
124277,-115,-759,-179,72,-33,-67,318,347,5,-23,227,13,103,-241,172,392,88,216,546,88,127,489,680,45,210,521,457,118,158,231,229,289
124278,-17,-690,-106,24,-12,-33,390,415,24,-17,247,25,136,-210,193,370,79,218,575,110,146,486,659,71,245,542,516,106,148,262,313,425
124279,-75,-638,-57,84,-1,21,435,412,32,-6,220,-194,147,-211,189,387,214,203,564,71,151,436,631,94,226,552,519,174,182,296,387,479
124280,-90,-619,-32,107,-6,-4,380,408,37,-9,191,-263,151,-204,165,365,145,210,572,88,157,397,615,80,210,517,500,185,163,259,342,409
124281,-92,-605,-58,161,-17,21,385,362,28,-12,167,-210,150,-229,165,359,47,194,556,65,109,379,536,41,182,455,433,118,58,81,112,160
124282,-101,-652,-94,143,-17,11,365,333,6,-11,185,-191,133,-258,175,341,74,182,551,66,109,441,579,55,183,502,530,117,64,142,216,315
124283,-109,-732,-140,81,-14,7,370,347,7,-15,202,-51,155,-247,163,365,123,233,564,82,117,443,676,86,205,520,564,110,94,166,227,329
124284,-97,-734,-155,57,-15,55,366,307,-16,-38,207,112,105,-268,132,382,47,201,538,58,73,356,648,30,155,439,427,90,12,17,-16,23
124285,-110,-726,-182,126,12,72,391,304,16,-35,222,-6,144,-264,150,384,-28,220,542,39,61,313,635,11,149,410,376,110,-4,48,82,115
124286,-104,-652,-158,212,30,68,410,423,87,0,230,-102,280,-236,162,405,23,341,589,78,107,381,712,60,181,457,460,104,43,143,210,316
124287,-182,-680,-129,241,2,117,391,397,53,7,228,-185,264,-256,156,383,72,320,570,67,126,391,717,54,165,460,516,93,58,172,274,390
124288,-161,-716,-88,189,28,186,422,421,31,0,261,-199,214,-238,193,378,67,333,567,117,132,439,715,100,204,512,587,112,146,247,358,421
124289,-59,-740,-117,164,37,168,401,440,37,13,293,-111,160,-205,214,395,-25,280,598,153,148,463,693,111,245,550,588,201,206,319,375,405
124290,-62,-754,-120,207,28,141,345,404,19,-5,233,-26,134,-268,164,326,54,241,538,83,88,405,672,45,193,455,510,217,98,152,141,235
124291,-73,-687,-35,195,28,65,362,474,30,0,245,-49,129,-250,174,382,231,246,540,96,94,337,741,62,188,446,507,206,87,117,111,216
124292,-80,-696,-42,123,22,32,371,462,18,0,256,-147,159,-249,168,478,268,229,557,118,136,278,696,69,193,459,531,244,75,145,163,239
124293,-102,-649,-145,107,13,70,346,461,22,-19,255,-127,176,-238,184,412,164,253,580,125,157,377,651,86,209,474,550,274,133,202,222,349
124294,-68,-608,-193,79,-6,85,322,409,-9,-60,256,-60,147,-275,169,317,93,239,560,79,141,319,618,74,199,451,488,232,157,207,153,232
124295,-58,-613,-191,88,-4,115,357,384,5,-30,260,-58,165,-255,191,351,196,216,576,67,116,335,650,78,172,424,397,212,85,60,-31,18
124296,-89,-636,-53,133,4,77,380,411,9,2,281,-51,195,-225,204,388,234,250,604,93,157,407,687,117,223,455,451,248,104,118,64,127
124297,-45,-619,-2,130,17,0,422,427,38,6,295,-63,177,-205,206,415,249,251,607,142,169,364,693,143,255,531,542,204,171,252,256,349
124298,8,-568,-102,101,15,-5,430,420,49,-19,286,-143,198,-204,170,357,240,281,599,128,123,289,689,115,239,515,463,163,108,186,162,206
124299,-19,-581,-146,39,4,15,362,401,36,-3,268,-125,192,-212,168,346,99,308,600,119,147,425,733,127,249,485,479,146,102,145,93,111
124300,-62,-592,-151,76,11,57,380,314,15,6,274,39,160,-218,196,390,64,400,620,111,181,498,662,114,244,507,594,1,120,179,199,323
124301,-86,-607,-139,110,36,57,444,266,-6,-14,244,133,126,-205,188,390,288,271,619,132,161,439,752,127,256,530,560,148,183,228,219,344
124302,-224,-670,-167,99,14,26,437,331,2,-45,157,-9,141,-250,163,280,215,188,581,76,118,308,738,102,220,456,386,276,186,165,88,209
124303,-258,-677,-226,76,15,53,446,365,25,-34,229,-71,166,-228,170,240,147,252,589,65,117,245,646,109,223,444,339,210,164,141,61,125
124304,-136,-699,-142,93,16,-4,433,388,12,-47,262,-71,187,-215,160,257,272,250,583,69,122,292,643,117,234,456,375,244,167,146,46,51
124305,-130,-716,-27,153,25,-10,373,337,12,-35,252,-17,171,-207,179,290,291,288,611,109,156,234,733,183,266,503,472,538,296,257,157,205
124306,-114,-657,-133,195,21,22,319,441,58,-10,274,9,208,-175,232,292,254,312,654,149,172,450,789,233,324,532,580,578,356,333,276,403
124307,-81,-665,-176,220,27,-23,351,481,55,-16,261,-30,207,-185,193,293,219,312,657,127,135,522,787,189,290,533,557,424,324,325,258,460
124308,-70,-702,-129,215,21,-32,345,427,46,-33,220,14,192,-181,167,340,256,343,625,110,128,423,892,159,263,517,498,279,251,265,221,390
124309,-77,-769,-104,139,26,-40,376,410,51,-48,215,-63,222,-161,199,325,190,392,635,126,112,476,1059,167,276,511,518,269,143,191,184,348
124310,-101,-823,-152,88,24,-17,397,390,29,-16,235,-209,187,-155,201,346,-106,331,625,132,152,537,900,97,272,560,644,-167,118,241,273,519
124311,-143,-842,-207,74,0,-23,305,342,-1,-27,202,-298,147,-186,158,365,10,267,572,113,126,518,743,47,230,516,648,-153,93,224,237,527
124312,-150,-763,-224,99,-22,-26,300,235,1,-59,158,-260,116,-190,145,356,127,187,566,90,108,314,507,-7,196,477,551,20,102,232,272,508
124313,-151,-773,-223,90,-14,-36,322,214,-23,-82,117,-70,96,-248,100,292,130,99,484,0,15,177,396,-95,123,356,266,-63,-17,42,-46,-106
124314,-87,-803,-154,94,-4,-11,336,265,10,-60,136,-21,140,-242,102,291,130,89,463,-12,28,175,431,-120,82,364,273,-93,-98,-56,-141,-218
124315,39,-666,-3,147,44,66,395,333,29,-6,217,-64,150,-205,166,417,109,139,517,56,114,110,484,-70,141,456,402,-172,-84,20,47,149
124316,91,-600,-32,78,28,12,388,413,1,-25,222,-72,75,-231,163,418,119,191,524,52,100,235,538,-47,147,446,441,-38,-24,44,75,91
124317,94,-609,-84,161,6,29,365,478,-10,-53,147,-89,70,-267,109,365,84,233,491,-13,48,273,500,-72,120,385,399,70,-37,25,-10,57
124318,146,-585,-73,204,49,109,398,485,-1,-22,203,-97,109,-246,152,373,43,192,514,21,88,247,493,-29,151,412,457,41,10,128,110,283
124319,154,-608,-89,216,55,124,375,475,23,1,194,-81,106,-223,134,362,14,140,543,29,88,247,557,9,185,416,441,175,111,201,181,386
124320,147,-538,-21,183,21,47,395,462,24,-48,174,-64,108,-250,83,340,-47,162,522,-11,30,246,548,-3,143,328,316,154,44,106,14,90
124321,114,-472,44,112,3,42,380,428,14,-63,159,-66,107,-257,83,316,108,169,508,-30,18,324,571,-5,129,311,257,57,-27,11,-107,-79
124322,126,-408,58,172,23,94,373,408,8,-41,149,-96,100,-255,82,330,177,162,524,-9,22,300,572,3,152,352,280,-10,-75,4,-38,112
124323,128,-387,20,252,37,50,363,402,13,-55,162,-26,111,-225,85,264,127,385,562,6,22,261,600,28,167,356,325,122,-31,18,0,139
124324,145,-430,20,225,27,67,300,418,1,-72,129,-103,141,-231,69,272,27,268,542,-7,34,222,588,22,165,373,314,75,19,54,14,99
124325,229,-426,116,222,38,72,337,366,-16,-51,131,-124,92,-234,87,275,192,104,527,-5,30,181,664,1,163,380,305,25,12,66,10,97
124326,172,-397,202,230,73,59,404,416,10,-22,182,-80,146,-221,109,246,242,209,566,29,40,165,710,24,210,395,352,11,59,151,94,113
124327,7,-411,109,249,64,19,409,425,17,-21,212,-106,136,-214,119,283,151,254,555,27,71,92,677,26,211,388,364,-7,19,164,144,165
124328,33,-442,86,291,58,8,362,367,16,-59,179,-157,125,-228,126,283,144,267,566,29,62,94,683,37,192,405,385,41,21,93,126,247
124329,208,-402,111,309,72,12,405,380,43,-44,199,-199,154,-211,124,310,112,271,578,56,66,146,671,43,201,418,379,0,63,119,101,258
124330,199,-462,80,235,33,-44,340,382,30,-44,172,-280,123,-232,81,289,83,209,535,32,38,148,608,2,170,358,315,9,37,75,51,215
124331,169,-509,-5,213,31,5,286,385,-4,-58,147,-305,138,-210,58,264,78,222,563,37,46,266,591,11,191,386,380,0,26,121,87,274
124332,184,-504,-65,221,14,8,259,388,-4,-66,79,-267,121,-232,41,198,-72,205,533,9,-9,194,574,5,184,374,339,-11,14,67,29,127
124333,236,-459,-101,193,9,-20,263,394,18,-58,84,-213,134,-206,58,194,-340,196,560,35,-5,177,535,18,196,395,396,-17,47,84,73,192
124334,300,-445,-85,247,18,7,305,386,30,-36,124,-195,143,-194,84,219,-60,195,581,40,45,171,596,27,212,428,442,16,68,152,151,365
124335,363,-380,31,283,36,15,335,422,48,-15,141,-187,159,-183,91,204,178,185,576,48,24,142,643,34,232,405,387,68,54,156,121,205
124336,375,-294,82,216,31,24,335,428,57,-30,111,-170,184,-181,94,196,119,206,598,54,36,164,656,68,264,456,423,154,133,247,230,289
124337,294,-308,34,235,33,43,329,326,49,-29,126,-240,164,-182,106,198,78,230,610,55,27,108,644,70,265,422,420,299,203,257,193,298
124338,306,-285,63,267,63,41,377,356,60,-32,164,-310,193,-188,106,223,27,213,601,18,30,57,596,61,214,357,319,303,130,92,-73,-54
124339,360,-299,34,233,56,-31,343,340,43,-58,137,-257,182,-199,104,235,53,195,601,15,55,117,553,59,195,372,333,258,105,79,-5,40
124340,318,-359,56,194,37,-38,338,315,6,-68,105,-272,161,-246,69,200,37,139,545,-4,-7,136,518,-3,160,311,251,112,-1,-10,-116,-86
124341,290,-358,79,137,28,7,382,355,1,-55,118,-181,122,-283,62,151,-188,88,510,-37,-23,152,429,-62,129,312,255,-119,-106,-18,-143,-118
124342,358,-274,92,215,87,52,412,392,45,12,175,-27,162,-225,114,164,-139,133,524,15,54,224,483,-22,170,397,354,-104,-66,79,-1,36
124343,357,-224,79,254,87,20,451,420,25,-13,171,-32,87,-236,114,209,41,144,501,24,50,339,517,-32,159,394,438,-165,-114,35,-9,87
124344,342,-282,33,259,94,57,409,372,-7,-18,187,145,-16,-258,112,267,139,142,487,-7,97,326,584,-61,136,378,509,-110,-147,-94,-138,25
124345,198,-334,-86,257,83,44,345,371,9,-30,170,55,54,-251,89,304,89,173,509,-3,93,263,544,-60,125,387,519,-81,-109,-51,-50,67
124346,157,-383,-124,269,66,50,221,420,4,-53,109,-34,107,-249,68,332,76,198,513,0,73,176,531,-61,133,385,460,18,-46,27,1,110
124347,180,-456,-46,269,62,83,172,395,-4,-21,117,-32,81,-266,87,296,106,92,476,-31,63,170,539,-55,117,372,336,9,-54,48,23,95
124348,155,-421,-228,289,63,38,205,411,-1,-48,90,-140,87,-285,60,245,65,65,448,-61,18,243,519,-59,97,373,326,-51,-48,32,72,220
124349,222,-374,-185,303,84,105,213,483,35,-28,106,-142,118,-250,102,282,69,151,501,-36,31,262,612,-35,140,374,304,2,44,92,132,240
124350,214,-421,-90,180,61,89,277,357,-9,-19,121,-141,84,-269,49,188,37,159,479,-39,-31,145,640,-44,118,311,181,-75,47,88,87,180
124351,250,-433,52,155,59,103,333,228,-33,-14,165,-61,42,-273,66,119,29,173,477,-11,-1,234,680,-37,130,359,253,-16,102,199,217,335
124352,343,-365,128,201,78,18,324,280,-22,-35,151,-105,46,-277,84,57,-134,160,477,-18,-5,229,582,-47,120,345,274,9,49,182,213,271
124353,343,-324,155,150,88,27,384,290,1,-45,147,-178,83,-265,88,95,-169,116,473,-30,-2,120,502,-85,109,348,251,-50,-28,114,194,207
124354,316,-286,79,93,65,-3,357,264,-12,-38,124,-175,68,-306,59,71,-29,79,416,-68,-61,96,498,-192,38,259,69,-89,-214,-203,-246,-125
124355,287,-215,15,99,61,-31,267,241,-30,-40,123,-213,49,-322,32,44,-55,62,412,-66,-69,93,445,-210,33,249,84,-135,-191,-149,-169,-52
