,Fp1,Fp2,F7,F3,Fz,F4,F8,FC5,FC1,FC2,FC6,T7,C3,Cz,C4,T8,TP9,CP5,CP1,CP2,CP6,TP10,P7,P3,Pz,P4,P8,PO9,O1,Oz,O2,PO10
188454,518,401,850,350,148,523,509,519,314,183,333,280,468,90,500,411,487,348,206,257,438,407,404,449,276,337,536,233,494,25,200,456
188455,525,416,869,332,148,515,492,531,323,194,338,293,481,88,505,409,476,353,203,257,435,380,418,466,273,347,539,259,520,42,240,501
188456,498,389,862,328,136,494,442,529,318,186,318,275,485,91,490,377,484,355,198,263,423,347,433,479,270,364,537,333,578,70,275,504
188457,491,373,870,321,126,496,451,541,323,182,316,260,473,102,506,367,500,336,214,264,407,368,419,470,262,347,504,274,489,-7,224,443
188458,509,359,850,318,133,482,438,522,321,178,291,265,472,98,487,359,484,325,226,256,392,344,403,445,244,339,478,234,459,-59,190,364
188459,483,331,797,297,122,474,410,471,313,170,284,206,465,102,478,361,414,293,191,241,414,341,327,419,231,342,529,102,415,-69,238,536
188460,471,319,783,279,117,462,420,472,311,173,295,177,473,109,465,354,413,271,174,243,407,321,326,400,227,311,494,45,393,-82,201,427
188461,468,327,792,279,120,456,391,476,310,169,281,195,454,98,468,359,413,264,174,247,390,348,327,404,246,325,500,100,424,-77,205,457
188462,482,365,777,303,134,481,438,476,322,177,305,209,450,107,493,384,410,287,177,256,402,346,340,427,242,348,502,146,456,-51,186,417
188463,495,352,780,314,123,504,446,486,328,183,297,218,468,121,501,374,440,280,182,256,397,323,346,411,220,329,441,137,401,-142,70,222
188464,471,318,739,302,109,481,432,464,316,181,302,169,446,111,507,364,378,253,178,245,396,312,315,406,213,332,467,124,414,-99,156,304
188465,464,311,718,309,123,473,448,470,311,202,314,172,417,99,511,362,362,252,148,237,397,309,267,374,200,320,470,34,341,-149,109,306
188466,469,350,782,333,132,493,449,479,308,194,314,169,415,86,503,352,377,235,155,241,392,295,265,353,198,301,441,58,336,-188,49,228
188467,486,360,791,306,141,495,442,441,313,173,310,127,416,89,494,370,367,233,152,241,382,314,232,351,188,323,456,47,337,-183,75,262
188468,452,309,743,295,136,468,398,426,306,193,277,112,417,103,487,339,361,221,154,251,368,294,213,365,189,324,451,47,354,-150,84,262
188469,388,250,674,249,104,457,364,402,294,188,275,89,423,115,487,323,322,227,154,251,357,270,212,380,212,321,451,66,372,-115,108,269
188470,383,241,651,240,118,437,364,384,297,178,280,71,407,114,505,329,272,221,166,265,382,268,226,384,227,347,484,88,391,-56,190,364
188471,382,257,679,256,122,444,390,388,317,184,281,80,412,109,511,310,281,215,171,274,387,223,221,396,222,341,479,91,404,-50,213,406
188472,393,268,706,255,116,450,368,398,323,187,277,96,425,112,513,309,281,206,168,273,383,188,206,369,221,355,491,77,399,-53,248,490
188473,381,263,675,243,107,434,367,384,298,179,248,76,402,84,467,271,249,179,139,240,369,187,159,316,203,335,485,3,333,-107,206,506
188474,342,253,683,258,87,427,359,388,305,178,247,63,395,93,458,269,235,161,138,222,339,221,156,314,189,300,446,24,332,-119,135,378
188475,376,257,691,274,96,426,346,413,325,174,241,71,407,100,435,271,254,201,132,221,306,192,182,318,164,269,357,117,365,-145,25,86
188476,364,231,670,275,96,407,326,385,320,155,214,58,428,92,413,240,209,199,138,200,280,192,194,322,161,260,354,209,420,-110,52,106
188477,371,233,691,269,102,403,325,416,327,147,185,91,430,98,403,216,243,187,136,179,281,169,219,333,162,240,359,238,406,-111,37,114
188478,360,268,690,256,119,412,356,403,328,156,177,73,429,75,377,230,235,182,100,155,272,141,190,284,120,218,314,130,337,-167,-16,41
188479,384,289,725,282,117,430,361,414,324,180,222,77,414,76,397,254,234,152,87,159,294,212,154,246,100,215,359,-54,259,-216,28,201
188480,412,310,755,290,116,453,360,428,317,179,232,85,387,65,392,278,280,116,67,154,311,234,98,213,92,214,380,-192,141,-283,15,233
188481,393,294,730,259,121,445,353,422,311,170,226,58,387,60,402,279,284,121,80,167,320,248,78,189,88,203,387,-185,121,-299,-1,206
188482,422,307,747,281,133,450,392,449,323,183,274,78,421,90,449,328,317,159,104,218,374,303,119,220,146,255,436,-178,158,-277,41,283
188483,437,322,748,284,130,454,391,460,311,177,275,124,431,90,455,341,370,181,105,216,387,304,171,265,152,291,445,-96,217,-230,34,253
188484,434,320,759,287,115,443,399,451,308,184,277,132,429,90,470,359,370,183,109,217,385,325,195,281,175,298,480,-38,268,-185,93,355
188485,475,340,807,300,121,446,416,475,317,184,291,154,429,83,486,375,389,200,114,225,408,357,236,313,203,335,540,30,347,-71,208,481
188486,436,339,791,295,110,443,425,473,317,181,288,165,418,72,477,390,375,221,120,236,418,360,238,337,197,374,548,44,372,-58,224,483
188487,423,300,795,292,114,432,405,474,309,196,293,166,414,93,469,372,358,224,139,256,422,332,233,343,224,372,527,23,373,-80,217,492
188488,442,301,797,304,123,433,387,486,309,182,262,142,424,84,457,348,366,195,141,240,409,302,229,337,222,355,518,35,379,-72,185,481
188489,430,290,800,289,122,443,391,475,302,178,262,134,420,68,447,350,351,193,131,234,408,305,200,313,209,360,507,39,338,-80,184,431
188490,424,295,780,286,124,459,400,477,305,195,279,137,430,96,473,353,329,220,160,261,420,329,238,353,237,395,526,142,454,27,285,458
188491,399,266,760,278,104,435,361,460,298,174,255,101,422,92,455,319,313,228,156,246,385,290,274,366,239,381,509,187,471,35,274,445
188492,411,291,783,276,127,439,377,473,311,188,255,134,440,94,435,313,334,242,156,237,369,293,243,342,219,346,473,87,362,-102,136,340
188493,427,278,767,268,130,458,372,486,322,218,258,143,446,106,457,325,383,251,184,246,371,325,278,359,237,337,492,118,381,-98,141,413
188494,415,256,755,259,110,444,360,456,306,191,257,152,419,81,449,316,394,240,134,227,343,315,259,326,205,335,459,78,363,-124,105,297
188495,406,285,764,291,109,458,373,467,298,184,258,166,415,73,445,310,398,233,146,200,343,323,241,334,208,321,419,96,389,-102,96,152
188496,423,302,766,277,108,466,371,463,294,181,254,147,402,61,448,331,412,234,144,209,344,303,266,347,219,331,459,157,416,-39,178,369
188497,451,336,762,297,104,465,380,477,302,186,277,158,413,66,458,334,401,255,149,241,372,320,286,359,220,371,526,160,421,-14,248,529
188498,461,337,767,296,106,454,398,481,297,176,281,162,420,58,454,331,401,256,136,232,395,351,294,366,227,389,578,142,438,33,305,673
188499,476,339,794,323,112,467,413,503,324,184,285,163,433,84,475,347,423,290,159,238,411,387,315,370,239,383,572,175,452,21,281,582
188500,448,322,791,332,103,449,391,511,321,177,263,167,443,90,462,348,431,288,183,224,386,336,354,400,241,395,493,271,510,72,273,340
188501,427,300,778,307,96,442,412,480,314,163,278,150,445,62,454,352,426,281,166,220,405,360,329,399,234,368,503,208,467,23,249,322
188502,464,342,820,313,116,463,472,483,332,180,314,178,445,76,467,390,445,264,138,222,401,395,313,363,219,344,487,102,351,-131,131,276
188503,503,381,876,341,129,487,501,500,334,182,315,201,446,86,463,388,468,268,144,220,381,397,314,339,208,300,435,74,310,-210,22,105
188504,474,354,843,332,117,441,423,498,340,164,274,184,451,74,458,363,464,258,160,227,395,393,328,352,220,335,485,152,355,-113,99,259
188505,476,332,841,346,112,438,395,507,347,183,276,184,460,81,471,372,487,266,196,239,415,408,364,386,281,376,532,222,456,-25,219,414
188506,450,318,809,323,91,444,411,486,344,175,291,170,438,86,476,388,457,281,185,233,409,393,373,388,258,378,554,222,461,-24,249,458
188507,454,331,820,341,95,451,420,480,335,184,301,181,443,99,494,410,455,296,195,260,415,389,385,416,272,409,567,261,515,60,301,497
188508,491,331,840,335,100,451,402,483,321,186,290,183,445,105,482,408,435,292,195,259,403,385,391,425,291,396,570,287,554,117,341,526
188509,508,327,838,323,102,434,384,471,323,180,285,179,420,81,461,379,436,290,186,247,389,334,392,415,289,357,533,309,564,94,306,499
188510,519,340,856,344,120,467,415,508,342,190,303,199,460,98,477,372,475,303,215,264,407,357,433,444,301,390,531,387,608,117,290,473
188511,522,325,862,361,130,487,426,505,352,219,338,211,460,123,504,400,451,297,234,305,468,389,430,458,330,465,635,355,629,185,462,727
188512,516,319,853,358,120,479,423,529,341,204,346,204,476,135,514,396,450,293,247,299,471,395,419,476,340,463,646,315,613,205,500,756
188513,489,313,865,348,111,465,425,530,346,200,323,217,484,119,518,380,503,328,257,302,442,394,431,468,347,451,625,259,561,147,451,684
188514,524,347,920,387,135,495,476,562,368,229,341,279,499,125,534,427,591,349,252,302,465,427,418,453,319,432,631,171,450,-1,310,672
188515,527,360,908,380,100,486,473,579,330,189,322,292,472,103,487,394,597,308,192,242,369,398,356,395,226,302,429,113,321,-254,-43,76
188516,495,348,867,355,103,484,455,567,324,166,303,255,482,90,475,377,569,330,201,251,378,391,398,440,250,316,433,203,408,-129,61,95
188517,502,353,888,346,115,481,447,560,350,206,302,274,506,110,495,382,555,357,223,260,418,401,421,459,311,364,510,238,483,-39,209,304
188518,468,312,855,353,106,470,422,551,345,195,312,273,524,119,488,391,560,365,221,265,375,379,407,434,287,349,483,213,438,-109,117,263
188519,480,294,858,365,118,463,443,559,358,204,304,270,522,131,476,383,564,381,247,270,399,362,442,481,294,363,480,315,504,-48,145,282
188520,473,284,876,364,109,453,430,579,349,194,310,255,513,144,463,382,548,392,244,288,415,362,482,515,330,403,540,469,610,63,267,441
188521,459,302,866,354,111,447,425,563,353,208,303,259,529,130,458,373,527,390,241,286,422,358,499,523,342,383,556,498,627,103,296,470
188522,449,283,864,343,88,419,402,560,343,176,261,266,499,100,427,328,512,361,202,240,375,330,456,472,297,313,481,391,548,13,199,341
188523,458,307,880,338,99,416,424,558,339,173,265,289,497,99,435,330,526,348,204,239,361,321,447,443,275,320,449,363,524,-33,174,293
188524,476,331,887,348,98,435,435,560,344,185,274,298,486,121,452,347,493,359,208,245,367,308,458,453,265,312,470,308,531,4,201,347
188525,462,320,884,347,103,448,432,574,330,187,274,297,472,122,457,334,517,357,205,230,337,329,428,442,250,296,461,145,470,-37,158,325
188526,431,287,874,324,94,435,415,588,340,181,256,306,492,118,439,317,543,361,216,238,324,340,437,443,257,309,429,179,479,-66,138,287
188527,422,267,852,337,84,440,414,575,348,185,269,305,519,119,481,353,557,364,232,250,361,348,439,454,275,335,458,188,505,-20,175,363
188528,425,274,863,335,102,450,390,572,328,192,276,309,507,115,473,332,536,366,239,264,358,342,443,452,279,360,471,202,527,26,253,446
188529,450,294,868,333,106,458,401,567,337,204,282,299,515,122,459,306,524,363,235,256,384,330,456,482,275,369,480,268,564,64,283,502
188530,488,322,911,368,119,473,431,583,349,223,303,329,523,153,487,348,544,390,255,296,420,358,453,486,306,386,509,233,510,25,256,536
188531,482,314,896,355,113,460,420,578,345,205,297,285,524,140,477,346,521,366,253,287,404,360,398,461,273,358,485,165,410,-72,178,466
188532,444,269,867,332,99,435,386,565,348,194,258,294,532,138,472,338,527,368,251,289,388,348,407,472,294,364,472,197,461,-27,195,437
188533,440,259,858,334,104,426,384,572,364,201,273,282,553,155,480,349,538,387,286,301,421,356,431,488,320,407,538,234,544,84,287,580
188534,455,275,853,308,104,426,393,568,346,187,280,270,530,138,461,329,492,375,277,304,406,345,428,486,322,389,533,200,528,63,294,545
188535,485,278,876,324,101,448,406,544,347,183,273,283,487,113,457,326,457,375,250,283,374,312,364,450,303,359,478,117,463,17,232,456
188536,497,306,883,343,123,465,413,550,352,194,279,278,506,120,473,364,472,374,241,282,393,345,329,442,287,380,507,110,444,-16,260,492
188537,479,312,861,338,106,453,396,542,344,180,278,251,455,117,463,343,501,338,223,260,387,346,280,409,274,354,490,117,386,-70,238,500
188538,464,303,864,350,102,423,389,546,344,175,251,242,456,92,456,339,483,318,205,261,379,335,291,401,273,363,473,189,425,-52,199,513
188539,503,324,902,378,144,463,426,587,353,193,298,225,494,129,477,361,488,341,246,287,401,351,359,432,296,396,509,262,510,44,250,527
188540,521,324,915,385,136,472,422,576,367,191,299,233,475,134,470,341,489,335,222,282,397,352,372,425,293,393,487,241,486,-4,228,454
188541,516,349,900,364,119,463,434,563,355,194,295,256,472,120,472,360,450,327,201,259,379,372,345,398,242,364,466,99,368,-119,120,348
188542,475,299,865,339,108,449,407,557,336,190,271,226,476,107,447,352,440,302,195,235,362,336,312,375,202,327,415,31,278,-208,49,186
188543,478,292,870,327,103,441,353,565,342,189,263,235,502,126,453,334,467,314,219,236,389,333,352,415,240,331,423,104,376,-135,117,186
188544,455,271,839,318,98,427,313,538,354,185,232,228,492,109,433,323,452,307,229,247,372,323,366,425,255,349,466,134,419,-50,190,331
188545,449,255,839,322,108,426,302,554,360,197,221,228,506,114,436,326,461,318,233,259,367,329,364,422,263,354,467,156,425,-58,161,324
188546,388,219,802,310,84,411,322,528,337,176,215,220,480,119,455,345,472,321,238,251,374,354,377,434,273,364,485,180,432,-83,148,324
188547,383,236,775,290,91,427,357,499,316,169,241,204,468,132,447,351,474,317,231,253,396,372,382,443,270,384,513,233,471,-37,194,387
188548,445,318,815,296,105,475,459,530,336,194,303,215,464,119,460,367,471,301,209,252,392,371,361,438,271,382,507,267,490,0,224,418
188549,465,359,806,309,132,486,488,489,306,188,287,164,432,93,439,334,424,253,178,215,342,319,342,403,227,321,464,245,469,-55,160,359
188550,430,321,755,288,91,467,448,463,320,186,283,137,417,99,441,324,397,240,194,228,354,310,334,405,218,337,491,240,499,-15,176,466
188551,331,231,647,235,76,438,406,407,317,176,274,93,400,84,445,318,358,232,171,223,361,319,317,405,225,329,478,226,487,-25,187,492
188552,343,244,678,248,100,461,426,424,312,181,296,118,405,95,452,337,404,237,163,228,347,325,299,385,203,316,407,114,426,-94,89,200
188553,365,266,715,252,87,457,442,438,293,180,301,131,390,79,452,336,427,242,147,231,344,330,285,362,217,327,420,121,446,-59,111,194
188554,418,322,755,265,111,482,487,479,296,178,320,182,400,58,459,336,472,240,149,217,340,336,304,358,198,305,437,159,410,-113,111,315
188555,464,348,817,295,121,491,526,507,315,177,339,202,436,74,460,344,503,278,152,206,333,335,332,372,195,289,434,195,400,-101,118,339
188556,411,326,776,283,99,492,500,499,312,188,330,181,427,68,450,347,502,253,152,217,350,344,331,341,180,310,426,153,355,-169,49,342
188557,362,280,734,238,78,468,458,454,294,172,276,160,400,76,422,317,467,248,140,208,346,328,322,356,196,301,444,195,429,-90,108,379
188558,367,275,726,257,96,473,458,448,308,174,304,185,410,89,448,315,477,273,166,221,336,319,344,376,213,296,458,201,462,-46,145,314
188559,368,263,707,242,94,452,388,452,297,157,266,149,387,70,419,288,435,231,136,195,307,295,294,342,177,265,414,98,382,-125,93,267
188560,372,290,720,248,99,465,418,458,302,180,270,152,375,71,425,313,437,217,129,194,331,335,269,326,172,272,413,74,332,-167,77,325
188561,390,291,726,263,99,466,440,437,306,173,286,161,377,68,439,308,468,218,128,193,327,345,282,311,170,285,457,103,305,-168,109,396
188562,344,267,722,258,89,450,402,439,294,154,260,158,365,44,404,296,451,201,116,181,297,312,279,270,149,260,411,80,297,-198,80,348
188563,337,279,705,255,103,446,400,427,291,151,247,187,374,63,409,283,448,205,126,181,296,302,284,292,152,232,389,99,330,-190,40,290
188564,370,273,716,243,109,447,387,429,300,171,266,157,366,74,421,290,472,218,107,175,295,292,307,308,159,250,414,226,396,-126,98,350
188565,383,287,717,251,116,444,404,427,302,179,271,150,356,69,418,296,458,243,101,202,301,290,317,300,173,281,425,316,423,-80,130,377
188566,387,297,720,255,112,448,411,420,295,174,270,138,343,48,414,292,457,211,91,183,294,280,261,277,152,265,411,224,391,-116,131,368
188567,368,277,722,265,113,427,399,418,293,164,272,124,326,37,419,286,454,188,66,176,280,287,229,257,132,243,426,68,348,-122,123,372
188568,369,254,756,278,130,437,402,449,303,172,265,136,351,50,435,317,445,200,89,187,311,318,284,283,157,259,441,134,385,-78,158,425
188569,391,238,798,276,111,436,385,458,305,165,257,173,369,30,422,265,434,230,92,171,287,295,330,297,162,285,418,220,393,-98,127,406
188570,383,226,755,260,77,429,384,460,294,163,238,170,381,41,414,256,435,244,110,174,303,309,381,322,170,281,447,298,440,-30,168,439
188571,370,245,731,275,100,446,407,460,311,187,272,178,378,79,446,306,465,228,116,222,333,343,339,324,185,309,474,166,390,-52,197,494
188572,353,277,718,272,103,436,410,473,289,178,258,159,394,82,445,303,454,218,114,214,337,359,291,309,171,287,457,74,324,-125,128,431
188573,353,254,719,280,88,427,390,507,304,189,246,171,409,79,425,288,470,224,122,206,315,368,293,317,181,295,435,80,349,-154,112,368
188574,364,229,745,298,93,427,369,506,327,188,251,200,417,94,439,287,498,257,160,227,334,373,320,342,217,310,466,124,392,-60,194,443
188575,353,228,775,263,100,411,356,498,328,190,238,202,426,89,436,301,464,264,171,226,330,347,325,340,224,295,478,93,406,-29,230,483
188576,354,213,761,261,87,410,352,490,306,167,235,168,424,82,419,297,413,245,169,231,333,328,296,333,215,310,473,24,381,-45,243,503
188577,378,247,766,273,116,449,397,498,326,198,253,175,454,108,467,318,432,259,180,244,361,380,341,370,232,329,494,120,447,-4,255,515
188578,353,224,761,254,107,428,369,467,317,177,247,181,430,97,455,307,438,257,159,206,322,340,333,363,209,297,445,135,430,-51,153,374
188579,333,196,735,241,110,413,359,436,317,158,231,165,410,83,435,297,414,244,174,195,308,317,318,341,210,269,420,105,415,-43,140,344
188580,340,197,742,260,104,425,359,442,301,169,239,148,435,88,449,274,402,254,167,219,327,318,324,380,237,310,448,131,481,57,221,450
188581,351,202,757,253,103,414,374,446,302,161,254,153,416,90,431,282,397,251,159,207,327,305,301,372,222,317,441,114,452,4,195,463
188582,326,193,708,220,92,410,371,429,297,155,238,109,380,82,405,289,365,213,135,192,318,298,236,319,194,266,423,-5,306,-145,115,408
188583,296,201,697,232,95,412,354,427,289,159,240,98,386,70,411,296,349,218,138,194,309,318,229,307,190,256,413,-23,300,-173,97,371
188584,312,202,695,227,85,427,357,422,297,162,249,107,370,78,396,287,340,193,124,174,291,316,206,275,160,226,368,-85,222,-248,22,255
188585,325,203,715,221,96,429,339,395,308,152,233,90,372,66,403,276,358,210,122,174,277,289,217,271,150,230,353,-38,261,-205,41,270
188586,338,209,732,232,121,421,353,425,287,154,242,118,373,63,410,292,363,210,110,155,263,286,226,266,147,220,363,-46,272,-212,40,301
188587,350,239,724,243,130,451,382,439,292,180,276,116,377,70,425,306,370,219,119,167,288,314,211,282,133,230,409,-34,279,-219,47,337
188588,366,252,706,242,136,477,388,448,302,198,290,122,384,66,427,320,391,242,125,186,308,316,222,313,146,249,424,42,311,-167,106,396
188589,341,247,687,238,129,463,402,438,281,192,270,107,361,34,418,299,378,224,102,166,299,296,215,278,123,221,411,29,268,-195,76,357
188590,348,262,691,255,137,477,413,444,282,192,294,120,393,62,419,309,379,252,119,170,290,302,237,303,132,225,391,49,289,-198,59,306
188591,356,252,740,254,152,495,406,453,292,207,296,167,432,68,448,324,371,284,130,177,311,311,274,309,149,231,407,65,324,-168,78,335
188592,359,258,757,244,126,490,446,470,302,201,305,203,434,42,437,332,391,293,137,180,315,338,296,324,160,245,442,58,319,-149,116,388
188593,357,271,788,259,130,484,444,476,312,202,318,225,447,70,445,337,455,312,160,195,336,367,358,357,183,271,454,140,363,-117,157,428
188594,382,277,808,256,139,477,420,468,313,199,287,234,453,50,438,326,470,322,158,195,331,348,364,345,183,260,445,170,388,-100,154,418
188595,392,254,795,281,122,467,397,480,315,191,280,231,433,54,425,305,465,324,170,197,316,331,383,355,191,278,464,227,442,-50,178,439
188596,391,269,826,290,130,473,412,495,336,184,304,249,433,55,423,313,493,318,153,185,307,330,393,352,186,275,459,229,449,-64,181,410
188597,434,297,856,304,166,491,430,506,337,188,322,277,437,57,434,330,495,323,157,188,327,327,420,368,192,266,480,269,470,-42,218,424
188598,446,287,864,309,158,480,421,514,321,177,284,237,420,50,424,315,498,306,143,170,330,335,399,347,167,287,503,265,460,-34,212,452
188599,421,287,852,295,167,489,420,495,308,187,294,213,402,40,423,332,498,303,119,173,344,352,361,330,154,296,505,186,413,-77,229,488
188600,400,297,812,285,147,480,424,463,295,160,302,199,396,27,412,344,482,274,110,170,341,375,357,320,156,284,506,175,408,-74,220,478
188601,427,337,841,309,149,503,457,485,308,179,322,237,388,42,450,353,545,290,131,181,346,393,407,342,183,308,512,216,459,-25,250,502
188602,448,325,857,313,162,500,449,511,317,169,332,266,391,35,452,346,563,330,135,185,365,412,425,354,202,311,523,282,510,23,288,517
188603,438,316,856,308,152,487,434,530,314,155,326,268,404,33,427,377,565,336,151,208,352,411,443,383,218,325,524,317,554,80,322,507
