,Fp1,Fp2,F7,F3,Fz,F4,F8,FC5,FC1,FC2,FC6,T7,C3,Cz,C4,T8,TP9,CP5,CP1,CP2,CP6,TP10,P7,P3,Pz,P4,P8,PO9,O1,Oz,O2,PO10
48301,-114,8,111,94,-65,519,-114,233,-9,-100,173,-526,-28,149,221,101,81,-143,128,131,-105,210,220,-74,411,112,352,-46,4,41,153,-3
48302,-158,-41,40,73,-86,517,-142,247,0,-95,208,-518,-20,135,209,102,79,-131,127,131,-83,186,234,-69,418,134,373,-30,24,34,168,20
48303,-175,-70,48,89,-99,524,-135,204,7,-110,204,-504,-11,128,229,142,87,-109,131,136,-69,239,256,-63,412,134,393,-5,19,35,182,52
48304,-145,-43,33,89,-92,533,-118,249,6,-110,174,-474,-5,120,218,151,118,-97,128,120,-75,217,293,-49,400,128,406,15,26,45,201,66
48305,-57,18,161,122,-53,568,-75,442,-6,-85,239,-418,13,126,271,197,147,-54,153,134,-53,241,354,11,409,158,452,77,111,98,248,107
48306,-14,48,234,116,-40,562,-9,409,1,-71,246,-384,8,125,272,172,187,-31,192,144,-57,276,411,33,439,173,472,208,189,166,279,89
48307,-43,89,153,105,-38,566,48,370,10,-69,207,-396,26,132,319,150,204,-33,174,136,-88,290,420,59,421,172,440,256,232,154,240,62
48308,-45,92,108,77,-36,577,24,355,-1,-53,159,-417,33,143,346,138,166,-38,168,120,-102,301,407,58,401,155,405,197,236,151,241,71
48309,-50,50,97,74,-30,566,-45,323,-3,-79,233,-456,3,122,293,105,137,-49,150,95,-86,273,343,6,388,114,392,59,134,96,203,72
48310,-100,39,43,70,-44,561,-1,309,3,-108,356,-466,24,109,151,137,132,-42,151,70,-100,247,325,-15,377,92,403,-18,6,23,164,82
48311,-137,3,57,69,-66,553,-72,315,1,-104,255,-455,27,119,199,142,151,-50,136,52,-107,241,311,-29,359,83,391,-85,-87,-59,125,73
48312,-116,13,116,88,-44,563,-56,352,13,-98,219,-432,56,116,232,121,160,-48,141,40,-116,219,284,-36,348,67,396,-123,-87,-70,116,45
48313,-109,23,92,91,-55,553,-28,348,7,-99,201,-431,48,103,202,59,115,-64,132,25,-180,151,244,-56,302,12,330,-159,-129,-115,99,-2
48314,-140,12,24,60,-55,549,-70,326,0,-110,209,-430,35,113,221,75,68,-52,123,40,-141,150,277,-46,296,22,337,-117,-85,-58,138,44
48315,-145,-33,20,34,-50,515,-118,302,-7,-131,160,-494,-3,73,166,26,0,-90,68,15,-179,112,279,-69,262,-6,298,-111,-65,-73,121,-26
48316,-108,-18,51,65,-40,523,-116,315,15,-132,175,-472,-3,60,152,20,32,-93,86,2,-223,74,266,-65,267,-34,253,-93,-67,-135,41,-104
48317,-118,-8,40,56,-45,519,-109,305,0,-105,187,-467,19,83,149,28,80,-80,111,4,-225,52,259,-35,308,-15,238,-52,-32,-109,51,-115
48318,-149,-43,-4,34,-69,504,-169,293,-8,-110,149,-477,32,105,133,11,47,-79,116,15,-229,59,265,-17,323,-19,241,-55,-14,-112,25,-121
48319,-172,-67,-19,33,-68,489,-185,278,-5,-110,137,-503,6,112,147,-11,33,-70,122,24,-231,27,287,-21,305,-10,228,-53,-20,-104,41,-145
48320,-170,-104,14,36,-76,515,-185,286,-16,-95,175,-486,-3,107,173,-46,36,-90,115,20,-231,-21,274,-50,310,-13,224,-64,-28,-95,56,-83
48321,-128,-71,47,55,-70,513,-173,314,-21,-125,113,-495,-14,90,181,-64,36,-76,87,3,-249,0,267,-45,307,-1,208,-40,2,-63,51,-49
48322,-100,-7,39,58,-61,492,-162,286,-16,-131,139,-491,-29,91,173,6,30,-90,71,-7,-291,84,266,-51,277,-14,221,-50,22,-52,46,-75
48323,-94,-33,51,85,-39,483,-161,294,-5,-151,135,-505,-25,84,62,8,19,-108,59,-19,-291,39,246,-60,268,-39,201,-111,-36,-125,-14,-178
48324,-149,-74,-35,33,-60,497,-163,223,-21,-139,-34,-585,-28,81,98,-56,-2,-100,61,-26,-287,10,194,-85,258,-62,163,-129,-129,-188,-68,-220
48325,-210,-92,-89,-28,-84,481,-209,188,-36,-117,-92,-731,-56,73,157,-136,-45,-63,46,-23,-302,7,174,-108,252,-58,103,-175,-144,-190,-94,-214
48326,-212,-123,-60,18,-93,444,-255,264,-12,-144,164,-541,-19,82,120,-105,-24,-70,49,-35,-337,-24,180,-118,236,-114,80,-248,-170,-238,-126,-258
48327,-191,-107,-5,13,-88,432,-178,271,-14,-168,134,-434,-46,82,49,-109,18,-226,52,-47,-325,-14,193,-131,251,-115,116,-160,-115,-170,-120,-240
48328,-204,-140,-17,-4,-103,467,-252,268,-22,-142,117,-550,-32,77,99,-115,-36,-171,78,-20,-295,-48,176,-113,270,-82,121,-196,-118,-171,-103,-200
48329,-206,-145,-52,-3,-101,498,-217,261,-22,-116,203,-553,-8,116,107,15,-61,-140,100,30,-276,3,211,-70,316,-19,191,-171,-72,-116,-2,-99
48330,-215,-128,-80,13,-79,489,-158,277,-3,-113,105,-567,22,140,122,5,3,-135,133,48,-274,-18,235,-51,341,2,204,-123,-25,-37,27,-119
48331,-210,-115,-43,11,-73,460,-169,298,0,-122,85,-566,21,126,135,-19,-11,-72,145,44,-275,-13,240,-49,333,-7,170,-120,-60,-115,-38,-250
48332,-175,-96,-5,27,-75,463,-212,263,14,-125,95,-500,11,144,152,30,18,-40,137,46,-227,12,284,-24,331,5,196,-61,-30,-143,-49,-249
48333,-156,-75,-2,42,-57,485,-164,283,22,-123,129,-490,37,158,124,72,13,-48,154,77,-204,15,274,-30,356,18,212,-92,-25,-110,-20,-203
48334,-170,-105,-36,31,-74,452,-172,279,-5,-143,127,-526,12,122,136,63,3,-73,130,66,-209,7,214,-39,359,26,216,-166,-75,-104,-18,-178
48335,-167,-106,-25,45,-89,446,-171,273,-34,-145,108,-528,13,96,149,43,12,-76,135,67,-199,-28,237,-49,364,45,194,-127,-41,-65,17,-178
48336,-167,-81,-3,49,-66,464,-178,264,-12,-118,109,-549,14,75,135,35,-40,-112,107,55,-217,-70,203,-74,346,24,173,-170,-108,-113,-17,-195
48337,-169,-75,-15,58,-41,448,-196,207,9,-122,109,-544,-3,88,127,0,-38,-113,87,44,-238,-49,169,-95,314,0,188,-208,-168,-163,-60,-200
48338,-185,-76,-48,48,-49,467,-183,239,4,-122,105,-550,-7,75,136,10,-34,-118,83,29,-214,-26,163,-102,300,2,188,-216,-152,-183,-74,-200
48339,-134,-57,0,42,-55,472,-171,320,-8,-105,93,-560,-15,71,173,-3,-52,-135,83,36,-226,-33,159,-123,297,9,191,-208,-129,-145,-55,-188
48340,-98,-23,55,53,-51,501,-126,339,1,-80,117,-527,-40,107,219,19,-45,-125,108,87,-210,-9,180,-97,312,31,192,-197,-136,-141,-62,-227
48341,-112,-58,29,45,-67,488,-157,305,24,-79,131,-508,4,135,264,15,-38,-111,134,131,-171,-35,211,-73,341,57,225,-119,-78,-120,-22,-220
48342,-138,-70,-13,22,-93,493,-150,302,6,-93,204,-495,22,135,189,13,-3,-80,155,131,-160,-42,246,-43,364,77,247,-52,-16,-53,45,-180
48343,-111,-35,21,50,-74,512,-91,299,10,-102,169,-499,12,110,201,35,-23,-63,148,117,-167,12,220,-47,365,76,263,-146,-54,-74,17,-173
48344,-125,-46,6,39,-79,506,-90,262,12,-75,200,-537,-12,135,234,54,-55,-86,127,120,-149,11,203,-62,369,104,288,-165,-61,-79,22,-147
48345,-160,-59,-4,53,-81,515,-141,265,0,-79,243,-570,-26,141,233,61,-98,-115,131,122,-160,19,202,-56,383,110,313,-159,-48,-52,58,-95
48346,-154,-58,7,33,-81,495,-142,246,-15,-108,109,-549,-52,111,219,21,-57,-115,121,117,-196,57,185,-77,378,99,306,-196,-88,-47,80,-66
48347,-186,-57,-18,18,-83,517,-125,224,-36,-77,77,-584,-60,117,258,-11,-61,-166,116,119,-200,18,168,-100,330,60,276,-176,-102,-58,58,-129
48348,-181,-66,-36,8,-71,521,-207,216,-29,-98,81,-592,-57,106,272,-20,-75,-189,92,114,-189,28,150,-109,343,73,260,-193,-124,-123,24,-136
48349,-151,-40,2,53,-53,518,-154,259,1,-116,185,-552,-22,122,183,80,10,-135,127,133,-137,62,200,-57,358,74,297,-155,-102,-140,-5,-142
48350,-156,-45,-19,68,-56,490,-175,238,-10,-112,198,-573,-17,126,159,64,-26,-146,114,103,-127,60,205,-75,338,54,297,-142,-109,-117,-9,-152
48351,-164,-45,-52,46,-69,507,-143,203,-8,-105,176,-608,-55,121,197,-2,-63,-180,88,84,-163,26,152,-120,328,49,299,-251,-161,-166,-47,-169
48352,-159,-44,-48,51,-62,504,-138,197,-3,-90,179,-623,-73,134,213,55,-74,-177,87,82,-161,21,136,-142,300,63,269,-293,-193,-186,-21,-159
48353,-197,-75,-82,27,-79,477,-173,186,-28,-117,120,-635,-71,115,174,6,-72,-175,82,80,-199,5,144,-147,274,43,267,-225,-174,-164,-6,-176
48354,-186,-84,-88,30,-82,469,-177,220,-22,-118,120,-614,-62,138,202,0,-82,-154,112,105,-177,38,154,-102,327,83,332,-172,-122,-113,62,-111
48355,-192,-98,-55,36,-89,455,-223,227,-4,-121,63,-603,-50,160,206,8,-72,-154,125,123,-167,42,171,-76,346,95,360,-162,-85,-59,85,-46
48356,-183,-103,-34,25,-113,458,-219,192,-8,-139,94,-602,-60,142,192,18,-69,-153,115,133,-163,31,186,-78,344,119,357,-120,-8,-29,116,-84
48357,-174,-84,-77,5,-104,453,-209,193,4,-151,135,-567,-43,146,188,36,-36,-130,137,112,-140,43,220,-57,360,125,362,-91,33,-8,143,-80
48358,-152,-92,-40,24,-102,445,-211,242,6,-134,104,-546,-43,117,167,-2,-4,-147,98,99,-179,39,199,-72,323,91,328,-163,-36,-52,101,-87
48359,-131,-101,-5,28,-102,436,-214,253,10,-127,102,-530,-54,101,172,-12,7,-131,84,71,-200,2,193,-93,280,77,305,-151,-71,-104,70,-70
48360,-96,-54,44,41,-63,442,-210,295,15,-117,0,-502,-23,129,173,6,9,-64,113,90,-174,51,242,-71,290,80,343,-126,-52,-55,82,-36
48361,-140,-62,-8,27,-58,443,-203,272,2,-96,-163,-498,-4,142,219,-37,-12,-89,100,88,-175,30,251,-76,276,52,330,-175,-60,-56,84,-34
48362,-141,-93,-28,1,-83,497,-240,229,-7,-70,193,-544,-42,138,259,-74,-1,-121,108,77,-164,-34,221,-105,255,38,306,-220,-114,-94,67,-45
48363,-114,-36,32,56,-60,457,-133,277,25,-141,225,-515,-10,135,139,34,0,-78,115,58,-157,42,235,-46,274,62,348,-162,-77,-45,105,-24
48364,-95,-22,61,77,-57,453,-140,286,16,-145,142,-500,-8,128,88,18,-1,-80,105,43,-220,53,225,-66,255,22,335,-147,-84,-45,119,-43
48365,-108,-33,11,66,-73,449,-201,282,2,-137,118,-504,-32,103,120,-27,19,-111,84,38,-208,19,220,-90,238,23,345,-153,-78,-42,92,-59
48366,-114,-55,45,63,-64,432,-201,311,28,-148,112,-501,-4,105,126,47,13,-98,90,41,-202,43,217,-74,235,11,347,-143,-61,-55,61,-70
48367,-111,-25,31,42,-59,446,-205,272,26,-141,122,-514,-10,100,133,47,20,-67,102,62,-177,78,235,-54,264,43,368,-131,-32,3,118,-39
48368,-94,-27,21,65,-83,446,-165,271,19,-140,124,-513,16,111,143,67,31,-69,116,60,-173,90,263,-27,294,62,393,-85,-1,5,144,5
48369,-74,-31,56,92,-68,447,-160,313,37,-128,134,-466,56,131,144,54,76,-31,141,56,-193,96,301,-14,300,63,383,-39,0,-9,132,35
48370,-78,-19,48,71,-79,455,-175,325,32,-145,134,-437,60,100,137,48,66,-6,149,41,-184,109,309,11,301,29,371,-10,39,23,102,-12
48371,-57,-14,61,87,-97,457,-158,371,53,-154,146,-429,94,124,159,28,91,4,146,34,-200,115,310,26,306,8,351,-10,68,16,76,-55
48372,-54,-40,88,113,-62,442,-163,427,73,-151,47,-393,110,153,177,-5,105,13,152,31,-225,105,303,-8,280,1,316,-15,49,7,44,-57
48373,-59,-30,145,134,-47,450,-170,415,75,-118,74,-371,142,156,258,15,111,29,169,39,-194,102,318,14,303,7,318,24,77,17,58,-39
48374,-64,-28,118,121,-65,467,-152,329,78,-130,139,-361,158,134,172,137,113,61,184,21,-165,126,351,43,299,27,326,37,115,45,101,9
48375,-71,-25,125,152,-65,479,-113,355,83,-156,191,-340,163,148,85,106,119,72,226,21,-153,115,381,74,313,12,338,59,158,88,131,68
48376,-49,-28,91,124,-69,459,-131,452,47,-168,141,-291,151,181,140,59,156,112,230,61,-162,91,399,98,368,42,364,85,196,109,156,34
48377,-39,-5,131,108,-55,458,-126,458,58,-133,155,-275,158,179,166,119,200,124,248,71,-122,161,407,101,384,83,397,40,150,93,134,30
48378,-40,-20,134,140,-49,461,-117,433,69,-133,158,-346,145,160,183,130,161,80,225,56,-84,192,360,69,389,82,404,-15,75,40,145,76
48379,-12,12,165,161,-22,485,-95,470,94,-106,153,-318,157,153,189,140,171,87,221,64,-106,172,374,71,370,64,406,37,100,-4,97,18
48380,-7,21,171,164,-31,487,-84,462,95,-113,182,-326,156,125,195,128,167,75,198,39,-126,142,361,35,326,38,356,-25,40,-53,50,-75
48381,-46,1,125,123,-67,475,-88,429,51,-130,179,-370,101,121,192,128,97,30,169,31,-141,120,312,-5,334,22,335,-49,3,-60,50,-89
48382,-82,-17,94,103,-74,467,-115,428,41,-134,161,-380,93,113,201,91,59,15,159,34,-149,91,300,-12,331,35,310,-28,-2,-56,71,-73
48383,-107,-57,74,96,-85,431,-189,407,27,-126,113,-399,88,92,178,49,78,17,145,39,-155,109,297,-26,315,20,317,-82,-42,-76,71,-69
48384,-88,-54,94,97,-82,437,-195,346,25,-113,92,-443,76,96,197,49,50,14,135,45,-158,86,302,-30,317,27,286,-109,-65,-123,30,-81
48385,-86,-40,74,108,-62,435,-209,355,27,-128,113,-460,92,113,196,68,-2,16,139,51,-191,54,254,-28,322,34,295,-110,-31,-79,61,-81
48386,-76,-47,82,80,-38,445,-192,341,41,-163,170,-482,58,83,123,41,-16,-36,133,14,-211,87,232,-44,295,7,277,-145,-53,-105,26,-132
48387,-93,-63,76,76,-42,448,-153,291,58,-147,170,-487,45,82,125,48,3,-44,138,25,-201,55,244,-50,310,0,247,-151,-74,-133,-19,-163
48388,-100,-66,69,90,-48,448,-223,312,49,-147,117,-486,62,93,135,25,10,-44,133,4,-209,13,228,-69,273,-24,221,-127,-111,-221,-81,-235
48389,-112,-65,95,119,-63,449,-224,343,43,-145,119,-467,62,95,161,19,20,-43,158,24,-206,60,247,-63,281,-20,218,-136,-81,-206,-57,-209
48390,-105,-53,69,89,-65,446,-200,342,30,-140,142,-474,64,90,180,14,-4,-35,150,19,-207,5,260,-50,274,-25,221,-61,-4,-131,-23,-204
48391,-123,-57,50,69,-45,462,-189,322,31,-135,137,-461,64,83,162,14,5,-15,136,40,-217,-40,302,-58,295,-4,243,7,60,-105,-40,-200
48392,-142,-73,33,57,-61,476,-185,314,16,-127,121,-492,49,86,157,-35,22,-39,129,54,-217,-37,288,-62,322,2,241,-22,39,-90,-19,-133
48393,-127,-65,71,97,-50,460,-233,350,36,-104,135,-484,54,125,181,-57,21,-52,142,80,-193,18,269,-63,315,23,252,-118,-47,-108,-10,-123
48394,-132,-60,60,85,-51,458,-197,343,27,-121,128,-494,37,92,171,-37,-21,-76,110,58,-217,-9,207,-121,279,-9,216,-292,-192,-243,-78,-250
48395,-121,-40,49,89,-43,477,-131,320,39,-118,157,-482,34,109,186,-17,-29,-77,124,80,-159,14,205,-129,287,7,219,-340,-277,-280,-94,-206
48396,-150,-74,64,51,-75,467,-195,283,0,-128,195,-517,4,104,166,-96,-56,-107,95,63,-175,-22,168,-140,272,-22,209,-329,-264,-281,-106,-206
48397,-128,-54,23,59,-63,476,-171,284,10,-120,131,-528,0,111,169,-46,-39,-114,98,66,-196,-7,158,-128,287,-26,204,-286,-232,-271,-118,-225
48398,-168,-54,16,84,-49,500,-165,303,22,-117,146,-553,-3,106,188,-20,-45,-119,109,64,-199,-38,160,-148,302,-36,205,-274,-220,-233,-104,-256
48399,-179,-68,53,69,-78,487,-156,304,-1,-131,112,-565,-7,93,188,-42,-77,-101,111,51,-210,-53,181,-126,282,-34,200,-260,-198,-224,-120,-268
48400,-170,-84,26,25,-74,467,-179,295,2,-161,95,-526,28,105,90,35,-38,-78,124,40,-211,-10,199,-93,283,-54,202,-229,-172,-185,-91,-217
48401,-191,-113,-64,-39,-90,452,-210,228,-12,-154,106,-584,-14,103,110,17,-75,-117,111,39,-229,-26,139,-133,267,-76,166,-295,-208,-236,-115,-254
48402,-211,-121,-41,-5,-91,438,-231,252,-4,-143,69,-571,-8,108,98,-43,-108,-121,95,22,-246,-60,148,-124,281,-89,157,-273,-198,-215,-117,-287
48403,-188,-111,-28,2,-85,402,-268,254,6,-141,66,-546,-25,101,93,-65,-72,-101,108,42,-252,-81,173,-112,298,-75,152,-244,-149,-181,-96,-277
48404,-204,-150,-36,-22,-103,408,-284,197,-28,-165,45,-570,-42,105,100,-88,-84,-119,115,46,-250,-88,160,-118,289,-53,165,-232,-132,-162,-90,-266
48405,-226,-176,5,6,-92,412,-272,228,-23,-160,-100,-565,-22,116,119,-103,-115,-119,129,47,-245,-60,165,-97,287,-17,190,-184,-130,-127,-41,-195
48406,-241,-172,-22,14,-99,426,-256,233,-23,-118,-122,-559,-39,114,182,-80,-128,-140,114,51,-293,-37,168,-116,292,-10,208,-178,-134,-144,-47,-195
48407,-226,-141,-10,-1,-103,427,-232,240,-27,-133,200,-557,-37,108,182,-68,-132,-145,96,36,-251,-59,180,-124,286,-1,210,-166,-141,-165,-53,-199
48408,-176,-104,39,18,-86,432,-190,277,-18,-147,189,-515,-4,121,153,15,-76,-114,108,51,-204,8,203,-108,312,26,259,-176,-126,-149,-26,-170
48409,-203,-79,0,12,-87,452,-219,220,-22,-123,172,-566,-29,102,167,30,-20,-122,95,66,-175,18,215,-106,303,27,288,-166,-89,-132,-9,-143
48410,-214,-64,-51,10,-71,495,-169,199,-20,-136,221,-555,-26,97,134,43,8,-132,103,56,-179,-2,223,-110,313,28,290,-160,-86,-142,15,-115
48411,-193,-86,-5,28,-69,490,-224,225,8,-118,167,-536,0,118,177,26,-16,-103,135,67,-167,-14,251,-84,328,53,314,-123,-51,-78,71,-60
48412,-182,-81,6,48,-68,495,-203,235,-2,-102,160,-531,9,107,199,23,-4,-91,148,65,-151,0,248,-71,325,61,309,-123,-16,-15,86,-69
48413,-200,-98,-31,43,-81,485,-208,162,-3,-114,164,-561,1,105,181,-22,-45,-117,132,64,-178,-16,225,-90,325,44,285,-95,33,3,92,-88
48414,-177,-53,-11,67,-53,498,-234,248,41,-114,141,-524,38,116,185,-80,-57,-99,136,61,-185,-24,229,-100,311,32,278,-86,-21,-62,30,-106
48415,-159,-61,-20,61,-41,511,-205,374,21,-102,134,-507,20,116,171,-69,-10,-89,134,47,-195,-32,248,-101,283,0,263,-73,-99,-167,-28,-136
48416,-172,-70,11,26,-36,517,-176,338,-7,-102,183,-521,-18,116,183,13,12,-90,122,24,-171,-13,249,-96,292,-2,269,-98,-105,-163,-63,-148
48417,-167,-57,38,49,-49,507,-158,301,5,-116,191,-493,15,115,129,64,4,-68,122,24,-193,21,244,-91,290,3,288,-183,-147,-208,-82,-161
48418,-144,-57,50,55,-47,527,-169,346,27,-128,187,-446,48,118,153,46,29,-35,155,57,-186,59,276,-63,293,34,280,-185,-121,-177,-33,-74
48419,-124,-44,65,67,-52,515,-174,356,29,-133,215,-411,69,122,192,28,80,-10,183,84,-130,65,302,-32,324,64,323,-141,-92,-129,11,-47
48420,-110,-27,72,78,-61,497,-123,341,28,-133,193,-419,72,117,200,92,107,-3,188,101,-99,87,319,-5,354,91,386,-86,-45,-91,86,-13
48421,-95,-35,83,90,-63,505,-134,352,40,-133,92,-406,61,111,189,63,121,-9,192,92,-117,84,326,-2,360,104,391,-34,-14,-47,130,41
48422,-108,-32,89,128,-63,511,-155,347,52,-114,81,-402,72,126,213,46,139,2,179,89,-95,94,336,7,376,108,397,-23,-3,-21,128,32
48423,-127,-48,70,123,-90,486,-165,340,50,-120,172,-420,78,123,194,70,113,11,182,94,-110,70,337,10,385,101,403,-6,30,-1,113,-4
48424,-143,-67,74,98,-80,471,-173,368,45,-147,131,-435,94,103,165,46,157,15,198,71,-154,60,354,0,377,103,382,19,39,-28,65,-21
48425,-126,-49,89,108,-52,492,-175,404,71,-114,158,-407,109,132,237,62,181,19,207,94,-92,109,374,37,406,134,409,-10,33,4,105,14
48426,-83,-23,120,131,-40,492,-78,417,91,-116,186,-380,141,137,170,157,183,59,231,130,-26,162,430,93,440,170,445,14,98,68,169,47
48427,-75,-12,145,155,-20,505,-62,447,91,-106,232,-349,154,129,184,155,166,71,254,122,-22,175,412,99,456,173,451,67,102,96,152,63
48428,-80,-26,169,161,-13,527,-77,454,88,-111,245,-297,159,140,251,175,177,118,270,151,-6,191,436,119,489,200,470,119,127,112,186,95
48429,-72,-29,188,145,-29,488,-119,424,62,-143,192,-323,155,124,207,214,221,100,268,152,-12,178,428,98,488,186,476,136,137,112,207,116
48430,-71,-35,209,148,-37,458,-147,459,63,-138,175,-317,182,125,201,186,195,93,253,111,-44,157,425,83,442,154,424,95,84,68,150,99
48431,-86,-25,144,146,-26,476,-89,444,56,-125,203,-350,142,114,216,198,182,67,230,88,-62,143,409,56,433,133,422,38,60,69,136,85
48432,-72,-34,146,145,-23,473,-89,441,72,-139,228,-344,129,87,198,176,175,48,198,68,-67,152,375,23,382,99,385,-31,-10,0,77,9
48433,-64,-32,136,142,-15,480,-61,424,86,-126,226,-345,144,107,200,146,141,60,197,80,-93,121,361,16,359,63,341,-53,-73,-91,21,-59
48434,-82,-33,127,132,-31,483,-110,394,66,-123,151,-396,122,98,227,131,102,54,204,73,-112,135,345,22,363,71,341,-82,-85,-98,12,-68
48435,-103,-39,96,96,-36,477,-167,385,56,-115,213,-380,102,111,239,105,139,43,194,61,-114,128,329,0,360,44,330,-177,-138,-135,-17,-101
48436,-85,-27,124,105,-17,515,-94,390,84,-106,227,-357,129,146,192,113,124,89,225,80,-81,142,361,42,400,75,349,-110,-82,-77,18,-78
48437,-49,-16,128,123,-16,490,-106,415,85,-141,155,-342,147,134,144,150,130,110,243,76,-115,143,386,48,418,79,337,-12,0,-21,47,-38
48438,-56,-12,121,139,-1,485,-105,416,68,-111,201,-354,140,146,208,139,122,78,227,102,-96,105,376,59,400,75,330,-37,-1,-41,33,-71
48439,-44,-28,147,137,3,512,-94,425,91,-95,234,-319,135,161,219,164,106,82,237,109,-57,96,385,67,409,87,356,-43,-14,-40,47,-54
48440,-42,-21,138,151,-1,540,-90,449,71,-97,215,-334,130,156,234,162,111,85,231,112,-78,76,345,52,408,78,350,-93,-43,-53,56,-27
48441,-60,-39,184,165,-17,494,-120,460,68,-113,183,-377,116,141,245,139,93,60,205,86,-110,73,305,29,400,50,347,-160,-88,-49,39,-12
48442,-50,-37,168,145,-20,478,-122,409,59,-132,172,-405,105,128,214,175,42,51,213,83,-110,71,295,1,385,61,331,-158,-74,-38,53,-12
48443,-53,-23,96,126,-21,487,-112,422,76,-125,192,-368,150,120,221,206,63,90,202,93,-75,51,339,24,375,67,332,-126,-24,-12,84,-61
48444,-69,-53,124,135,-29,483,-148,432,78,-115,196,-391,128,102,202,143,50,62,211,83,-113,13,335,20,353,40,309,-94,6,-31,25,-113
48445,-89,-58,82,119,-32,493,-101,406,70,-119,204,-391,78,114,180,134,48,43,187,52,-127,-21,301,0,335,21,258,-118,-11,-83,-15,-162
48446,-97,-63,106,135,-41,470,-123,420,66,-141,141,-392,78,113,176,91,35,42,157,23,-156,-12,282,-23,274,-37,215,-157,-77,-199,-158,-289
48447,-102,-70,125,144,-19,484,-109,420,68,-124,174,-377,78,127,213,126,71,39,176,45,-147,-25,292,-16,284,-18,221,-129,-79,-162,-163,-271
48448,-109,-83,112,124,-23,482,-120,420,84,-121,157,-409,84,132,199,134,55,32,188,62,-162,-10,314,-15,297,-22,224,-137,-62,-125,-103,-206
48449,-147,-110,56,97,-39,480,-140,403,60,-104,155,-432,80,125,215,76,15,33,184,60,-133,-48,326,-29,282,-18,215,-132,-44,-121,-71,-214
48450,-174,-118,27,53,-40,481,-154,358,39,-121,172,-454,55,100,195,65,13,33,161,51,-184,-69,314,-23,289,-41,217,-92,-34,-113,-71,-238
