,Fp1,Fp2,F7,F3,Fz,F4,F8,FC5,FC1,FC2,FC6,T7,C3,Cz,C4,T8,TP9,CP5,CP1,CP2,CP6,TP10,P7,P3,Pz,P4,P8,PO9,O1,Oz,O2,PO10
66858,-111,204,357,-165,-8,102,71,245,668,176,227,144,469,142,266,53,474,260,-142,174,17,471,276,153,276,246,378,-24,154,13,37,114
66859,-147,165,360,-100,-7,141,48,279,655,178,206,35,455,126,242,53,448,203,-167,150,-18,494,175,106,268,215,384,16,135,7,17,76
66860,-119,174,338,-135,-12,123,55,257,640,164,213,-171,449,122,238,-150,405,156,-200,139,-29,458,127,65,243,196,370,-10,127,-13,0,-83
66861,-193,129,295,-155,-50,141,27,255,631,158,190,-134,434,106,232,-167,369,133,-216,131,-30,417,120,42,221,188,345,-70,92,-44,-43,-154
66862,-165,110,246,-227,-27,37,-25,254,633,156,154,35,454,109,247,42,378,168,-206,145,-6,468,156,76,224,205,362,-114,83,-56,-43,4
66863,-47,66,158,-244,-11,41,-49,272,625,154,192,103,453,106,235,3,378,155,-216,130,-33,474,146,60,200,174,281,-188,59,-72,-60,78
66864,-111,107,164,-241,-7,97,-39,255,627,161,185,-50,422,109,207,-105,282,104,-219,117,-60,481,110,39,209,160,268,-195,64,-89,-48,129
66865,-127,161,224,-320,-29,50,-61,237,619,134,170,-204,406,95,186,-137,141,78,-246,100,-87,416,95,1,196,119,248,-175,48,-111,-82,27
66866,-84,141,261,-180,-13,34,1,232,630,140,193,-145,412,115,199,-178,206,100,-233,110,-92,403,136,8,174,115,236,-125,62,-88,-94,-17
66867,-94,63,275,-154,-30,43,12,229,629,135,184,-56,411,110,174,-142,350,131,-224,94,-86,388,187,26,185,135,260,-133,48,-91,-98,-19
66868,-73,138,275,-125,-30,43,17,277,648,133,174,1,456,108,171,-132,448,194,-203,91,-63,361,283,55,200,138,269,-67,79,-82,-61,-16
66869,-121,132,226,-95,-30,65,31,265,650,133,155,3,437,105,166,-184,513,159,-212,95,-77,392,203,25,185,130,291,-89,95,-78,-57,-37
66870,-113,103,149,-84,-23,36,28,336,647,145,148,93,443,114,164,-187,494,164,-187,85,-67,368,164,43,205,129,326,-76,136,-68,-35,-51
66871,-6,161,247,-102,-15,19,30,429,648,118,138,38,459,99,163,-123,450,120,-190,77,-66,329,151,51,206,137,346,-60,125,-69,-39,-38
66872,4,168,309,-173,-37,37,-4,364,655,104,138,-70,436,96,154,-111,421,86,-219,57,-71,414,119,18,174,143,366,-84,117,-71,-38,-44
66873,-21,147,366,-190,-20,66,-30,258,659,121,144,-35,441,106,173,-89,414,138,-201,96,-46,469,145,40,188,160,338,-89,148,-58,0,39
66874,-86,191,418,-182,-12,70,-55,248,644,124,165,0,448,100,195,-70,415,182,-189,103,-43,448,222,68,210,185,303,-23,166,-25,0,24
66875,-76,234,396,-151,-8,81,-26,242,656,133,186,60,480,116,217,-13,471,210,-188,122,0,386,273,91,220,203,316,49,193,-4,18,-27
66876,-38,203,393,-110,-1,73,-9,259,658,126,182,65,478,100,207,-71,528,199,-192,145,-28,400,237,93,232,191,327,55,202,-12,48,100
66877,-5,190,386,-112,9,102,-25,268,656,140,195,30,461,104,217,-60,529,170,-185,136,-38,445,180,79,232,213,344,-2,180,10,51,109
66878,1,152,362,-157,-15,18,-61,217,635,119,178,51,438,90,192,-20,516,172,-188,113,4,467,225,70,236,229,369,-5,171,25,24,110
66879,-56,220,368,-183,-4,-45,-69,263,644,106,165,58,453,110,211,-51,519,201,-164,145,30,522,282,114,268,241,400,130,240,78,78,220
66880,-66,215,390,-215,11,157,0,230,652,153,211,102,468,150,246,-12,562,236,-122,165,62,573,292,146,309,290,435,217,306,128,151,282
66881,-23,49,315,-252,-4,190,-33,187,629,135,178,64,448,126,213,19,570,243,-148,159,47,558,316,142,295,286,416,211,286,107,113,264
66882,-78,66,292,-262,-4,32,-28,225,642,117,143,83,444,129,186,15,584,237,-159,165,19,529,359,145,295,264,418,167,259,103,102,222
66883,-107,91,315,-228,-1,-7,-31,212,649,117,127,80,439,145,192,-26,578,224,-155,164,30,567,345,152,300,268,454,155,277,98,107,199
66884,-45,177,381,-255,6,-7,-60,214,621,121,127,44,434,113,191,-27,563,219,-150,161,38,576,331,158,298,287,480,146,259,90,94,203
66885,-56,177,378,-268,10,135,-46,218,629,146,168,-114,446,125,205,-13,558,217,-148,165,34,588,317,148,309,280,475,83,253,95,130,266
66886,-112,145,286,-221,14,143,-47,274,661,145,173,-176,477,137,191,108,536,216,-140,151,2,692,297,138,316,258,403,63,260,104,125,250
66887,-153,208,219,-64,16,90,31,263,675,166,179,-85,500,146,200,233,500,218,-139,151,12,637,259,137,310,263,449,0,226,98,121,188
66888,-178,192,192,-42,-5,77,18,290,661,143,150,-127,506,128,189,161,426,167,-169,132,25,503,160,94,262,259,478,-8,179,54,84,157
66889,-119,208,236,-71,33,104,67,306,667,158,198,-40,506,131,187,11,458,161,-160,136,4,557,165,76,252,238,478,76,200,53,67,125
66890,-51,246,325,-52,39,145,63,321,670,169,242,28,475,137,213,-87,474,163,-155,132,13,554,187,73,258,242,480,70,198,56,88,57
66891,-71,185,314,-104,9,109,11,237,639,143,205,-90,429,107,198,-142,401,131,-185,121,4,526,165,39,245,220,446,14,171,16,55,42
66892,-166,106,197,-182,-16,176,-8,40,634,155,144,-159,415,110,209,-66,342,136,-181,152,24,554,150,76,249,248,452,-18,149,6,64,154
66893,-242,128,118,-213,-31,85,-35,0,623,163,160,-82,406,124,211,-51,334,137,-184,174,19,518,151,85,250,246,414,-46,138,8,16,66
66894,-306,96,125,-184,-25,70,-43,203,629,140,156,26,424,106,210,-41,344,106,-202,122,-31,475,116,47,236,201,342,-98,100,-40,-29,-4
66895,-206,156,215,-158,-14,58,-25,268,650,148,168,0,449,116,211,-8,290,144,-175,130,-23,508,150,66,248,203,410,-96,120,-25,-4,-18
66896,59,212,125,-244,-10,26,-27,289,667,154,159,-56,488,155,202,136,290,220,-129,147,5,522,234,121,269,222,411,-72,147,-5,35,12
66897,59,206,53,-147,-24,21,-31,271,672,146,154,-184,511,162,204,-21,294,250,-115,144,-27,419,299,144,272,230,359,-77,141,8,13,80
66898,-142,90,48,-60,-5,75,-30,285,675,131,148,-129,515,152,189,-232,331,249,-101,156,-66,400,339,130,259,210,290,-52,142,-14,-39,57
66899,-101,75,50,-46,6,97,5,288,669,147,184,23,520,171,198,-207,378,240,-97,170,-56,426,326,128,287,227,298,-35,141,-11,1,106
66900,-43,133,125,-68,18,102,47,313,701,182,192,177,521,187,213,-108,469,245,-83,187,-31,416,272,167,305,251,325,1,165,15,37,176
66901,-2,219,249,-44,1,46,-2,337,677,137,149,109,511,167,205,-140,407,198,-90,174,-43,417,219,150,305,246,320,-65,174,22,17,131
66902,107,268,332,-121,-16,10,-4,334,655,120,122,-124,532,177,189,-126,434,195,-94,170,-48,392,223,140,329,236,303,-82,169,15,9,94
66903,65,267,383,-144,-12,25,-21,346,670,128,130,-238,548,182,183,-119,481,234,-89,182,-29,423,192,153,329,224,296,49,168,30,8,116
66904,0,282,368,-218,-12,72,-1,308,657,141,145,-240,529,190,192,-107,460,236,-98,176,-47,437,128,151,317,227,303,46,177,36,-5,157
66905,-39,199,365,-349,-14,122,4,236,637,163,166,-202,486,172,191,-57,500,190,-117,157,-56,430,105,134,307,222,276,-13,179,23,5,140
66906,-123,205,363,-236,20,15,-16,202,649,161,167,-78,504,180,206,-16,555,203,-106,162,-40,454,165,142,325,209,285,-52,196,20,-7,136
66907,99,257,390,-216,26,93,26,254,670,183,217,33,558,222,239,10,500,274,-87,203,-5,475,292,190,350,250,329,-7,213,52,37,78
66908,127,254,384,-209,-3,174,40,252,666,181,201,84,546,202,241,84,470,272,-89,205,10,474,331,190,347,246,347,73,230,31,46,32
66909,7,169,332,-226,-33,136,51,193,636,174,185,166,494,164,230,26,510,250,-112,185,-7,516,303,182,321,247,356,83,211,30,43,108
66910,-68,110,248,-189,-11,152,74,234,667,192,207,229,528,178,247,-25,549,276,-99,202,14,557,285,183,326,248,397,92,217,80,68,199
66911,-145,147,265,-202,-18,156,48,227,647,181,231,153,506,145,260,-30,483,224,-120,195,28,582,220,169,303,239,388,19,180,51,59,240
66912,-128,172,336,-175,-17,225,41,236,638,181,268,62,488,141,266,-28,491,199,-167,197,44,581,207,127,291,253,386,-10,173,44,74,221
66913,-41,243,377,-148,13,147,70,268,646,198,290,54,506,139,260,-90,509,208,-169,198,42,647,190,119,290,263,442,46,185,54,77,156
66914,75,273,403,-196,7,63,85,302,658,208,282,62,500,132,264,-45,527,240,-140,205,55,615,201,134,293,282,473,102,201,74,89,123
66915,94,236,358,-271,-1,133,73,304,651,181,262,63,493,122,261,-28,522,218,-158,189,63,602,230,142,280,272,484,102,182,59,111,189
66916,-63,219,292,-225,5,121,87,327,661,187,241,95,491,163,262,61,512,250,-140,193,102,633,278,170,291,255,487,51,205,80,100,284
66917,-178,252,248,-157,-8,91,116,336,678,172,208,128,482,142,225,85,498,267,-139,178,53,575,298,162,281,230,403,-2,200,47,67,205
66918,-39,264,223,-36,0,77,72,363,688,160,212,115,513,148,214,140,445,252,-132,156,-8,607,300,171,277,204,369,3,186,36,54,167
66919,86,299,241,-94,-3,90,40,365,696,144,234,109,508,165,222,89,352,261,-128,155,14,641,329,162,299,216,394,79,240,94,73,217
66920,182,294,322,-224,4,123,56,332,664,159,256,-75,484,158,217,39,392,247,-129,162,15,616,325,157,299,218,389,111,246,90,78,159
66921,142,248,307,-155,-8,138,41,342,652,157,214,-288,478,136,195,30,521,201,-141,128,-20,599,285,157,281,177,339,98,239,48,45,28
66922,37,202,317,-151,-2,103,-6,364,640,124,81,-306,486,116,150,29,444,220,-159,106,-46,533,331,143,276,157,339,52,202,17,25,64
66923,-12,165,251,-261,-11,94,-21,326,626,147,116,-65,469,116,150,57,426,220,-184,110,-41,509,319,138,266,163,368,39,189,11,30,76
66924,47,225,199,-312,-5,82,27,263,617,176,203,72,456,123,190,60,474,195,-178,127,-31,524,224,135,266,178,363,104,172,28,20,27
66925,29,279,266,-252,-12,87,66,280,630,176,236,-52,466,137,214,71,458,163,-175,147,26,409,183,123,242,204,418,114,193,42,41,124
66926,48,311,368,-209,-4,115,124,261,649,196,263,-24,476,145,240,0,468,179,-164,169,36,555,153,123,269,224,457,69,225,60,79,179
66927,-1,280,424,-262,2,153,107,281,644,195,281,24,489,148,264,26,446,207,-157,182,42,633,208,157,300,243,487,-1,220,74,98,140
66928,-63,197,342,-338,8,198,67,265,634,196,314,-40,463,138,277,-1,452,167,-178,175,66,573,246,130,264,249,482,-127,180,44,77,145
66929,-144,139,230,-199,-2,199,26,238,653,191,303,-48,428,123,244,74,461,143,-193,161,47,532,247,119,242,222,448,-19,175,27,57,48
66930,-156,171,237,-162,9,261,63,184,653,199,290,35,435,129,260,190,451,135,-209,163,52,504,232,111,244,229,473,14,182,28,64,-75
66931,-149,181,188,-198,26,154,126,-145,619,197,274,100,393,113,259,-17,461,154,-222,164,53,478,259,113,238,251,446,-57,152,-25,52,13
66932,-281,168,150,-127,27,140,132,49,632,190,274,-59,396,102,241,-131,404,113,-241,125,0,441,251,69,201,189,347,-91,124,-59,-17,145
66933,-370,224,177,-118,29,113,137,201,660,194,265,-82,415,122,247,32,429,118,-229,130,-11,430,240,57,211,167,270,-66,150,-24,-1,236
66934,-230,208,113,-136,15,139,40,190,661,180,233,-30,419,117,229,69,399,136,-217,146,-26,431,209,58,236,176,246,-54,163,-8,25,233
66935,-118,120,116,-200,-38,193,-77,191,630,152,194,-54,418,92,197,-63,330,102,-243,124,-77,406,116,35,219,171,230,-102,145,-32,-12,121
66936,-127,88,183,-134,-16,96,-60,181,663,174,197,-12,472,130,193,-65,400,164,-193,147,-48,429,181,76,250,200,241,22,186,-13,10,55
66937,-108,129,215,-162,3,58,-41,212,675,162,189,-12,493,138,185,-143,370,176,-175,143,-48,369,189,89,254,191,244,69,165,0,3,-26
66938,-157,136,158,-180,-12,48,-20,251,659,137,160,21,499,161,177,-194,395,181,-182,150,-62,345,174,86,266,201,297,108,188,21,7,-72
66939,-144,221,169,-183,-18,2,-44,284,672,132,120,-17,501,165,168,-140,404,180,-163,156,-53,378,169,93,292,220,325,94,204,24,42,-115
66940,-2,220,220,-273,-31,-14,-55,269,669,121,100,-54,488,133,165,-102,425,185,-182,165,-40,434,176,109,288,215,329,45,191,12,43,40
66941,47,247,298,-291,-51,-19,2,258,644,129,111,-84,476,126,183,-164,398,185,-187,160,-33,406,160,89,285,206,327,11,181,17,40,136
66942,17,254,365,-278,-43,16,68,278,644,139,173,-67,494,154,216,-113,414,177,-168,180,36,506,160,107,316,226,347,-1,190,43,85,177
66943,22,152,393,-276,-44,51,93,259,653,163,209,-5,499,173,232,-92,307,204,-155,188,50,504,202,132,316,252,377,-2,197,40,116,228
66944,4,58,363,-268,-53,44,51,240,644,166,204,15,490,167,203,-87,298,232,-171,164,-2,480,246,117,293,225,335,-46,194,34,76,224
66945,25,96,291,-214,-56,29,39,262,634,138,202,-96,480,164,220,28,407,169,-182,157,-3,508,223,102,271,190,291,-65,165,32,66,180
66946,18,193,219,-149,-44,43,70,320,666,154,236,-48,498,175,257,75,406,199,-147,180,35,567,249,122,299,235,357,-24,178,61,93,204
66947,18,215,204,-197,-36,66,79,352,676,188,299,76,494,200,269,62,432,239,-142,200,64,604,256,116,315,251,402,22,207,54,95,123
66948,-23,177,264,-232,-56,13,30,311,630,157,272,76,453,175,258,27,462,167,-179,173,52,579,161,72,297,235,416,43,187,65,89,75
66949,-119,169,266,-261,-52,35,9,258,630,156,239,22,419,163,268,103,392,150,-207,185,44,549,155,57,268,244,420,16,169,20,77,107
66950,-81,199,193,-286,-35,141,-1,217,636,180,250,-225,426,184,279,230,383,136,-211,198,60,542,164,40,263,256,424,5,163,-3,87,174
66951,-41,218,112,-273,-41,140,16,207,632,190,245,-323,421,156,267,147,318,126,-202,176,29,543,162,50,268,249,399,-66,140,-4,69,201
66952,-332,98,127,-131,-36,129,9,140,626,176,207,-141,407,126,244,89,295,81,-234,150,27,531,92,-13,240,202,375,-62,112,-37,36,118
66953,-441,31,183,-140,-33,73,10,171,630,175,155,-70,413,137,238,100,383,108,-232,170,61,601,134,6,236,215,394,-42,139,-16,43,119
66954,-217,149,218,-124,-11,100,71,195,640,172,180,-98,421,144,231,15,403,133,-217,171,63,548,212,11,264,226,436,-135,123,-12,63,126
66955,-110,267,194,-166,-10,181,75,275,651,172,213,-192,453,144,222,32,403,143,-198,175,62,571,245,39,262,246,486,-107,138,4,87,221
66956,-12,285,236,-215,-8,114,58,321,654,181,256,-381,455,159,230,109,422,171,-179,186,49,651,216,52,272,258,481,-63,162,28,87,288
66957,5,234,273,-217,-15,135,69,285,659,185,248,-246,455,163,236,86,483,165,-188,198,48,674,209,84,289,268,481,-33,204,42,115,269
66958,-19,115,276,-224,-34,284,78,299,643,196,252,-41,444,152,227,169,450,174,-194,168,48,669,281,95,272,256,472,-68,203,27,111,109
66959,-40,229,317,-234,-26,151,129,341,640,196,278,43,446,142,254,69,450,188,-209,162,62,680,243,88,266,251,494,-4,195,26,101,89
66960,-127,215,228,-223,-22,107,131,192,638,198,290,156,462,138,284,-79,491,179,-203,185,82,730,168,72,272,263,529,52,215,34,99,81
66961,-171,228,160,-313,-26,78,118,125,626,189,332,150,436,145,296,-14,472,159,-206,195,100,705,175,78,277,267,509,-15,216,49,112,184
66962,-250,267,249,-389,-28,86,166,137,615,193,328,181,411,141,296,161,488,169,-216,209,124,718,237,86,276,285,519,30,200,49,119,267
66963,-54,251,352,-329,-18,159,181,201,611,204,325,184,417,151,294,155,502,211,-194,197,117,722,304,88,272,269,525,61,196,38,89,227
66964,43,304,371,-327,-26,25,192,207,628,166,305,141,434,163,278,163,453,211,-195,203,115,712,311,98,286,289,525,79,220,53,94,267
66965,8,336,387,-290,-52,86,237,217,645,166,314,80,439,197,271,187,505,201,-176,206,113,687,303,124,297,282,486,102,208,48,94,311
66966,-3,320,420,-270,-43,100,232,246,646,187,332,101,444,214,280,149,555,223,-157,214,100,676,321,147,300,276,453,131,228,58,122,259
66967,15,299,380,-227,-24,73,230,273,660,193,323,26,443,230,303,117,529,193,-165,234,103,685,255,138,303,281,470,161,225,54,113,295
66968,42,295,333,-216,-31,54,192,238,636,184,286,-113,421,207,277,108,534,125,-193,214,87,655,121,83,281,256,470,211,188,22,75,254
66969,22,241,301,-271,-27,114,157,200,625,193,275,-135,412,193,275,95,474,98,-200,200,83,636,86,60,267,238,457,145,166,2,62,162
66970,-59,182,253,-265,-40,127,107,231,635,185,253,-125,433,188,291,55,395,90,-197,198,83,674,106,59,268,248,477,102,159,-9,65,185
66971,-160,176,225,-257,-43,82,34,236,613,171,207,-150,408,165,254,16,353,58,-218,195,44,658,117,25,245,229,433,42,126,-24,21,173
66972,-130,193,239,-284,-77,84,-30,219,625,170,226,-133,388,198,249,11,371,73,-214,198,47,632,98,26,252,232,406,-3,125,-5,33,116
66973,-51,194,223,-242,-56,125,16,243,646,186,245,-24,439,213,280,-29,415,141,-168,229,96,642,163,81,295,280,456,31,148,6,76,190
66974,-51,165,229,-210,-43,79,42,275,671,182,219,37,479,218,273,0,411,182,-152,234,111,611,234,92,290,303,482,42,163,21,84,156
66975,-68,122,207,-209,-52,69,77,234,640,159,203,41,453,177,237,-31,415,161,-191,210,49,480,216,60,285,268,422,2,153,8,77,118
66976,-45,63,240,-166,-43,129,108,206,658,178,215,16,448,181,259,10,446,143,-166,228,24,573,147,68,304,267,378,91,169,34,105,223
66977,22,159,121,-184,-45,112,100,57,672,179,220,126,460,188,268,52,525,188,-137,226,35,545,193,96,312,293,387,153,201,52,95,263
66978,4,274,108,-270,-71,57,93,238,652,179,206,113,476,182,240,30,542,192,-155,220,26,575,201,76,280,250,367,153,204,45,81,272
66979,-90,242,221,-241,-71,45,42,259,647,161,210,257,474,161,238,5,569,169,-168,192,7,618,222,72,271,227,353,140,192,28,55,221
66980,-108,240,321,-273,-54,88,67,183,647,178,231,293,481,171,243,34,623,179,-150,202,28,605,247,100,290,227,330,103,196,25,34,176
66981,-124,209,415,-295,-58,45,48,242,639,149,180,71,467,141,210,-7,516,159,-178,155,-16,561,208,59,248,177,278,37,144,-15,-5,104
66982,-36,214,362,-231,-60,71,97,251,640,149,197,-46,465,119,221,-9,474,160,-190,135,-40,527,191,59,220,165,260,-25,71,-50,-64,52
66983,48,253,380,-165,-40,81,149,328,660,157,240,-31,512,135,236,63,461,171,-184,139,-24,558,171,52,228,152,229,-78,28,-89,-102,-5
66984,18,224,376,-224,-48,68,152,295,650,152,251,2,500,149,242,101,403,157,-178,129,-2,565,162,37,240,177,261,-107,36,-103,-109,-31
66985,-17,205,378,-304,-62,77,143,262,629,168,264,17,485,156,253,120,404,138,-208,158,11,395,179,51,239,191,309,-147,23,-84,-68,-42
66986,-1,196,412,-336,-60,60,109,260,622,173,226,49,474,144,236,27,413,165,-184,164,-25,426,236,85,249,176,285,-132,24,-64,-57,-8
66987,-32,201,405,-333,-33,59,96,278,642,182,227,40,476,192,239,-3,390,158,-183,175,-31,512,173,98,255,198,320,-36,62,-49,-44,40
66988,-56,193,364,-334,-20,77,121,253,650,190,243,-7,469,190,235,0,384,122,-198,157,-31,475,74,52,245,176,317,-87,47,-84,-48,-15
66989,-44,190,341,-315,-43,90,134,234,644,176,225,-79,455,196,231,-41,381,129,-206,148,-44,446,102,52,224,161,275,-250,31,-113,-94,-33
66990,-34,240,338,-298,-34,80,113,240,644,184,212,-116,460,202,231,-41,329,136,-193,136,-68,414,128,50,199,148,233,-188,26,-121,-127,-35
66991,-72,216,308,-286,-46,68,122,259,650,197,200,-257,471,188,226,-29,337,142,-181,144,-65,446,123,59,218,170,247,-89,40,-103,-106,3
66992,-88,210,299,-269,-39,57,81,252,669,171,183,-256,458,187,219,-28,309,134,-182,155,-56,484,96,57,238,166,246,-64,60,-91,-83,-23
66993,-65,178,317,-247,-27,37,81,290,678,172,138,-108,470,197,235,-33,334,146,-175,173,-41,485,113,41,244,185,290,-81,75,-71,-62,-179
66994,-74,182,307,-239,-39,26,86,293,653,170,149,-26,448,162,214,-83,333,130,-212,149,-59,504,120,50,247,188,334,-133,50,-100,-93,-247
66995,-105,211,276,-234,-53,70,72,269,649,167,198,45,441,149,227,3,269,122,-224,158,-33,503,74,48,239,207,356,-150,41,-91,-77,-109
66996,-94,221,270,-217,-48,76,87,262,638,200,252,54,449,159,256,56,264,107,-214,183,-13,540,72,79,253,216,359,-124,67,-67,-33,31
66997,-64,208,300,-201,-41,66,80,268,648,196,253,35,444,173,257,9,315,114,-194,182,-21,537,118,100,265,231,330,-33,101,-32,-5,146
66998,-27,263,290,-200,-34,123,119,269,649,197,250,-149,445,164,253,29,373,94,-197,179,-1,499,113,62,262,205,325,-33,95,-44,-2,181
66999,-19,320,262,-209,-9,143,157,246,642,203,274,-160,435,152,249,11,437,93,-215,178,-3,497,112,67,265,213,309,-44,106,-27,-5,167
67000,-19,290,239,-232,-37,131,110,170,653,197,274,-15,454,159,234,-108,327,116,-192,172,-25,540,118,82,264,214,340,-73,117,-17,-8,64
67001,-34,287,228,-248,-45,124,71,178,625,179,252,-14,425,129,213,-133,283,93,-230,130,-32,513,160,56,221,193,360,-147,89,-53,-27,-88
67002,1,312,245,-225,-10,141,92,199,630,183,265,-95,436,123,218,-144,397,117,-242,136,-27,525,224,92,237,201,403,-132,123,-13,-4,-112
67003,-15,356,247,-219,1,183,163,176,633,171,284,-1,458,125,230,-35,410,137,-211,148,47,583,248,123,271,235,461,-116,152,15,54,70
67004,12,408,241,-198,21,192,181,220,650,176,254,107,472,138,213,161,420,177,-188,159,67,564,256,160,274,250,459,-3,192,37,70,208
67005,68,429,265,-193,24,193,178,308,663,176,246,67,473,120,211,54,393,158,-191,107,-25,547,257,138,271,228,373,22,216,57,66,191
67006,79,463,327,-197,21,179,207,279,645,182,262,30,462,125,221,-62,463,154,-183,115,-33,580,295,149,283,212,362,-23,206,75,112,164
67007,129,461,378,-171,21,186,173,306,666,209,284,61,473,142,228,-15,477,152,-161,143,0,570,273,169,287,216,403,36,218,87,138,230
