,Fp1,Fp2,F7,F3,Fz,F4,F8,FC5,FC1,FC2,FC6,T7,C3,Cz,C4,T8,TP9,CP5,CP1,CP2,CP6,TP10,P7,P3,Pz,P4,P8,PO9,O1,Oz,O2,PO10
177145,-534,252,728,248,9,451,197,442,99,72,331,1128,103,40,258,152,103,295,-115,107,158,768,128,108,355,797,260,-131,45,-146,-163,-228
177146,-543,209,681,233,3,461,185,481,102,64,240,1197,99,65,264,250,70,327,-86,148,130,803,124,120,367,812,286,-54,102,-69,-85,-245
177147,-639,176,649,228,11,420,170,481,97,61,285,1214,126,75,285,265,-66,324,-74,150,148,711,167,159,380,804,249,-20,140,2,11,-143
177148,-733,182,618,208,-5,390,193,499,107,54,344,1143,125,76,308,291,-92,348,-89,134,188,651,185,179,390,815,258,-7,137,1,17,-74
177149,-763,161,594,234,6,403,173,484,87,78,380,989,123,74,311,232,59,453,-76,147,196,642,113,175,395,871,346,-25,148,79,133,76
177150,-719,145,663,278,22,419,200,469,100,80,379,1040,146,93,312,260,57,447,-64,169,211,666,136,203,416,896,382,10,247,179,223,222
177151,-600,148,645,279,19,439,238,431,78,79,343,1227,99,90,306,240,173,221,-99,139,164,682,233,178,390,784,181,264,264,63,-51,-270
177152,-521,196,624,295,22,455,190,398,89,86,384,1265,59,72,311,160,140,199,-103,121,180,665,80,104,358,755,192,463,173,-19,-101,-423
177153,-507,199,636,360,39,515,101,394,75,94,402,1174,71,63,325,156,-146,197,-68,97,206,685,-10,88,350,750,248,55,81,-4,-44,-280
177154,-592,139,608,336,23,567,120,440,69,90,437,1149,86,62,303,191,-185,245,-87,105,155,631,0,72,315,721,133,-229,-47,-140,-249,-545
177155,-630,163,607,312,28,507,167,453,71,79,406,1010,115,72,312,248,66,315,-78,111,177,685,67,130,341,784,191,-55,36,-75,-230,-592
177156,-547,258,673,288,60,545,247,471,91,104,447,994,147,86,341,282,75,292,-48,130,189,900,88,125,390,860,327,-137,81,39,-1,-211
177157,-508,315,754,162,29,553,225,413,69,95,419,1248,80,81,321,248,10,274,-60,115,147,943,130,135,396,837,315,-123,110,87,106,-41
177158,-442,293,782,135,19,547,234,409,67,83,394,1265,108,80,312,183,138,295,-66,125,158,971,185,187,414,822,322,71,200,164,184,108
177159,-326,248,799,158,42,561,285,419,60,92,422,1133,115,83,304,65,285,291,-71,106,159,939,96,119,354,772,280,50,141,21,-50,-156
177160,-258,305,828,187,52,497,330,459,86,107,430,1098,140,103,341,81,248,311,-66,113,232,902,28,122,369,803,361,90,124,40,3,-251
177161,-325,299,833,212,51,393,333,485,71,99,423,1162,109,88,332,177,254,260,-105,115,231,780,26,88,366,792,397,150,121,54,68,-203
177162,-465,251,753,241,18,446,192,464,52,86,417,1078,70,61,319,195,95,222,-129,97,180,896,-49,50,337,763,350,-104,43,-13,13,-144
177163,-476,302,750,278,38,494,204,520,94,105,437,1103,110,106,348,194,31,259,-113,130,189,983,2,84,342,797,315,-112,-24,-86,-43,-102
177164,-472,321,721,271,55,500,358,509,100,115,470,1048,116,105,369,358,81,272,-92,151,221,867,46,91,352,814,302,-110,-13,-69,-12,-31
177165,-500,303,713,253,34,425,345,449,57,79,403,1061,81,77,309,336,78,265,-95,121,201,833,76,105,332,788,294,-64,1,-124,-115,-230
177166,-434,297,769,240,19,401,349,459,84,90,394,1174,129,109,357,299,70,307,-46,156,240,914,177,174,372,844,383,164,150,32,-41,-255
177167,-384,266,802,197,28,443,358,455,96,94,389,1266,133,104,382,339,206,355,-21,151,265,909,315,242,413,873,391,322,264,160,97,-73
177168,-406,285,802,193,39,447,365,478,97,97,429,1264,135,107,370,331,85,334,-42,156,246,842,256,213,422,886,303,147,238,155,208,18
177169,-354,292,835,196,62,544,365,504,114,119,471,1251,147,115,355,308,36,342,-53,157,248,806,237,203,418,876,251,70,188,85,63,-157
177170,-357,318,839,196,61,519,380,541,129,121,357,1234,159,116,330,299,179,388,-32,144,231,721,297,202,398,847,278,265,141,-59,-171,-348
177171,-412,222,751,210,27,395,343,522,123,105,355,1139,151,111,306,335,174,339,-3,151,279,785,225,206,416,909,392,227,233,61,-26,-320
177172,-458,111,663,176,-17,427,274,523,100,78,344,1031,141,88,260,267,55,305,-22,141,264,820,140,185,394,913,340,46,208,72,22,-258
177173,-503,103,611,201,-8,488,277,531,118,67,378,1033,146,91,240,160,28,305,-49,124,207,811,115,162,378,816,258,-185,82,-10,-33,-274
177174,-565,96,593,262,19,499,301,600,124,72,431,1079,162,100,219,135,62,306,-59,110,143,868,16,154,347,747,197,-370,-25,-110,-141,-330
177175,-516,100,557,327,30,524,339,621,127,75,475,1257,151,80,260,130,145,281,-63,139,158,938,4,126,356,816,276,-330,-19,-66,-10,-133
177176,-468,168,635,349,41,523,367,615,132,79,493,1263,154,84,291,207,144,226,-39,143,165,899,96,119,375,847,303,-209,36,-20,71,-114
177177,-522,212,691,334,36,510,349,593,142,85,462,1046,210,108,333,205,60,330,-8,152,195,933,137,163,412,854,296,-95,142,68,126,-42
177178,-484,271,749,285,64,501,374,555,136,93,433,914,223,106,340,143,33,371,-15,165,198,906,186,190,424,850,301,-16,198,101,121,-47
177179,-417,295,836,234,51,429,401,507,121,76,426,911,203,96,287,243,187,374,-31,154,157,823,295,248,442,840,269,30,262,126,100,-131
177180,-347,274,901,221,70,442,380,481,131,82,440,1068,188,117,294,332,190,378,-19,184,184,860,333,288,470,862,327,151,358,193,189,-59
177181,-357,239,878,224,54,496,420,463,112,80,442,1219,158,105,304,288,-72,333,-14,168,196,863,231,233,437,866,318,78,275,172,170,-54
177182,-397,261,803,222,31,475,412,459,100,67,483,1151,152,90,308,306,109,308,-36,171,238,822,147,161,429,885,356,-114,127,92,138,-88
177183,-451,333,770,264,53,538,347,465,120,100,487,1071,141,110,318,288,254,301,-8,157,267,918,57,161,429,893,526,68,178,124,199,-8
177184,-440,317,750,281,41,575,334,451,103,86,425,1047,123,97,303,248,147,254,-27,127,231,967,26,135,428,854,512,125,225,175,192,-14
177185,-480,197,781,273,20,638,238,471,111,92,435,1050,153,99,310,237,72,367,-16,128,220,968,117,141,423,859,439,166,235,160,200,-48
177186,-545,144,780,271,31,720,182,481,119,111,456,1347,132,105,331,274,51,420,22,158,206,888,248,189,446,862,367,310,300,204,191,-8
177187,-546,131,784,266,69,672,283,479,111,101,411,1357,104,113,312,273,183,232,6,135,186,939,288,200,446,862,384,276,315,243,210,26
177188,-526,120,766,249,53,588,323,530,127,89,403,1161,147,97,284,219,219,257,-2,115,161,895,290,182,418,848,352,189,278,186,150,-46
177189,-426,72,828,273,72,481,244,540,119,68,406,1145,131,102,306,187,90,298,-21,117,158,964,227,165,402,817,426,163,245,124,81,-53
177190,-315,55,874,269,96,390,299,565,122,68,361,1199,158,105,302,229,-29,374,-1,120,185,946,240,182,430,829,464,208,269,155,137,-8
177191,-280,134,827,252,90,437,334,610,137,66,368,1002,178,98,266,218,132,374,10,132,176,898,206,162,418,833,351,120,222,130,145,-24
177192,-272,206,791,273,72,430,382,589,115,38,403,938,162,73,245,192,90,298,-25,127,164,827,78,130,394,814,328,20,137,87,80,-128
177193,-271,244,826,296,77,478,456,557,106,65,461,1096,173,101,296,287,-125,275,-21,132,193,750,90,132,395,826,364,-28,114,50,22,-231
177194,-258,330,816,308,87,502,501,524,111,73,447,1153,182,95,293,323,138,283,-17,123,203,756,180,178,390,836,330,46,137,60,32,-177
177195,-355,368,845,347,88,498,467,579,115,58,364,1157,173,71,245,151,304,300,-20,78,130,876,224,190,386,784,196,137,124,-5,-74,-116
177196,-425,360,881,329,75,530,461,586,129,74,403,1134,185,80,275,67,304,293,-11,123,153,895,265,231,415,835,263,191,216,93,39,28
177197,-370,342,892,325,72,517,427,608,159,85,443,1178,207,97,297,118,295,348,0,148,159,901,347,281,440,863,361,181,272,169,164,151
177198,-315,339,857,318,97,464,463,634,149,57,456,1150,211,102,268,221,266,352,3,147,160,902,345,277,444,880,393,153,272,180,230,350
177199,-291,288,843,310,84,460,466,608,153,61,451,1129,196,107,269,261,304,312,10,137,179,913,351,237,451,899,402,204,294,226,251,260
177200,-249,319,853,322,92,486,448,598,146,66,482,1182,168,95,270,295,303,298,3,129,195,922,385,241,440,850,338,189,258,139,54,-164
177201,-238,338,871,291,78,414,424,624,130,45,439,1213,158,79,253,317,300,314,-1,149,208,975,375,257,447,857,306,198,285,118,45,-225
177202,-233,372,924,293,101,358,425,619,141,44,444,1219,142,98,251,264,212,324,39,172,208,979,334,287,466,917,397,291,372,250,198,25
177203,-239,387,917,303,99,383,385,630,136,69,431,1204,195,86,235,197,114,357,34,166,184,880,312,290,434,872,343,489,434,249,157,-247
177204,-272,279,843,290,90,404,332,650,154,67,431,1107,185,76,257,146,154,357,16,152,166,864,268,253,439,840,313,345,393,233,130,-247
177205,-308,200,816,277,77,418,346,665,144,76,450,1030,145,84,278,175,223,323,5,158,178,929,233,241,433,865,340,173,317,172,117,-182
177206,-308,223,850,296,91,417,341,611,134,88,453,990,105,90,278,193,198,317,14,170,234,1043,293,248,447,892,483,165,310,178,187,-103
177207,-322,141,859,282,72,467,297,527,122,82,456,1147,73,91,300,186,175,355,5,211,251,1068,289,256,459,922,587,250,373,345,402,151
177208,-409,144,827,363,88,497,288,501,127,106,445,1269,73,92,312,228,160,340,6,212,239,1046,209,243,479,962,559,212,369,351,423,239
177209,-412,299,775,414,105,527,365,533,144,100,445,1274,90,84,282,259,32,253,-10,156,204,984,186,183,425,905,434,7,207,82,81,-76
177210,-416,332,777,443,128,491,429,637,165,87,417,1288,140,69,240,248,-151,275,-3,119,169,884,373,200,406,833,305,-97,183,55,-13,-199
177211,-418,297,821,375,97,536,436,654,155,98,431,1391,180,83,242,92,-163,397,5,109,149,835,424,192,394,802,231,-75,152,34,26,-138
177212,-450,260,862,276,79,526,407,526,123,92,452,1262,112,69,261,203,-10,307,-32,120,199,841,185,119,401,854,313,151,182,82,127,70
177213,-432,227,797,283,78,536,412,525,104,89,455,1085,48,61,247,288,35,205,-82,121,190,866,9,46,372,863,322,50,98,29,89,23
177214,-318,288,870,262,101,573,398,512,95,92,420,994,29,33,202,183,158,164,-131,35,54,872,-32,-14,283,657,14,-111,-55,-197,-268,-641
177215,-297,327,923,208,114,657,368,496,84,92,361,966,46,10,219,215,46,115,-128,19,53,898,-70,-32,278,662,21,-208,-55,-156,-183,-467
177216,-288,327,905,265,96,674,325,536,91,104,403,1004,69,25,248,252,-130,145,-137,57,50,872,-62,-7,292,699,87,-221,-43,-101,-106,-268
177217,-309,312,918,357,99,670,282,580,119,105,434,1072,93,45,235,262,20,175,-128,74,39,830,-18,48,316,691,135,-64,46,-46,-91,-280
177218,-321,290,926,370,99,599,315,563,126,95,404,1059,101,51,196,228,135,150,-103,44,45,886,18,50,319,735,168,113,147,10,-22,-211
177219,-333,252,891,334,120,580,281,624,141,112,343,1133,115,71,189,170,230,213,-90,77,91,918,154,121,338,764,222,494,239,102,68,-156
177220,-396,140,805,309,77,540,235,652,124,104,345,1138,123,70,220,167,260,226,-99,63,124,780,165,153,357,786,306,470,307,167,161,-94
177221,-402,136,767,298,94,486,343,612,124,97,373,1060,107,47,250,200,67,279,-131,56,167,686,-61,59,329,798,359,-19,177,70,79,-148
177222,-367,230,807,328,121,525,381,539,119,91,387,1103,61,38,220,259,30,164,-171,54,134,691,-37,6,309,768,319,-170,52,-38,-28,-210
177223,-331,281,806,273,119,514,387,513,111,90,391,1028,74,43,213,244,29,93,-113,52,137,739,130,75,339,770,336,-29,172,91,76,-64
177224,-307,272,820,252,96,489,428,471,88,69,397,1070,71,21,171,118,1,147,-132,9,110,881,179,75,313,737,307,-77,146,27,15,-121
177225,-274,275,852,249,107,441,437,470,97,84,400,1199,91,20,163,71,-3,176,-122,7,77,932,192,73,290,693,271,-255,51,-82,-59,-219
177226,-252,308,914,276,117,467,467,516,119,77,386,1205,132,26,165,67,-43,218,-94,13,23,924,147,47,275,627,107,-231,9,-228,-241,-416
177227,-275,279,931,289,120,459,466,543,117,60,436,1022,131,26,184,41,-58,190,-62,31,37,945,152,90,312,684,194,-56,140,-43,-39,-202
177228,-348,268,918,289,110,463,455,513,101,64,446,873,133,35,181,162,85,183,-55,53,99,874,226,120,331,736,282,108,230,68,86,-114
177229,-438,275,924,333,112,464,451,507,123,85,424,906,179,53,198,258,133,212,-28,80,125,858,347,141,374,750,289,316,262,96,91,-134
177230,-413,260,892,353,105,478,414,523,129,78,404,995,161,64,212,269,-59,182,-50,82,123,874,290,131,368,767,291,11,225,84,84,-174
177231,-392,216,868,313,70,510,387,499,101,59,357,1146,96,28,197,234,-197,133,-99,56,105,877,135,56,302,728,245,-313,100,-18,34,-154
177232,-398,77,817,285,64,498,351,497,86,48,345,1204,84,31,184,206,-126,133,-133,53,96,868,57,43,306,714,222,-106,60,-37,46,-118
177233,-348,29,797,297,90,582,353,522,98,76,366,1081,99,30,210,208,0,82,-137,60,84,847,-59,7,269,703,249,-32,28,-83,-34,-170
177234,-349,64,826,286,112,567,410,507,100,79,386,1029,72,41,198,147,130,85,-114,45,87,855,-47,-28,271,699,285,-76,16,-96,-70,-231
177235,-442,124,811,231,103,547,366,369,81,68,359,1236,0,46,191,77,123,174,-106,44,89,829,46,-21,285,736,265,11,35,-67,-50,-264
177236,-487,228,870,266,97,558,273,367,106,71,322,1298,44,42,211,77,-84,240,-93,40,87,690,120,17,310,722,269,47,61,-25,-42,-252
177237,-469,240,914,296,92,628,302,432,117,106,372,1198,78,42,261,117,-10,172,-88,46,124,600,164,28,300,709,263,-57,12,-85,-138,-395
177238,-429,223,818,286,70,701,282,464,101,108,443,1165,81,63,296,192,-142,156,-118,44,157,575,38,-9,287,740,299,-72,-13,-124,-174,-461
177239,-420,204,751,309,43,677,250,501,95,109,486,1261,105,54,294,282,-298,168,-119,47,159,620,3,16,298,737,233,-170,-35,-105,-140,-399
177240,-488,153,745,311,59,662,265,558,124,93,435,1299,139,57,247,246,38,201,-80,78,98,750,156,57,311,704,217,-187,-4,-76,-73,-317
177241,-545,150,715,273,47,548,288,558,111,54,342,1260,126,46,187,277,255,172,-84,69,48,786,224,38,316,692,173,87,124,16,34,-120
177242,-490,258,766,307,71,383,311,549,117,42,282,1191,125,54,176,436,253,154,-97,66,84,810,172,42,324,705,207,312,246,129,72,-90
177243,-450,241,794,285,68,449,378,534,128,53,353,1126,141,59,215,323,67,187,-85,69,76,798,205,42,321,701,190,86,183,75,20,-107
177244,-398,186,869,254,67,400,339,542,128,75,352,1152,159,79,219,232,3,199,-79,81,84,743,155,39,343,693,183,-92,86,-5,2,-121
177245,-390,207,884,217,71,385,279,506,104,56,332,1048,106,54,197,189,105,164,-100,44,44,776,36,-25,305,681,164,-252,-2,-52,-51,-162
177246,-381,219,846,212,81,415,246,479,92,69,301,1031,93,42,184,192,68,152,-121,36,1,814,-36,-59,273,646,121,-340,-84,-146,-85,-146
177247,-426,240,893,233,83,398,208,513,115,70,264,1059,116,53,186,129,125,197,-100,22,13,871,-22,13,293,667,158,-103,26,-59,10,-34
177248,-421,250,926,230,87,431,197,556,103,80,276,1096,114,56,218,95,129,205,-99,59,41,879,11,32,319,708,205,-22,103,37,117,162
177249,-379,264,878,231,89,461,280,558,104,88,271,1136,126,58,239,179,152,216,-94,83,97,801,0,66,338,738,272,-23,132,99,207,289
177250,-407,202,829,223,74,448,305,548,112,82,292,1173,118,59,242,236,104,239,-98,100,134,788,76,89,358,742,312,66,209,189,322,385
177251,-428,214,828,247,81,419,310,522,119,54,248,1110,94,50,203,161,111,202,-133,62,46,752,80,65,322,670,145,92,160,88,106,-42
177252,-441,228,831,264,58,401,326,514,95,48,243,1148,107,30,153,101,115,218,-152,-2,-24,617,122,47,262,566,-43,143,61,-96,-242,-530
177253,-483,261,805,285,79,442,286,596,106,63,262,1123,146,44,168,92,50,318,-166,27,-7,577,111,85,277,604,41,57,74,-67,-145,-396
177254,-495,215,754,291,65,471,313,608,108,54,249,1059,161,32,177,32,77,348,-148,17,-3,542,81,48,247,592,33,-68,16,-130,-237,-639
177255,-518,161,725,231,64,423,359,599,107,52,248,1050,140,33,189,33,154,201,-129,15,11,504,202,-11,259,609,103,-79,14,-130,-166,-504
177256,-513,135,656,206,108,406,396,580,149,75,303,1067,177,50,238,24,210,219,-112,68,32,654,329,34,303,671,198,-11,74,-38,-5,-266
177257,-520,107,691,246,117,402,420,495,136,70,316,1146,166,64,248,-5,243,246,-118,75,62,698,348,69,327,707,268,11,99,23,52,-170
177258,-472,94,804,246,87,424,404,497,121,71,337,1115,156,57,231,61,134,262,-90,82,92,725,334,84,335,714,359,83,114,16,41,-131
177259,-430,119,858,274,99,458,347,493,134,74,325,1070,185,66,240,108,153,276,-74,64,63,773,404,121,332,708,368,129,132,-20,-68,-217
177260,-401,100,871,297,106,501,319,476,144,97,358,1079,181,75,246,170,238,291,-93,57,62,756,350,124,328,674,309,40,160,21,-49,-234
177261,-372,118,849,250,107,529,271,436,121,88,337,1183,151,48,242,167,256,213,-127,35,69,706,236,65,336,680,224,102,167,93,65,-84
177262,-380,168,861,268,105,539,260,448,113,76,283,1227,136,21,219,117,151,236,-124,40,52,738,159,35,308,693,140,233,156,97,122,14
177263,-415,216,869,264,82,541,273,462,121,80,294,1250,89,30,250,208,115,234,-115,70,124,713,105,53,300,733,209,73,165,116,161,103
177264,-432,272,869,252,85,551,277,372,98,99,355,1358,67,31,285,317,232,247,-80,71,198,777,199,96,339,808,332,-32,180,149,173,188
177265,-382,248,839,263,67,550,252,405,82,73,333,1317,84,46,255,247,114,271,-70,61,131,793,235,132,328,788,318,-60,185,131,192,42
177266,-360,244,779,333,59,578,261,494,122,80,311,1307,149,52,268,185,65,245,-65,80,127,789,277,134,338,781,349,179,239,172,254,107
177267,-380,206,725,312,60,640,279,576,137,95,317,1280,209,44,298,177,-20,240,-79,57,129,757,236,88,325,740,355,162,156,69,152,102
177268,-377,210,711,279,47,601,275,566,106,83,292,1161,195,39,233,166,117,234,-75,32,113,761,199,72,311,696,263,93,113,5,54,-95
177269,-359,271,762,318,68,591,331,552,142,81,341,1034,187,36,205,195,143,208,-117,9,45,753,129,46,256,612,47,-207,-20,-217,-292,-528
177270,-449,280,805,339,88,507,311,590,151,63,317,1059,211,54,190,157,37,232,-118,30,25,773,146,49,281,621,91,-164,1,-146,-171,-415
177271,-480,206,784,370,76,437,282,566,140,53,287,1068,188,62,184,125,18,247,-89,25,29,751,105,58,300,673,157,-44,47,-90,-84,-271
177272,-459,171,783,348,68,370,250,518,110,40,254,1050,178,48,182,147,0,231,-64,46,12,701,8,59,302,670,205,8,65,-30,-10,-163
177273,-412,136,813,333,92,434,293,536,135,54,262,1128,230,62,183,129,-137,242,-90,50,22,650,20,53,292,615,133,-59,0,-103,-106,-332
177274,-373,8,811,294,71,553,224,547,139,66,257,1148,233,53,163,-10,-72,274,-95,30,-6,713,48,58,264,605,24,-119,-27,-186,-211,-514
177275,-360,3,842,303,59,459,176,532,129,42,175,1191,221,48,171,-52,-14,289,-88,34,-12,634,107,74,288,610,61,-57,31,-129,-144,-404
177276,-339,78,878,370,60,410,272,566,148,55,164,1182,261,59,181,17,-20,283,-37,47,-5,599,101,81,297,615,89,94,84,-86,-118,-406
177277,-444,49,839,381,35,384,298,559,140,39,199,1107,236,59,167,87,162,240,-34,32,-7,552,176,135,303,633,132,334,166,-14,-93,-492
177278,-510,39,797,401,50,419,267,601,151,45,212,1177,239,45,177,92,172,277,-31,45,17,516,290,149,324,618,127,330,238,29,-87,-423
177279,-461,117,777,413,65,384,215,595,166,52,224,1353,256,44,192,21,-79,372,-29,68,12,588,218,114,318,618,106,53,189,26,-76,-289
177280,-372,206,832,434,93,350,260,556,194,46,234,1351,265,57,196,148,47,496,-28,76,33,700,176,71,297,635,170,-115,73,-86,-132,-262
177281,-445,169,749,376,92,451,226,556,167,54,252,1062,183,32,169,178,21,239,-73,41,44,737,79,-22,260,662,202,-400,-136,-218,-209,-290
177282,-472,140,734,334,117,480,236,555,160,54,235,893,171,38,152,151,180,159,-83,25,20,730,57,-17,264,637,189,-293,-142,-228,-174,-270
177283,-390,160,832,325,121,485,267,517,160,60,273,894,203,48,169,201,164,231,-74,32,35,701,57,29,290,646,140,-199,-14,-119,-82,-214
177284,-321,176,900,299,101,521,264,474,140,78,295,930,214,59,244,305,196,267,-51,42,84,532,66,69,304,702,217,-97,12,-60,-30,-139
177285,-229,214,928,286,107,481,246,459,126,69,299,1024,232,56,285,351,206,267,-34,62,154,485,160,80,321,746,386,-50,12,-29,-9,-133
177286,-252,268,890,272,84,477,261,440,124,86,297,1158,217,51,297,298,173,264,-48,73,182,451,238,103,345,753,424,128,74,-8,42,-162
177287,-277,288,906,278,87,480,332,416,130,94,302,1239,185,46,285,202,123,263,-79,47,119,533,205,76,318,748,306,79,88,-27,-26,-322
177288,-279,267,924,298,94,464,364,467,115,84,310,1355,164,43,244,67,118,249,-118,31,45,684,183,42,275,665,81,-39,10,-148,-264,-506
177289,-285,262,929,308,92,509,292,511,104,72,316,1347,175,29,251,-13,163,221,-145,11,47,676,208,21,238,625,28,10,-8,-186,-325,-558
177290,-279,276,882,295,81,525,280,528,94,98,341,1206,194,22,268,-4,202,246,-131,28,40,684,210,3,248,611,50,-38,-35,-152,-226,-368
177291,-381,299,802,264,63,535,263,430,68,97,431,1257,158,20,281,21,189,217,-163,32,38,736,154,-19,237,592,68,-136,-32,-142,-170,-298
177292,-450,278,842,299,71,589,292,436,86,99,420,1320,167,25,249,64,172,212,-164,42,26,797,146,37,260,624,120,51,78,-59,-109,-167
177293,-370,190,830,329,93,690,321,494,109,122,392,1232,196,41,241,155,26,262,-139,56,34,761,118,33,277,637,107,-1,42,-71,-127,-173
177294,-335,135,775,297,56,569,288,472,78,94,288,1208,167,22,202,168,26,224,-129,44,-8,715,45,13,246,628,74,-41,-23,-88,-157,-343
