,Fp1,Fp2,F7,F3,Fz,F4,F8,FC5,FC1,FC2,FC6,T7,C3,Cz,C4,T8,TP9,CP5,CP1,CP2,CP6,TP10,P7,P3,Pz,P4,P8,PO9,O1,Oz,O2,PO10
80133,-403,-410,155,-41,-147,83,-203,31,104,101,148,197,380,102,246,110,97,-166,87,163,-68,180,185,12,269,199,264,-108,205,-22,-162,235
80134,-392,-230,58,-28,-146,135,-242,93,105,97,163,180,378,88,230,102,129,-168,63,146,-87,315,192,-13,240,168,225,-158,164,-86,-239,183
80135,-356,-209,115,-35,-125,167,-250,161,112,115,68,155,374,81,214,74,112,-171,75,123,-113,113,164,-33,213,143,162,-232,134,-97,-259,-4
80136,-292,-326,123,-19,-125,295,-228,161,104,123,65,95,386,91,214,100,53,-186,68,133,-97,260,130,-21,230,180,225,-72,222,-12,-175,152
80137,-273,-326,155,-25,-141,84,-276,162,124,124,102,128,384,97,209,93,86,-190,83,152,-87,294,184,-13,231,171,257,4,231,-30,-195,173
80138,-336,-212,118,-21,-141,84,-291,174,126,127,112,122,375,103,245,78,41,-178,90,166,-78,318,222,13,249,176,210,-29,228,-1,-196,77
80139,-381,-67,113,-37,-133,178,-203,136,137,145,121,79,386,106,256,96,-41,-201,107,159,-84,307,115,-27,255,175,198,-283,123,-72,-218,124
80140,-468,-34,108,-41,-148,220,-128,145,105,130,134,52,384,82,250,78,2,-213,88,161,-73,196,116,-26,260,188,210,-226,178,-43,-193,142
80141,-481,-105,125,-71,-139,199,-126,174,117,145,160,120,396,91,258,40,77,-216,104,174,-95,255,228,28,276,180,210,-94,238,2,-181,131
80142,-467,-170,119,-70,-145,-55,-174,117,125,124,137,96,354,91,252,72,52,-216,94,155,-121,273,216,15,247,158,205,-236,146,-81,-214,94
80143,-468,-211,113,-105,-178,-245,-165,87,109,111,98,134,388,100,244,90,39,-113,115,163,-72,152,529,63,265,205,236,-205,207,-30,-185,144
80144,-422,-123,128,-154,-162,-47,-124,100,110,119,117,172,416,110,247,94,-72,-111,140,155,-64,250,273,68,277,197,251,-273,182,-34,-173,130
80145,-400,-135,134,-154,-152,130,-198,124,71,131,84,190,377,95,230,40,-158,-171,106,138,-101,254,-9,7,233,145,202,-310,133,-90,-199,108
80146,-383,-118,172,-91,-125,189,-176,198,85,128,169,184,386,87,228,48,-20,-181,105,151,-103,237,72,31,222,156,227,-165,191,-34,-187,167
80147,-319,-91,183,-47,-114,266,-225,195,108,139,281,148,395,82,259,83,89,-150,98,128,-73,224,128,18,214,161,249,-197,193,-55,-191,172
80148,-264,-275,154,-53,-127,229,-274,156,107,127,144,168,382,57,230,78,139,-157,67,123,-81,260,108,-17,190,150,219,-216,184,-53,-229,153
80149,-213,-375,189,-54,-117,121,-203,85,115,138,-31,207,375,55,226,101,160,-169,69,124,-75,270,158,16,213,162,225,-125,242,-15,-192,66
80150,-230,-325,136,-78,-103,0,-197,72,105,131,94,174,355,56,219,87,55,-186,50,113,-103,292,191,15,192,141,184,-94,264,0,-167,149
80151,-317,-256,120,-51,-96,72,-134,108,111,118,52,173,390,81,223,90,45,-144,74,136,-100,325,253,74,232,171,240,6,344,66,-119,221
80152,-288,-171,174,-31,-126,49,-129,160,109,114,63,227,399,79,237,81,128,-119,109,158,-70,258,299,102,260,192,271,105,405,139,-67,222
80153,-229,-181,198,16,-119,88,-116,242,104,114,140,274,417,83,248,105,135,-102,111,164,-59,246,314,93,264,201,303,97,364,95,-78,272
80154,-308,-172,86,52,-116,155,-150,247,103,118,153,240,412,74,252,130,151,-119,88,140,-48,245,292,74,238,195,310,31,272,-10,-127,276
80155,-377,-161,118,58,-128,161,-170,293,130,128,155,221,433,81,274,112,145,-82,125,175,-26,234,290,105,271,239,330,18,350,85,-62,320
80156,-411,-131,159,40,-137,159,-165,289,147,127,68,215,435,82,262,58,41,-96,110,172,-34,163,250,66,263,235,250,-85,300,38,-112,121
80157,-383,-160,127,-40,-147,177,-161,178,159,125,110,210,416,82,252,108,21,-117,114,164,-61,154,257,74,255,228,235,-133,244,-21,-156,85
80158,-348,-133,191,-104,-167,135,-149,167,131,106,194,189,411,94,253,156,63,-119,117,165,-46,200,252,61,268,228,289,-135,219,-7,-132,217
80159,-401,-90,211,-90,-139,94,-108,152,135,131,121,209,404,103,273,6,99,-104,126,195,-6,78,291,87,289,255,427,-36,290,49,-108,176
80160,-330,-111,78,-105,-110,82,-117,80,124,133,97,172,382,119,289,-40,82,-127,122,187,-30,193,272,85,278,229,271,-22,277,44,-90,268
80161,-294,-216,136,-125,-122,143,-235,97,109,127,107,146,373,104,269,-10,46,-140,105,159,-74,270,269,52,246,177,180,17,267,-31,-190,184
80162,-312,-179,154,-120,-136,195,-261,92,84,113,89,140,363,82,255,81,-52,-157,88,160,-94,236,207,30,220,167,222,-262,169,-89,-225,68
80163,-272,-123,216,-65,-133,162,-203,126,97,109,104,137,379,99,276,167,-16,-121,113,180,-48,231,213,40,256,212,236,-268,207,-37,-179,134
80164,-321,-105,174,-78,-161,94,-229,118,95,119,71,152,395,90,286,152,23,-127,106,169,-44,275,270,57,266,202,243,-113,256,-12,-184,157
80165,-342,-140,167,-80,-149,155,-169,101,102,127,61,154,375,71,261,109,-2,-155,99,148,-50,355,321,56,252,209,242,-150,227,-19,-205,90
80166,-340,-242,183,-69,-134,135,-167,111,104,118,95,138,370,68,256,106,95,-134,98,144,-80,286,356,71,256,208,225,-97,271,-5,-183,100
80167,-373,-130,178,-48,-115,177,-145,168,113,144,131,195,401,68,260,130,142,-127,97,135,-104,233,261,47,247,199,224,-131,281,4,-160,102
80168,-427,-181,164,-30,-102,105,-138,225,125,156,126,206,426,78,260,106,140,-107,104,146,-84,277,233,53,244,192,275,-141,279,8,-165,166
80169,-417,-192,199,-13,-98,-79,-181,223,124,150,153,212,431,83,247,105,85,-84,104,140,-67,256,283,62,248,202,296,-71,289,7,-169,201
80170,-322,-190,157,28,-103,7,-177,226,127,169,181,214,442,106,263,152,125,-88,126,172,-40,216,326,93,267,238,310,49,337,49,-126,163
80171,-274,-180,176,40,-109,156,-218,228,155,169,166,202,436,114,265,159,38,-94,127,177,-25,164,316,94,287,251,354,2,332,61,-85,243
80172,-340,-220,206,33,-101,298,-200,207,135,168,232,216,418,89,264,149,41,-95,101,176,-22,283,274,68,260,220,317,-98,321,64,-110,231
80173,-374,-172,202,44,-106,382,-193,173,118,175,349,199,410,100,284,111,79,-104,112,170,-29,142,289,76,261,208,297,-65,320,24,-162,150
80174,-322,-168,188,28,-106,346,-235,174,147,161,219,200,409,106,280,137,65,-116,134,173,-19,41,295,90,273,215,310,-82,298,22,-115,270
80175,-298,-269,224,28,-130,182,-222,242,161,105,-60,248,454,104,233,131,72,-80,133,162,-49,289,347,126,295,236,289,27,351,80,-61,265
80176,-270,-293,212,12,-117,175,-218,315,156,133,63,207,426,71,257,119,-69,-102,109,163,-57,363,332,84,267,234,281,14,334,26,-133,185
80177,-182,-193,238,-25,-114,165,-84,338,158,154,127,206,437,108,288,140,32,-81,122,188,-26,265,367,96,285,254,284,77,384,84,-90,192
80178,-153,-140,237,-64,-110,88,-86,293,139,142,142,170,439,118,264,83,138,-104,105,177,-25,166,322,81,268,247,272,-51,340,43,-103,193
80179,-183,-69,234,-16,-123,18,-85,271,123,140,167,196,440,109,261,120,88,-78,126,190,-41,165,342,87,308,269,279,-9,350,64,-104,213
80180,-278,-54,211,46,-132,12,-94,194,114,120,138,284,419,106,280,112,147,-67,117,199,-21,229,358,101,311,287,302,96,402,123,-73,215
80181,-277,-14,241,59,-140,56,-79,231,131,138,153,245,418,118,282,81,163,-109,121,187,-14,369,344,86,284,259,304,-82,327,55,-91,245
80182,-274,-6,255,6,-132,102,-64,266,148,124,137,149,427,107,276,15,126,-111,107,150,-28,452,283,71,272,225,265,-155,249,-24,-130,223
80183,-219,-36,295,24,-111,129,-67,246,133,121,118,185,430,92,268,27,53,-106,100,140,-40,211,207,24,239,192,221,-144,210,-74,-213,60
80184,-202,-152,274,17,-106,107,-96,203,140,111,124,220,442,68,237,78,130,-90,95,144,-47,259,266,23,220,194,261,-34,238,-28,-174,77
80185,-274,-227,170,-33,-136,125,-117,134,128,133,106,194,386,67,226,165,107,-161,72,130,-68,296,256,4,211,171,230,-115,213,-27,-165,187
80186,-332,-272,191,-31,-146,147,-167,229,120,104,19,179,368,51,190,120,69,-191,45,84,-118,235,242,3,178,150,186,-125,220,-31,-169,154
80187,-415,-208,104,-79,-112,233,-180,166,143,103,50,182,393,55,176,75,68,-152,62,101,-132,181,270,8,182,141,187,30,282,-4,-177,130
80188,-441,-97,174,-54,-115,192,-234,99,129,120,139,198,389,59,179,77,45,-151,74,105,-122,69,262,2,202,131,207,9,249,-42,-220,97
80189,-437,-99,176,-46,-144,40,-280,154,115,121,99,225,381,63,189,74,18,-156,60,115,-125,216,184,-27,203,127,171,-263,117,-122,-254,106
80190,-417,-242,171,-57,-128,-24,-284,163,127,112,23,235,404,80,193,41,81,-133,72,118,-122,151,224,-4,221,159,152,-224,171,-67,-207,94
80191,-372,-334,196,-27,-117,6,-275,179,125,107,29,229,396,70,185,20,27,-159,55,117,-130,122,242,-20,202,159,181,-146,193,-70,-192,133
80192,-306,-196,240,-46,-110,-64,-167,156,110,92,32,259,378,59,192,40,-8,-179,49,106,-116,107,256,-32,172,128,262,-119,187,-104,-244,116
80193,-187,2,297,-7,-85,-12,-70,142,124,108,141,230,382,48,230,102,117,-163,47,90,-98,221,253,-29,160,120,237,-106,188,-76,-215,168
80194,-218,46,308,24,-64,171,-138,146,119,112,148,176,383,55,210,83,69,-147,52,79,-175,317,250,-20,135,70,50,-92,185,-94,-269,117
80195,-327,-154,211,-21,-111,199,-175,115,91,143,130,109,369,49,223,135,-46,-146,29,103,-96,213,282,-41,147,105,198,-139,172,-107,-298,33
80196,-377,-207,213,-8,-107,189,-137,146,120,145,164,204,392,76,249,143,80,-141,72,121,-101,165,300,11,179,134,168,-24,268,-3,-215,79
80197,-374,-203,212,-5,-103,270,-49,167,110,132,183,217,379,67,248,124,4,-169,74,99,-124,139,216,-7,172,129,131,-83,221,-39,-202,161
80198,-267,-119,192,17,-95,296,-24,182,115,141,184,224,401,82,265,169,75,-131,84,119,-83,154,289,7,214,148,188,-140,238,-54,-192,183
80199,-205,-31,223,-20,-76,237,-19,204,108,157,209,218,406,73,242,150,137,-98,77,137,-91,235,302,47,224,161,179,-64,280,9,-162,178
80200,-238,-38,223,-44,-94,204,-101,177,104,140,176,214,397,72,212,78,138,-134,74,121,-118,184,272,30,209,127,142,-28,251,-27,-222,79
80201,-238,-68,193,-18,-99,200,-233,176,113,140,222,185,400,85,232,88,94,-139,74,117,-129,120,254,15,180,123,123,-46,235,-55,-222,47
80202,-292,-122,129,-40,-109,189,-215,160,125,121,209,113,380,85,221,78,25,-144,83,122,-132,99,258,15,190,141,122,47,277,10,-187,54
80203,-304,-156,78,-55,-137,65,-47,169,114,84,-32,117,388,68,175,31,-13,-161,64,105,-162,116,222,-20,172,117,89,-122,166,-99,-268,-22
80204,-249,-65,167,3,-142,87,-42,199,132,94,48,138,390,80,198,41,-43,-171,52,96,-162,180,185,-48,156,87,82,-260,86,-190,-384,-61
80205,-243,-67,186,14,-128,148,-45,205,123,132,130,186,395,68,244,107,29,-154,76,119,-111,281,188,-38,168,133,144,-292,65,-174,-314,6
80206,-234,-42,206,6,-105,163,-5,227,125,148,149,262,416,101,262,106,85,-87,104,153,-82,237,279,17,234,193,220,-189,161,-64,-182,120
80207,-158,4,216,38,-99,194,-35,242,130,131,128,288,436,80,260,73,119,-92,132,171,-61,175,311,50,257,218,254,-111,233,-1,-123,222
80208,-83,-36,218,26,-110,248,-57,225,126,124,135,201,435,74,246,-25,5,-104,101,161,-88,195,285,35,241,210,235,-83,247,-30,-168,160
80209,-113,-90,226,16,-89,343,-59,240,133,153,171,136,437,76,266,-58,-25,-95,95,147,-76,273,257,22,234,200,233,-95,231,-27,-170,149
80210,-178,-117,208,23,-97,258,-90,218,103,136,200,172,378,44,244,96,-9,-157,67,121,-88,254,264,-2,189,156,206,-91,193,-75,-200,100
80211,-164,-31,219,19,-94,143,-239,203,103,144,135,181,377,66,247,160,73,-161,68,134,-104,180,327,20,187,134,206,-80,204,-46,-194,89
80212,-208,-143,193,20,-88,172,-246,180,125,133,105,210,412,72,245,55,11,-102,98,127,-111,213,339,44,200,141,205,28,249,-30,-209,61
80213,-210,-211,199,-10,-95,41,-190,251,134,113,161,241,406,68,223,53,43,-110,98,117,-126,197,347,54,225,146,193,127,286,-37,-210,27
80214,-237,-109,82,-55,-114,47,-223,233,113,132,228,223,390,66,250,83,121,-126,92,129,-103,53,293,43,221,154,230,-81,206,-65,-211,120
80215,-352,-157,85,-42,-126,299,-344,149,101,147,213,202,374,50,257,56,100,-144,77,129,-94,49,247,14,213,134,262,-128,196,-93,-225,124
80216,-321,-93,152,10,-132,188,-266,188,102,156,194,184,371,57,258,68,92,-170,67,126,-87,89,222,3,201,126,225,-281,136,-107,-237,120
80217,-276,-1,143,24,-102,-6,-166,202,107,163,190,171,377,68,250,61,-8,-159,72,125,-103,84,217,13,182,119,148,-252,130,-113,-253,135
80218,-260,0,141,13,-96,-58,-89,219,120,140,157,99,373,52,231,59,-42,-198,67,100,-115,160,167,-15,183,100,134,-274,96,-142,-287,108
80219,-192,4,190,11,-80,77,-3,297,129,136,183,136,372,60,207,24,-6,-180,57,104,-173,184,190,-9,199,98,96,-255,121,-153,-310,-6
80220,-191,35,169,-47,-109,251,-65,192,108,107,96,160,373,54,205,58,-11,-166,70,119,-125,144,223,-19,194,143,146,-143,163,-116,-257,3
80221,-225,24,87,-59,-102,154,-110,175,104,105,55,139,351,49,211,89,14,-189,49,114,-106,111,200,-26,164,132,163,-178,151,-109,-254,17
80222,-243,-57,22,17,-93,96,-120,134,127,103,96,106,361,41,185,72,-6,-208,37,80,-143,233,169,-45,149,83,150,-237,117,-153,-285,20
80223,-254,8,137,-20,-97,118,-107,158,132,110,62,135,371,31,183,69,-12,-172,44,89,-151,220,223,-33,166,86,147,-160,163,-107,-275,14
80224,-214,35,150,-22,-98,146,-56,141,117,99,77,83,383,32,181,85,-57,-175,50,88,-139,100,264,-28,153,91,171,-115,173,-104,-265,29
80225,-185,-22,195,29,-100,180,-54,161,115,100,159,53,405,22,188,69,-60,-143,44,79,-137,274,289,-24,142,74,182,-101,186,-118,-261,52
80226,-140,-43,261,37,-74,225,-134,203,122,137,272,142,404,44,208,71,132,-145,42,102,-137,330,240,-20,149,101,246,-50,206,-70,-224,159
80227,-123,-22,227,17,-79,360,-164,121,116,157,345,211,391,51,225,121,150,-149,36,67,-117,198,438,-26,142,89,243,-3,217,-74,-221,130
80228,-142,-138,216,-47,-79,210,-91,124,129,126,100,228,396,41,219,126,174,-104,68,72,-97,258,626,32,160,119,239,73,300,1,-158,171
80229,-188,-120,218,-44,-82,227,-83,134,129,104,15,262,399,41,212,88,220,-128,69,94,-92,235,187,32,157,117,258,115,289,0,-193,116
80230,-246,-63,185,-47,-85,247,-49,127,105,131,245,244,351,45,229,139,90,-181,24,85,-91,173,58,-41,123,96,266,-110,194,-55,-199,150
80231,-250,-42,183,-43,-95,210,-121,154,112,150,248,214,347,41,233,134,70,-216,7,79,-109,246,112,-82,128,88,239,-168,159,-87,-229,113
80232,-179,22,194,-14,-96,166,-235,140,101,161,213,211,353,49,232,92,80,-198,25,90,-113,184,150,-61,141,116,245,-194,140,-98,-235,133
80233,-126,94,211,-92,-102,210,-132,112,90,139,243,167,345,39,236,50,-3,-217,21,77,-133,117,131,-62,139,91,197,-163,90,-158,-256,118
80234,-167,-21,204,-85,-90,294,-191,120,86,156,255,163,336,37,217,110,60,-211,15,71,-151,100,135,-73,121,69,153,-201,84,-165,-260,124
80235,-226,-59,185,-43,-74,166,-218,114,91,151,188,178,332,34,195,3,-20,-240,-1,60,-183,136,120,-73,128,84,163,-198,91,-142,-272,96
80236,-162,53,212,24,-66,54,-149,155,100,128,117,207,348,49,220,-142,38,-186,36,99,-148,153,204,-27,168,131,163,-85,167,-79,-219,123
80237,-132,82,168,24,-64,191,-15,212,113,141,155,160,355,54,233,-68,84,-193,45,124,-95,224,199,-23,186,154,172,-130,191,-65,-204,102
80238,-97,12,223,-46,-90,177,4,244,114,140,85,168,364,40,230,81,15,-209,46,114,-76,195,181,-51,187,167,214,-208,165,-93,-250,64
80239,-28,64,309,-5,-35,121,66,170,132,148,119,219,378,76,248,159,69,-154,84,153,-64,240,244,1,233,210,225,-124,210,-45,-211,60
80240,-90,37,228,4,-36,21,70,225,112,124,155,182,369,53,222,132,63,-179,62,133,-113,197,168,-5,210,151,141,-142,181,-86,-204,142
80241,-26,35,264,-47,-74,129,-46,239,117,122,128,195,392,55,216,109,-6,-159,77,128,-95,150,190,12,218,179,193,-52,242,-25,-179,161
80242,-27,184,334,31,-80,237,-51,227,140,129,126,240,437,74,251,146,26,-112,116,159,-45,219,292,49,265,213,246,12,297,31,-119,191
80243,-193,250,253,84,-64,280,-16,248,139,151,140,285,416,71,231,126,0,-130,99,162,-93,205,291,37,264,195,192,16,270,16,-115,188
80244,-197,136,193,56,-80,236,62,233,120,124,90,210,412,62,219,80,60,-128,92,148,-124,222,252,29,252,183,181,-48,253,11,-137,171
80245,-83,48,200,58,-93,246,9,261,115,133,122,212,414,75,242,90,126,-101,96,161,-119,268,255,52,255,180,152,-31,260,4,-152,97
80246,-19,73,308,89,-85,130,-10,271,135,155,129,220,395,88,268,108,64,-127,111,185,-88,274,260,53,295,206,155,-61,273,42,-115,71
80247,-98,28,331,79,-67,134,21,234,158,154,144,182,436,109,290,134,138,-112,137,213,-41,279,243,91,324,244,222,-136,268,72,-61,178
80248,-173,-80,298,80,-88,143,-30,245,150,143,182,188,474,120,282,115,145,-79,160,211,-38,244,270,109,331,237,193,-22,289,61,-84,156
80249,-197,-37,263,64,-100,236,-161,187,125,120,214,231,418,103,251,73,119,-133,151,180,-91,185,290,89,312,217,207,-8,310,64,-84,191
80250,-166,101,200,10,-90,-26,-91,105,98,130,257,177,390,91,245,46,49,-174,135,161,-135,133,237,56,285,187,166,-121,261,42,-96,138
80251,-160,118,147,-37,-100,72,-56,81,96,151,293,124,377,75,263,72,-59,-172,123,175,-127,77,181,39,271,179,132,-116,241,13,-142,63
80252,-180,55,161,-107,-104,272,-201,84,94,148,222,161,383,67,246,29,-119,-149,114,174,-133,89,169,46,272,164,107,-119,256,16,-145,8
80253,-219,32,162,-85,-104,217,-307,55,95,129,284,153,386,84,266,37,9,-176,123,171,-103,144,204,54,299,174,136,-164,265,58,-96,111
80254,-266,-64,125,-85,-116,162,-212,62,92,124,170,164,391,93,257,72,54,-185,127,185,-92,139,237,68,296,196,179,-136,275,51,-119,156
80255,-270,-101,89,-78,-119,160,-109,66,114,128,-32,153,374,83,223,30,17,-166,122,175,-136,224,224,60,283,151,109,-71,259,-40,-234,37
80256,-229,-95,99,-51,-112,192,-130,110,105,128,53,136,364,76,212,10,-37,-157,111,160,-153,147,194,46,252,123,98,-112,212,-58,-217,51
80257,-129,-32,148,-33,-99,283,-32,210,120,131,67,153,398,81,221,-6,-172,-139,107,153,-128,66,225,58,241,143,102,-129,232,-38,-224,55
80258,-152,2,235,-50,-100,294,-43,258,109,118,85,159,370,42,221,-103,0,-172,81,136,-116,83,199,26,216,127,92,-185,203,-73,-238,70
80259,-213,47,233,10,-77,308,-5,295,127,149,127,162,391,68,259,-38,149,-139,89,143,-95,198,231,39,237,137,107,-173,236,-21,-192,37
80260,-198,62,226,-5,-88,224,-28,257,124,133,85,161,409,78,254,82,56,-91,101,153,-108,208,316,51,260,155,164,-66,295,18,-153,98
80261,-107,142,259,16,-83,146,-4,184,131,131,164,240,391,67,240,107,35,-151,92,151,-162,107,266,61,256,173,169,-105,275,-16,-168,97
80262,-72,168,256,0,-109,33,82,134,130,131,173,262,392,85,240,114,108,-132,105,157,-120,201,231,72,261,177,178,-72,292,13,-185,67
80263,-83,195,266,-57,-101,96,137,202,118,127,193,255,399,114,275,149,147,-113,120,198,-40,368,291,106,282,220,245,-25,342,54,-124,154
80264,-73,205,289,-24,-86,198,66,291,125,162,241,286,408,116,300,138,188,-122,140,206,-19,147,288,116,305,223,297,-81,302,29,-117,192
80265,-59,86,225,-77,-120,155,-86,196,103,156,230,269,412,106,298,113,181,-101,135,185,-48,186,297,79,286,188,221,-49,301,35,-137,110
80266,-86,-106,235,-52,-107,28,-149,224,102,172,238,216,435,123,298,175,110,-105,129,182,-46,407,264,96,272,203,247,-34,337,43,-103,193
80267,-127,-206,238,-52,-92,251,-73,193,104,177,316,227,391,106,289,173,145,-170,120,173,-48,323,279,82,253,190,284,-19,343,60,-113,194
80268,-104,-82,218,-53,-85,313,4,87,107,179,284,243,392,121,298,200,182,-126,138,207,-14,352,359,128,282,233,334,136,434,149,-45,272
80269,6,146,330,-33,-87,358,41,94,101,166,197,269,398,114,278,194,183,-77,132,194,-20,282,399,142,282,243,331,266,486,178,0,285
80270,-9,193,317,3,-97,332,53,140,91,149,263,327,391,87,275,204,164,-51,114,155,-29,249,412,154,267,224,351,234,464,156,-15,329
80271,-71,237,332,0,-97,222,50,214,94,154,251,346,411,89,290,224,230,-40,107,188,4,397,395,140,273,242,389,94,412,98,-41,342
80272,-62,274,300,11,-95,168,61,165,97,172,296,310,395,63,256,341,244,-83,99,165,-37,415,337,71,268,209,355,-147,310,37,-82,298
80273,-7,228,291,43,-59,169,92,189,119,149,260,315,414,92,250,312,207,-60,109,181,-41,366,362,108,282,229,396,19,382,109,-29,407
80274,-80,210,287,36,-61,176,150,212,134,146,230,315,413,76,236,131,85,-50,100,164,-39,301,415,125,270,209,395,145,383,107,-40,323
80275,-184,177,309,0,-82,246,38,205,109,151,250,253,404,56,233,91,9,-74,82,114,-92,359,381,104,241,175,299,73,352,63,-84,222
80276,-55,103,278,-47,-86,279,-74,243,127,151,149,309,423,90,245,130,346,-33,110,130,-92,360,412,132,261,198,267,89,393,112,-51,256
80277,-65,19,244,-40,-99,218,-41,222,115,129,100,276,386,71,214,152,334,-79,105,140,-80,300,363,122,251,179,287,69,391,105,-44,276
80278,-76,194,254,0,-97,119,-6,250,117,119,152,294,397,76,212,128,220,-80,96,139,-99,362,315,106,238,168,233,-109,296,22,-146,164
80279,-132,124,270,-16,-90,249,-1,281,133,147,244,305,426,105,233,122,271,-64,117,165,-72,361,383,133,279,212,283,62,355,82,-69,276
80280,-114,-83,325,-20,-105,146,-54,275,111,102,194,259,411,82,204,88,224,-42,110,153,-102,286,397,136,269,191,256,158,379,97,-65,269
80281,-41,36,371,4,-100,101,73,287,136,90,-26,313,431,103,204,132,210,-36,130,165,-91,305,373,139,282,213,271,-38,348,74,-83,241
80282,-105,96,324,64,-76,270,-36,221,129,122,107,318,399,110,214,105,183,-54,115,146,-96,236,353,110,255,173,225,-78,315,27,-141,153
