,Fp1,Fp2,F7,F3,Fz,F4,F8,FC5,FC1,FC2,FC6,T7,C3,Cz,C4,T8,TP9,CP5,CP1,CP2,CP6,TP10,P7,P3,Pz,P4,P8,PO9,O1,Oz,O2,PO10
173625,-432,-161,408,-25,-47,296,-2,592,112,177,256,262,754,230,260,191,421,363,249,393,81,370,377,229,291,353,505,255,478,222,-28,227
173626,-478,-201,329,-39,-53,283,38,578,96,163,281,227,774,213,259,112,401,347,220,396,86,354,370,216,278,346,544,300,473,208,-36,186
173627,-504,-253,290,-59,-36,281,34,557,86,141,240,192,739,210,247,29,364,343,231,377,73,377,372,232,294,359,536,372,505,249,-35,115
173628,-525,-283,284,-74,-48,229,-18,504,49,120,143,144,701,188,192,-15,296,334,220,358,44,331,388,234,283,353,482,408,518,260,-35,130
173629,-563,-288,233,-98,-37,222,-73,464,42,87,170,117,685,155,171,-3,256,301,197,332,20,254,296,177,249,317,396,145,389,171,-108,122
173630,-560,-302,182,-111,-38,218,-27,464,37,95,189,102,683,142,176,52,259,266,175,330,37,285,277,176,256,308,433,79,358,152,-111,139
173631,-502,-254,234,-86,-26,207,29,498,71,124,241,150,715,189,226,104,259,318,205,373,101,283,337,212,284,343,515,148,391,169,-71,185
173632,-461,-243,274,-77,-37,231,58,565,95,147,315,211,752,213,249,154,321,374,238,414,127,326,431,285,311,411,546,327,542,266,9,226
173633,-412,-235,315,-30,-12,286,142,575,132,185,369,260,815,242,275,192,395,442,290,454,165,456,519,354,366,471,631,443,634,386,124,418
173634,-385,-259,335,3,-24,319,128,642,143,195,365,282,831,264,288,200,385,479,314,470,199,499,518,357,355,497,729,329,606,382,160,487
173635,-385,-244,332,12,-37,302,50,628,157,181,295,273,838,264,268,192,414,480,316,443,200,512,511,357,345,479,777,330,619,355,130,360
173636,-414,-267,280,-16,-36,284,44,574,129,160,310,222,805,225,233,223,439,447,301,409,161,490,499,340,324,465,790,415,635,389,154,395
173637,-445,-260,281,-44,-23,309,48,556,108,145,325,220,773,225,226,251,418,441,250,383,152,483,547,340,300,453,737,453,624,361,151,418
173638,-487,-267,294,-68,-32,288,21,528,72,111,257,175,725,148,192,235,288,367,194,325,130,589,408,243,229,396,679,428,566,300,84,381
173639,-483,-255,271,-99,-48,282,0,480,34,81,269,118,685,97,145,199,356,289,148,292,99,610,293,160,181,357,678,405,537,287,92,368
173640,-474,-205,242,-106,-37,256,1,435,25,79,274,88,644,85,131,196,385,263,117,263,93,563,326,148,182,365,675,365,512,285,104,320
173641,-454,-179,283,-83,-34,242,8,451,33,85,273,110,654,98,142,253,367,269,117,282,129,628,323,158,201,394,699,389,515,321,178,421
173642,-421,-171,349,-46,-35,256,9,488,50,113,309,129,680,128,210,296,353,271,152,327,176,709,343,178,218,436,760,414,543,376,238,512
173643,-428,-165,370,-35,-48,290,3,514,68,146,355,141,668,135,218,312,377,278,138,326,193,703,362,174,184,423,789,452,528,333,100,381
173644,-406,-139,367,4,-41,334,31,571,83,170,367,214,685,151,252,326,379,270,131,337,220,695,366,166,203,452,821,367,502,306,119,400
173645,-405,-109,361,2,-59,348,54,560,59,178,383,217,671,144,286,335,279,247,116,348,220,715,290,128,181,431,782,232,414,277,116,418
173646,-411,-135,343,-24,-43,350,133,553,68,186,404,208,664,145,271,308,306,253,122,360,219,637,302,161,200,429,723,310,479,320,87,371
173647,-432,-206,276,-44,-22,326,136,551,50,161,392,150,666,132,274,347,379,256,135,370,207,501,319,189,230,424,671,416,562,364,91,353
173648,-456,-264,224,-64,-42,317,115,513,17,136,364,77,634,113,252,350,334,241,131,345,180,418,319,152,206,390,649,430,539,317,91,300
173649,-459,-221,234,-79,-24,290,103,507,19,126,318,88,626,118,215,226,301,223,118,339,137,272,308,137,219,387,654,239,417,231,27,209
173650,-491,-236,216,-74,-15,260,44,509,49,126,257,118,659,151,238,217,253,255,154,381,165,313,336,194,274,453,720,313,514,320,91,200
173651,-510,-237,205,-65,-45,255,51,488,58,131,286,122,670,171,248,281,172,270,172,405,176,305,258,220,296,479,700,493,616,421,159,292
173652,-481,-220,235,-58,-42,282,62,508,62,137,307,132,685,190,260,346,237,296,179,392,187,213,268,246,308,475,642,477,622,395,163,316
173653,-487,-175,274,-63,-33,290,41,517,84,177,363,159,713,203,310,387,283,346,215,419,222,338,345,241,349,515,664,349,585,397,216,450
173654,-510,-217,263,-53,-44,279,-13,502,75,174,328,178,717,206,288,268,273,331,205,416,209,326,313,218,320,505,733,172,466,341,215,445
173655,-505,-232,257,-21,-56,294,-96,526,77,168,271,131,705,187,270,152,231,253,179,391,148,123,122,159,275,467,691,2,333,207,98,256
173656,-514,-245,224,-41,-61,268,-113,501,78,137,260,91,718,190,256,88,241,236,174,391,135,144,139,153,254,440,645,12,318,223,99,374
173657,-515,-291,185,-50,-42,259,-126,479,63,128,234,105,713,158,204,106,219,258,164,339,79,262,191,136,219,372,519,93,329,185,-21,224
173658,-575,-363,165,-88,-39,235,-195,454,44,105,199,87,664,137,172,80,160,210,140,305,7,211,102,100,172,315,454,78,288,122,-108,27
173659,-615,-352,156,-118,-49,175,-226,431,24,71,55,73,636,131,139,-46,149,200,124,290,5,213,122,100,177,314,430,86,278,138,-100,34
173660,-602,-411,167,-113,-43,178,-195,413,3,87,101,19,636,111,121,-87,183,215,144,299,-27,182,151,106,197,293,409,41,289,126,-139,13
173661,-600,-386,166,-96,-41,215,-183,433,33,89,141,-18,663,129,134,-62,184,230,168,301,-40,180,206,154,213,281,394,88,322,88,-223,-46
173662,-595,-358,155,-77,-38,221,-167,447,40,114,135,27,672,140,145,-54,166,247,177,304,6,185,208,140,218,303,472,133,363,146,-114,62
173663,-552,-346,164,-79,-42,244,-151,460,36,127,188,84,667,148,167,-42,223,253,179,311,15,209,244,126,197,317,502,145,369,132,-124,37
173664,-540,-321,181,-66,-45,294,-140,493,62,135,209,122,704,172,196,-42,275,296,192,317,10,240,269,139,220,325,474,139,341,133,-141,29
173665,-500,-314,204,-4,-46,330,-90,524,108,168,232,165,754,210,238,22,347,323,224,352,52,281,310,184,274,349,507,169,364,139,-114,56
173666,-522,-319,212,7,-32,326,-40,553,124,150,268,195,766,203,237,-6,361,336,237,360,34,261,357,216,275,352,463,259,384,122,-144,6
173667,-536,-367,176,-35,-40,288,-30,538,96,108,253,223,736,164,204,-17,309,327,199,340,-8,244,354,197,239,332,425,261,419,140,-116,95
173668,-566,-381,186,-21,-40,265,-26,523,62,111,257,178,722,127,194,50,290,329,195,342,2,234,329,181,221,315,421,187,356,101,-151,39
173669,-594,-364,170,-38,-41,256,-121,507,43,88,191,144,711,113,173,0,301,332,185,340,-10,176,367,197,230,319,391,288,419,161,-124,17
173670,-625,-341,148,-68,-39,235,-136,484,44,71,143,107,692,112,163,-34,282,305,177,316,-10,137,358,200,251,322,405,305,460,204,-88,69
173671,-627,-330,182,-57,-32,245,-155,476,68,100,148,108,703,130,174,-69,296,305,176,312,-9,137,302,173,245,313,419,160,369,142,-96,82
173672,-612,-303,244,-72,-28,242,-156,484,50,108,75,128,692,146,172,-7,242,296,171,310,-16,216,238,147,226,318,440,-46,261,92,-124,114
173673,-576,-266,219,-26,-29,261,-160,548,82,124,161,140,730,173,194,16,232,307,178,331,-1,303,259,170,258,326,469,64,342,117,-112,81
173674,-583,-312,212,1,-30,279,-99,558,113,139,188,161,751,171,185,0,283,320,197,341,35,313,291,210,266,343,479,139,395,158,-95,78
173675,-544,-312,233,0,-45,273,-61,548,94,121,168,163,754,158,160,-10,253,310,200,325,47,269,292,211,251,330,510,157,392,168,-58,131
173676,-502,-342,244,9,-59,263,-68,561,101,97,160,185,766,153,159,28,275,319,187,320,25,272,328,191,247,339,522,180,427,153,-87,96
173677,-497,-336,207,14,-54,253,-91,547,96,84,139,223,753,122,164,104,223,331,188,300,40,250,318,211,240,350,525,195,422,182,-75,46
173678,-518,-333,224,2,-47,213,-89,542,61,71,153,208,727,90,144,161,201,325,168,289,67,240,284,204,226,340,543,202,412,215,-30,126
173679,-523,-305,238,-25,-18,221,-110,536,38,55,162,187,727,66,129,150,244,315,138,267,30,208,287,162,209,294,484,177,400,198,-43,158
173680,-506,-277,258,-42,-24,220,-116,568,31,38,191,201,725,56,121,88,270,332,116,255,18,218,334,178,206,290,488,203,418,222,0,176
173681,-519,-299,258,-33,-39,250,-79,569,33,66,221,207,744,71,134,130,278,347,155,273,74,316,372,194,212,337,595,245,451,239,47,238
173682,-515,-272,285,-22,-36,257,-50,556,30,85,218,215,728,81,169,117,252,330,148,283,110,410,337,193,205,355,657,183,442,245,53,218
173683,-472,-215,307,-15,-19,280,-57,579,79,108,240,237,749,114,225,85,330,344,166,317,143,405,337,207,225,394,700,203,449,295,66,243
173684,-452,-253,327,11,-48,318,-91,594,70,131,291,239,749,121,238,105,365,327,172,343,186,386,322,212,222,417,768,271,465,321,94,271
173685,-414,-242,347,40,-34,298,-12,616,92,125,295,267,776,108,225,235,420,363,201,365,243,474,474,262,258,442,790,445,561,376,145,381
173686,-405,-290,367,47,-36,328,25,641,93,130,343,274,777,110,252,241,420,388,181,361,249,426,515,258,253,431,781,526,567,384,180,380
173687,-391,-296,385,39,-39,353,76,653,73,121,364,279,744,81,247,236,306,324,122,319,218,406,351,151,185,387,750,184,415,298,90,223
173688,-404,-239,383,15,-42,289,55,629,40,63,305,271,728,31,208,240,282,293,89,249,152,428,269,122,109,331,664,214,394,235,12,297
173689,-486,-217,330,-13,-31,269,3,581,9,51,261,227,673,0,177,229,253,257,44,221,102,479,223,89,83,284,603,322,395,207,-2,358
173690,-489,-199,292,-27,-20,248,-4,557,-8,44,238,199,647,7,152,254,280,212,28,192,102,465,216,57,40,252,627,247,352,143,-34,298
173691,-446,-217,309,-20,-24,274,-19,569,-4,66,151,208,655,4,148,200,324,217,21,203,110,538,232,47,27,253,633,244,352,148,-31,253
173692,-416,-196,340,2,-23,301,-16,607,27,88,253,282,662,28,189,156,395,252,43,235,125,603,279,60,53,272,638,316,398,199,26,332
173693,-391,-142,356,18,-48,314,-5,660,63,107,293,327,717,55,196,184,442,317,86,265,132,558,373,105,97,315,624,464,491,270,66,347
173694,-377,-104,398,69,-50,327,28,705,86,131,326,298,752,82,209,189,483,342,117,283,163,567,390,138,127,324,610,447,482,255,39,349
173695,-361,-108,420,92,-39,332,54,655,87,133,388,295,758,94,247,232,502,339,126,303,181,628,323,127,147,337,612,219,401,230,60,397
173696,-380,-136,429,106,-21,333,96,699,114,132,397,335,773,111,265,256,496,373,151,322,185,573,341,151,180,391,660,219,442,300,109,455
173697,-393,-143,429,98,-14,326,110,737,108,143,399,352,781,103,242,224,487,377,163,308,187,478,382,180,188,371,645,311,477,308,65,420
173698,-383,-162,429,45,-28,273,68,657,48,88,342,309,730,66,198,210,428,354,141,286,151,408,368,165,172,339,598,330,436,238,-21,272
173699,-366,-177,403,14,-28,269,88,622,37,63,329,307,706,50,189,204,429,342,129,277,126,359,335,152,158,339,608,299,410,216,-47,194
173700,-387,-181,382,-2,-23,284,82,637,28,84,317,350,701,70,187,231,405,377,129,281,113,342,358,169,175,350,619,370,432,200,-46,139
173701,-376,-181,401,5,-32,262,70,634,32,108,311,377,713,68,226,279,391,399,158,311,159,382,373,197,189,382,675,248,388,183,-26,233
173702,-344,-130,436,46,-35,271,128,661,74,118,295,384,764,113,241,215,398,433,187,340,153,402,400,220,237,391,631,205,392,238,29,252
173703,-309,-105,480,78,-27,302,182,717,93,132,300,370,793,147,263,196,404,458,204,360,132,373,490,251,287,394,598,261,424,232,17,200
173704,-289,-78,484,73,-42,309,256,725,121,139,340,378,826,165,273,300,409,450,244,366,143,237,486,288,304,424,654,253,445,265,61,204
173705,-294,-26,494,73,-42,327,238,726,104,137,350,361,826,163,260,312,406,429,231,365,165,394,335,244,303,437,686,234,425,254,71,259
173706,-344,-127,468,73,-44,330,208,705,108,145,381,353,825,169,279,281,422,431,241,381,169,473,331,237,326,436,682,237,418,279,103,334
173707,-361,-145,480,90,-24,319,135,730,124,149,352,392,848,167,265,198,530,503,260,362,119,386,502,277,326,423,582,336,480,299,80,335
173708,-376,-134,500,42,-20,289,40,697,81,103,321,366,817,124,213,152,459,463,219,319,53,357,431,243,271,349,498,297,486,249,-2,262
173709,-419,-171,436,2,-37,274,-22,690,46,65,277,345,777,88,162,207,402,395,185,281,8,257,363,198,228,295,451,275,433,219,-54,153
173710,-421,-147,432,22,-30,266,-4,697,56,62,219,342,776,90,122,100,343,405,174,247,-40,218,341,172,207,264,417,267,392,176,-122,27
173711,-427,-149,421,16,-29,260,40,697,47,55,190,351,781,88,103,2,322,405,179,242,-56,224,339,172,200,255,407,181,356,146,-163,25
173712,-426,-150,408,8,-37,288,88,702,85,79,202,358,800,108,139,40,409,429,210,256,-21,301,363,180,217,262,451,122,322,84,-202,4
173713,-408,-147,425,22,-43,306,150,704,95,113,259,388,832,173,177,134,454,478,261,320,31,346,444,257,268,325,531,238,426,169,-106,110
173714,-390,-161,484,33,-47,339,179,735,118,147,295,429,853,213,204,203,489,534,297,374,80,430,501,330,333,399,587,345,531,294,35,224
173715,-406,-119,507,36,-45,342,173,747,122,159,348,446,849,213,233,252,508,544,309,396,99,437,505,360,351,388,569,431,579,330,32,266
173716,-371,-94,519,33,-38,340,106,769,103,151,333,501,848,185,241,217,543,523,316,387,109,410,537,377,347,391,588,536,624,349,66,328
173717,-382,-79,489,21,-38,335,115,734,86,129,354,491,812,143,223,216,598,481,267,353,84,492,516,302,293,361,556,434,527,275,0,214
173718,-374,-70,463,2,-42,318,154,685,46,105,338,421,775,122,194,194,547,445,220,318,60,464,456,266,267,330,558,308,453,215,-39,226
173719,-408,-88,480,-29,-31,295,140,632,8,73,302,383,732,107,167,237,494,450,199,292,66,403,458,256,254,343,610,332,478,223,-24,325
173720,-408,-134,493,-29,-32,276,53,673,10,67,302,401,739,93,171,297,532,452,191,310,102,494,517,267,248,359,692,433,546,279,11,316
173721,-361,-121,508,7,-26,281,54,680,27,87,405,421,749,83,209,316,586,462,209,338,159,560,550,317,281,411,776,449,609,377,114,411
173722,-305,-57,594,24,-29,316,150,736,48,100,414,477,773,87,204,272,671,504,228,348,168,540,575,329,295,421,778,488,626,387,154,456
173723,-259,-3,669,66,-39,334,249,806,72,101,343,518,814,103,230,312,685,540,219,351,160,571,564,316,281,395,713,437,541,290,3,276
173724,-250,3,630,75,-36,356,263,799,78,109,416,521,809,114,284,393,624,539,232,367,205,545,596,356,309,448,721,501,627,412,169,475
173725,-271,14,580,65,-55,379,267,795,66,125,430,496,774,96,285,486,604,516,228,384,233,615,586,326,288,463,773,482,606,443,232,654
173726,-260,-5,606,77,-23,404,300,814,94,167,382,518,796,110,319,566,658,516,222,367,244,673,600,290,272,471,819,417,571,418,218,652
173727,-321,-72,561,32,-38,374,278,746,45,130,370,453,741,60,274,557,558,444,134,296,207,620,532,228,198,387,729,304,471,223,-34,266
173728,-351,-44,533,0,-43,361,244,694,14,102,313,400,706,36,223,359,472,377,100,260,153,581,422,183,155,337,671,370,416,184,-97,151
173729,-360,-62,528,-12,-27,332,169,666,0,92,261,403,680,16,188,134,498,353,76,214,73,575,394,157,117,300,607,369,404,189,-86,163
173730,-374,-19,491,-39,-31,307,135,638,-29,65,240,364,652,-8,156,75,450,297,51,179,21,532,346,113,92,267,556,249,363,172,-49,280
173731,-372,-11,492,-23,-33,330,114,633,-13,72,296,335,662,19,172,172,451,297,70,203,42,597,341,100,119,292,599,308,375,217,33,418
173732,-348,-51,509,-19,-33,359,119,644,3,104,313,347,674,32,204,212,481,314,91,222,52,610,371,115,121,294,568,392,412,237,13,343
173733,-326,-54,551,-1,-45,398,159,663,16,144,343,366,680,58,228,302,492,339,103,245,60,553,428,141,140,280,562,402,424,210,-63,198
173734,-320,-35,514,3,-51,396,172,684,57,153,318,379,708,99,258,369,516,358,119,276,127,594,440,162,172,352,720,468,480,286,45,333
173735,-336,-16,510,-6,-66,405,158,660,47,156,384,343,692,94,277,257,473,316,108,289,148,611,326,107,161,361,784,414,448,259,17,240
173736,-320,5,571,4,-51,412,141,651,38,166,435,330,697,102,291,177,462,295,122,308,146,644,275,87,161,378,810,306,385,213,16,243
173737,-329,-31,593,-12,-51,381,154,635,47,142,417,343,687,93,253,227,443,286,95,282,137,595,277,75,126,360,718,228,294,140,-2,328
173738,-323,-73,565,-42,-31,350,195,595,12,110,356,354,683,69,227,275,487,294,90,275,128,512,329,104,140,346,635,267,345,195,15,350
173739,-312,-50,500,-45,-17,307,158,572,-9,100,352,348,693,61,227,288,445,314,91,273,129,550,339,117,157,350,632,305,403,265,83,413
173740,-351,-71,480,-37,-36,275,117,631,2,78,358,359,675,59,207,261,433,320,84,249,125,575,362,129,154,357,633,410,477,285,83,376
173741,-342,-108,500,-9,-28,319,126,646,16,103,363,338,716,87,216,237,460,349,127,294,151,548,383,154,171,399,637,397,459,298,79,305
173742,-281,-31,556,16,-32,326,196,666,36,109,405,373,739,89,228,288,519,400,145,318,174,480,421,201,214,436,700,376,488,334,138,418
173743,-244,27,611,18,-57,335,257,689,30,118,396,460,749,85,259,360,559,436,151,329,174,506,431,221,219,434,735,306,471,333,169,416
173744,-218,80,607,29,-50,368,259,725,78,165,476,505,790,137,300,398,575,484,195,375,221,607,494,254,260,483,768,398,554,400,240,500
173745,-217,92,628,42,-38,349,242,740,99,154,455,554,807,173,310,393,617,501,243,405,253,696,534,300,305,553,860,443,621,457,318,616
173746,-218,77,647,53,-34,387,276,768,111,179,467,621,822,197,342,430,707,555,258,447,270,781,602,323,330,562,915,435,628,475,299,541
173747,-223,95,647,28,-28,363,339,778,84,170,480,587,811,174,354,451,744,543,248,425,274,715,582,312,301,507,845,487,643,443,230,404
173748,-275,89,583,0,-17,337,337,728,28,126,432,526,743,129,329,461,659,462,190,382,209,611,487,243,247,447,772,471,567,363,183,389
173749,-302,74,537,-39,-13,362,313,653,0,117,420,487,693,105,280,435,561,386,153,329,151,464,424,181,196,370,664,414,515,304,87,313
173750,-312,51,509,-80,-41,312,247,601,-29,105,389,433,636,67,252,331,427,345,97,287,75,323,363,113,138,294,544,345,445,240,-25,202
173751,-312,-1,518,-65,-43,316,193,595,-19,104,350,350,635,59,211,229,386,317,90,274,36,365,350,116,147,278,490,327,441,231,-32,188
173752,-270,-20,531,-40,-37,361,217,637,-13,113,372,344,651,73,227,165,404,303,121,294,38,315,359,130,174,287,496,287,415,213,-76,160
173753,-201,51,569,0,-38,354,250,674,6,137,392,390,697,99,247,187,469,345,153,307,60,326,380,156,205,317,563,283,423,233,-12,223
173754,-144,154,589,20,-39,374,291,671,47,144,421,380,718,127,261,282,494,367,180,350,110,435,379,178,244,356,637,277,417,235,11,226
173755,-109,198,613,40,-30,395,344,670,72,154,436,417,746,153,280,296,518,405,200,385,136,430,430,216,287,413,701,327,482,297,68,253
173756,-96,188,628,66,-21,384,335,719,83,156,428,436,758,162,285,272,509,425,226,405,137,382,418,255,322,421,626,311,485,285,62,196
173757,-100,175,608,33,-29,387,340,685,67,144,440,389,740,145,278,286,451,395,226,404,137,363,373,243,319,432,616,270,476,281,77,240
173758,-119,151,546,-3,-32,350,322,641,27,101,393,316,708,120,228,265,415,355,199,369,103,328,345,199,284,395,583,309,452,252,28,173
173759,-204,82,492,-34,-36,302,251,621,-6,69,355,271,670,87,205,188,378,288,158,348,53,235,299,178,248,343,496,255,412,207,-25,104
173760,-241,61,454,-66,-36,330,237,586,-27,90,364,223,637,85,193,279,296,239,158,316,25,256,260,145,227,325,438,191,392,178,-49,121
173761,-167,104,457,-64,-36,345,245,560,-22,85,380,230,647,111,214,398,260,263,173,353,79,303,268,156,259,337,416,203,375,199,-9,105
173762,-132,76,480,-64,-34,382,190,584,5,127,366,247,700,155,241,396,298,300,213,413,144,320,321,214,306,399,523,272,438,237,50,222
173763,-176,37,486,-50,-23,417,145,620,58,164,490,271,737,196,282,316,381,364,266,451,182,336,407,276,382,464,613,423,551,348,115,305
173764,-203,51,440,-41,-18,423,149,631,85,188,549,277,783,213,325,329,400,414,323,505,242,414,446,308,429,531,713,438,568,382,144,234
173765,-207,85,419,-52,-41,426,143,644,75,192,537,259,776,225,326,341,341,422,323,487,250,449,432,302,415,523,753,339,503,333,101,253
173766,-223,86,430,-68,-40,412,151,633,57,197,529,301,739,212,340,313,330,438,301,479,259,444,504,312,402,524,723,381,515,302,29,169
173767,-249,60,386,-64,-54,406,188,598,65,190,550,303,741,191,315,202,419,429,300,470,244,471,525,328,392,505,660,497,585,347,88,261
173768,-243,65,398,-58,-42,387,206,576,55,192,498,241,729,200,324,164,468,396,291,458,231,509,372,264,389,496,628,388,527,353,104,357
173769,-285,31,351,-100,-43,350,149,484,0,147,378,207,665,162,286,214,390,304,242,421,210,506,274,191,327,473,616,108,376,229,31,268
173770,-289,-1,314,-126,-43,342,190,476,-1,146,424,175,655,155,307,283,351,306,232,420,209,520,299,222,324,472,659,214,421,265,112,376
173771,-326,-20,292,-89,-45,334,277,522,8,126,413,172,669,160,301,320,398,311,207,415,197,530,323,198,321,475,682,217,410,263,72,384
173772,-304,-50,327,-65,-54,368,209,542,13,131,419,203,687,142,302,405,410,317,210,396,233,590,359,212,316,474,717,243,463,264,54,264
173773,-251,35,412,-52,-44,380,220,547,40,161,461,240,705,159,331,406,437,361,235,423,264,672,437,253,348,515,790,389,563,342,166,342
173774,-214,133,469,-31,-38,410,307,582,51,195,505,255,741,179,371,447,438,384,249,450,289,682,465,279,334,515,785,411,578,382,211,456
