,Fp1,Fp2,F7,F3,Fz,F4,F8,FC5,FC1,FC2,FC6,T7,C3,Cz,C4,T8,TP9,CP5,CP1,CP2,CP6,TP10,P7,P3,Pz,P4,P8,PO9,O1,Oz,O2,PO10
70531,293,240,191,313,139,538,684,232,21,-161,354,-508,56,-92,226,68,-24,-67,22,-29,-6,239,143,-120,369,18,217,-207,125,76,-270,-120
70532,288,250,168,296,143,551,672,216,25,-149,357,-499,75,-59,247,68,0,-72,19,-17,4,250,174,-83,389,23,243,-194,114,62,-239,-99
70533,289,229,214,314,128,560,667,249,42,-134,149,-507,81,-45,276,18,-2,-91,27,0,5,234,160,-93,371,23,263,-259,25,28,-218,-78
70534,262,220,182,306,127,557,629,212,38,-100,256,-529,42,-76,334,31,-32,-106,16,7,19,205,127,-117,348,26,253,-313,-21,3,-240,-76
70535,290,247,172,295,118,551,662,213,33,-118,509,-524,76,-76,251,57,2,-89,33,3,12,231,178,-98,371,43,250,-243,41,50,-203,-73
70536,274,245,147,273,106,537,679,201,10,-151,468,-532,45,-91,208,68,-5,-106,24,-22,11,234,181,-107,360,29,262,-219,66,50,-189,-89
70537,279,226,116,251,113,573,682,164,9,-119,448,-582,27,-80,223,45,-44,-121,-7,-32,-6,223,156,-111,355,24,236,-221,61,62,-221,-98
70538,294,253,122,252,121,568,723,171,22,-107,425,-571,23,-79,253,37,-33,-119,-27,-35,3,232,175,-116,332,10,201,-213,105,97,-231,-115
70539,287,227,131,253,112,538,664,167,3,-111,383,-589,12,-83,254,30,-11,-119,-16,-37,17,257,188,-113,323,16,222,-179,152,135,-169,-79
70540,282,213,100,257,111,519,604,162,4,-130,374,-594,15,-90,261,4,-40,-104,-7,-26,17,226,216,-77,336,24,254,-93,222,187,-130,-81
70541,270,192,84,243,107,512,589,151,-14,-148,381,-584,-4,-88,218,23,-7,-107,-38,-63,-49,221,184,-96,307,-24,195,-135,137,60,-256,-148
70542,322,239,113,250,134,545,633,198,7,-128,387,-558,21,-78,224,69,47,-107,-18,-38,-2,315,192,-113,312,18,248,-178,100,28,-245,-86
70543,338,258,118,257,126,533,692,191,13,-121,396,-539,24,-73,239,69,43,-76,8,-3,26,353,247,-89,320,40,281,-55,208,134,-162,-66
70544,321,235,147,271,119,501,654,168,2,-118,374,-519,27,-103,238,58,55,-73,-10,-20,17,295,265,-83,323,16,257,-23,220,140,-187,-112
70545,347,251,143,280,140,527,663,185,29,-103,386,-524,50,-93,276,-4,76,-65,13,-5,29,301,283,-66,363,57,289,-49,232,150,-167,-82
70546,330,260,144,267,146,518,688,167,45,-120,400,-508,56,-90,282,18,91,-43,31,11,46,355,310,-68,386,64,320,-10,237,156,-144,-35
70547,329,271,196,303,160,510,669,192,48,-124,355,-493,73,-87,271,78,130,-24,21,5,41,373,292,-74,376,78,312,-122,139,111,-178,3
70548,308,217,165,308,117,498,608,174,55,-134,270,-515,75,-84,318,-7,109,-60,10,-6,20,324,282,-87,344,44,260,-121,130,84,-181,-18
70549,264,185,134,311,117,507,603,161,54,-137,287,-498,75,-75,350,-25,94,-64,22,-14,36,288,276,-84,363,52,258,-92,123,78,-183,-29
70550,313,213,173,328,138,492,636,181,57,-160,396,-503,85,-85,218,75,150,-25,31,-26,60,352,288,-70,332,33,275,-106,96,65,-239,-19
70551,299,217,145,290,123,507,619,169,31,-161,556,-491,71,-90,193,91,121,-33,20,-36,40,336,293,-73,297,3,273,-72,107,59,-240,-39
70552,300,220,139,299,122,540,665,173,33,-136,558,-513,69,-97,291,86,111,-36,28,-26,55,353,301,-88,310,19,289,-64,141,92,-214,-38
70553,349,281,209,333,150,584,778,246,65,-118,443,-463,117,-73,315,169,193,13,85,14,121,407,361,-13,382,86,342,30,269,202,-121,50
70554,360,297,196,327,152,607,821,222,55,-98,485,-460,134,-74,332,227,206,45,109,25,155,426,393,20,422,118,362,81,305,230,-85,54
70555,372,334,222,326,161,595,738,239,52,-79,524,-448,154,-43,357,228,225,68,125,49,174,505,424,57,442,154,401,89,317,252,-63,90
70556,359,305,188,314,147,582,748,231,38,-93,474,-450,133,-27,330,213,251,42,116,44,145,509,421,59,440,132,394,69,286,222,-56,149
70557,296,237,194,294,112,537,727,224,37,-115,450,-469,124,-52,312,153,228,30,117,33,96,448,400,38,411,112,357,105,264,203,-81,135
70558,293,265,191,279,120,569,756,210,36,-124,479,-434,133,-47,324,107,248,50,119,32,87,390,434,58,410,106,340,171,332,252,-69,97
70559,300,265,189,281,127,569,734,231,47,-126,456,-432,153,-38,330,85,252,38,111,24,82,389,440,66,417,102,327,206,383,277,-70,97
70560,333,290,237,332,129,559,694,271,51,-132,422,-431,150,-62,309,95,280,40,95,0,64,394,431,56,405,77,289,140,360,222,-143,8
70561,372,319,248,350,132,567,749,292,53,-138,444,-409,147,-35,315,154,303,37,102,11,91,421,459,58,440,71,304,135,339,209,-139,21
70562,385,302,292,366,134,532,713,323,86,-136,417,-403,161,-13,330,137,337,74,138,52,96,408,481,82,460,109,336,192,383,316,-55,72
70563,326,275,192,343,105,526,700,240,94,-147,379,-435,157,2,324,99,318,63,136,59,79,413,450,50,451,106,322,120,298,276,-33,99
70564,313,246,221,346,114,534,699,176,86,-157,401,-428,154,-6,271,123,284,17,104,24,56,413,395,1,426,75,313,-33,157,144,-110,51
70565,330,233,213,363,110,510,708,254,87,-160,414,-428,148,-13,254,126,242,11,102,1,64,385,336,0,399,39,290,-64,130,120,-173,3
70566,345,261,217,344,100,545,731,306,78,-135,440,-411,150,9,280,129,227,46,116,35,64,374,353,7,418,44,293,-6,198,159,-130,13
70567,354,255,244,333,90,552,705,278,81,-114,441,-395,136,10,292,118,214,38,140,51,72,390,378,17,422,54,301,6,228,179,-130,26
70568,321,245,184,301,76,553,704,223,74,-123,447,-373,165,13,317,138,249,56,153,75,98,420,370,28,443,80,320,40,243,182,-159,12
70569,333,262,174,305,89,590,754,193,64,-89,499,-406,165,22,376,137,278,62,164,122,151,431,380,62,475,132,374,45,284,221,-72,65
70570,308,239,152,302,93,607,764,179,41,-84,523,-449,126,5,386,103,221,-7,134,124,134,402,354,14,457,140,348,1,239,209,-90,60
70571,286,236,110,296,61,578,737,165,29,-97,465,-470,88,0,343,106,177,-38,113,95,101,418,306,-10,428,98,321,-18,211,173,-130,32
70572,278,210,115,270,75,581,702,176,20,-83,431,-506,66,3,331,119,118,-50,87,76,72,393,269,-48,399,54,302,-66,168,132,-175,-25
70573,263,183,95,222,73,589,693,127,11,-65,229,-516,56,12,374,64,105,-79,77,78,43,352,258,-75,408,74,282,-67,157,138,-132,1
70574,210,153,39,185,41,588,662,72,-6,-57,168,-567,9,-3,441,7,76,-116,42,69,24,301,204,-137,359,53,257,-118,113,100,-169,0
70575,212,161,34,188,47,591,576,127,-4,-62,558,-571,28,-23,433,49,96,-103,56,66,69,291,222,-131,377,52,278,-88,143,120,-164,-3
70576,254,225,127,246,66,542,716,210,33,-135,583,-506,100,1,178,203,154,-64,99,63,63,355,278,-75,416,62,316,-32,198,174,-107,41
70577,247,196,101,252,61,505,700,184,23,-123,428,-549,83,-1,241,112,106,-63,95,88,57,301,253,-92,410,52,285,-33,214,214,-161,6
70578,241,172,132,255,76,515,682,138,47,-94,439,-533,74,-4,290,96,50,-73,101,92,61,240,236,-80,411,67,263,-25,248,220,-174,-37
70579,239,163,166,269,82,522,702,151,52,-123,432,-554,62,-14,283,90,42,-106,80,74,56,247,201,-97,389,64,260,-72,199,178,-162,-15
70580,239,160,128,271,62,483,636,176,57,-138,342,-540,74,-34,254,12,66,-86,62,46,12,233,175,-109,370,49,282,-100,137,148,-161,44
70581,263,159,160,300,77,492,585,200,73,-119,362,-520,81,-33,311,-28,7,-96,63,39,6,236,144,-126,361,40,258,-206,54,81,-179,31
70582,257,147,116,271,78,498,628,179,52,-112,418,-544,75,-22,342,-28,20,-114,68,24,22,209,102,-157,315,-7,203,-231,-15,0,-263,-97
70583,306,157,175,322,104,460,616,235,75,-146,319,-497,133,10,250,38,112,-59,112,59,41,276,166,-101,373,31,235,-125,55,58,-230,-83
70584,294,135,165,315,85,461,639,231,61,-150,309,-505,139,4,264,36,91,-19,118,83,19,230,203,-71,426,56,259,-87,126,150,-135,-36
70585,290,131,163,317,87,482,668,225,71,-102,397,-484,132,6,309,71,48,-11,112,73,-23,200,184,-74,412,23,230,-135,80,69,-219,-90
70586,308,142,224,326,84,496,610,263,82,-121,342,-434,137,-7,285,-1,68,-19,138,57,-23,216,223,-55,400,16,217,-148,82,38,-279,-96
70587,315,145,219,306,90,510,616,232,46,-135,332,-501,111,-28,301,-11,45,-64,111,48,-32,229,179,-80,380,0,183,-160,75,50,-267,-144
70588,276,136,143,291,73,512,596,223,22,-135,354,-536,111,-27,299,-12,36,-74,91,45,-36,222,143,-100,370,16,201,-138,83,71,-238,-104
70589,260,138,139,287,78,510,600,216,58,-115,343,-544,121,-29,282,-52,57,-70,97,60,-43,209,169,-85,368,51,218,-122,127,101,-220,-95
70590,234,143,145,264,88,532,602,209,62,-112,331,-544,105,-27,286,-42,22,-79,80,41,-37,202,197,-109,369,44,232,-156,90,118,-203,-71
70591,239,150,134,259,74,514,573,183,25,-142,324,-565,66,-67,268,-116,30,-109,32,2,-43,174,151,-157,349,-8,223,-147,67,79,-209,-92
70592,239,180,87,238,83,509,576,175,15,-152,331,-595,49,-94,237,-102,38,-134,12,-22,-29,155,131,-170,331,-14,214,-137,86,106,-212,-81
70593,261,200,92,235,106,513,626,179,19,-150,331,-587,76,-75,226,-24,64,-103,45,-14,-12,137,154,-119,344,17,221,-74,138,140,-183,-99
70594,297,189,127,274,111,531,591,201,54,-153,359,-548,74,-77,244,2,107,-87,44,-6,-6,174,194,-101,367,35,259,-3,187,166,-150,-58
70595,333,252,170,313,132,546,638,222,77,-143,334,-520,123,-53,260,-5,112,-65,75,14,-16,231,245,-66,402,9,246,47,253,238,-119,-1
70596,325,260,137,306,137,517,671,209,55,-154,320,-508,123,-71,273,-9,78,-31,74,15,-12,211,271,-58,396,9,231,49,273,246,-119,-4
70597,316,258,152,288,150,526,672,203,66,-147,396,-511,122,-62,253,-29,46,-38,71,23,-6,180,226,-65,363,6,208,-21,222,189,-143,-35
70598,325,247,211,312,136,511,603,226,72,-159,392,-472,149,-28,219,-56,94,-26,112,38,-10,212,264,-30,409,26,226,-5,257,207,-97,-3
70599,352,270,210,306,144,521,661,225,71,-162,339,-448,170,-33,255,-37,118,-4,132,43,-10,243,277,-25,428,43,216,-43,233,166,-119,-15
70600,371,281,220,308,139,516,692,247,81,-173,291,-429,168,-40,280,-28,145,14,131,29,-7,275,282,-5,424,34,220,-98,186,142,-136,9
70601,383,325,243,308,139,554,705,271,92,-146,327,-411,190,-34,351,-20,204,65,164,56,-2,276,332,27,445,77,229,-9,238,208,-118,25
70602,391,313,238,337,160,574,652,299,112,-144,419,-416,225,-13,292,43,234,98,178,84,25,285,405,88,477,116,261,94,354,308,-38,62
70603,406,333,255,371,167,547,694,307,106,-172,402,-377,254,-6,177,99,214,126,195,70,51,346,440,121,500,143,323,103,414,348,20,117
70604,374,321,232,361,168,582,707,281,109,-136,425,-416,230,-9,261,57,163,81,172,74,28,350,399,82,477,122,304,77,356,290,-42,84
70605,372,297,196,371,156,571,658,272,124,-130,389,-408,253,-4,290,82,183,85,162,71,61,385,395,62,451,93,286,50,248,180,-137,25
70606,346,275,184,362,156,599,658,210,126,-102,318,-400,252,5,333,41,163,92,168,95,66,351,409,62,473,107,266,103,273,184,-158,-12
70607,306,247,164,319,156,613,659,141,102,-76,280,-487,190,-18,421,56,112,46,129,89,62,337,351,21,446,92,256,72,283,154,-155,-12
70608,335,283,171,305,138,617,668,291,97,-75,518,-456,217,-21,412,104,137,56,162,110,85,330,368,49,468,119,267,105,330,196,-140,-28
70609,374,317,251,285,146,582,769,363,65,-129,577,-389,196,-8,299,239,152,84,171,125,144,376,406,59,492,149,339,149,383,267,-79,48
70610,323,279,150,275,123,574,696,221,63,-125,468,-458,169,-11,322,208,172,37,156,121,118,322,402,42,467,146,365,165,397,310,-17,127
70611,302,267,144,279,142,581,678,227,73,-93,372,-474,177,-19,351,87,152,31,146,98,81,309,399,43,454,131,358,176,337,289,-6,170
70612,286,242,139,258,122,557,665,224,27,-117,386,-504,135,-34,338,86,82,-34,81,44,51,315,299,-42,389,56,292,-2,157,118,-157,64
70613,288,255,161,279,121,572,694,223,54,-115,469,-498,146,-8,313,139,95,-38,95,63,73,317,328,-24,388,80,282,-49,170,143,-131,-6
70614,311,262,127,273,131,547,684,197,46,-123,450,-499,138,-15,328,86,139,2,126,88,104,331,368,14,448,124,317,37,258,228,-60,57
70615,320,259,103,262,112,553,670,123,36,-117,438,-552,108,-1,366,61,160,-2,143,114,134,399,352,19,464,173,362,27,288,251,-29,112
70616,318,284,161,290,124,592,701,183,43,-94,478,-514,147,1,368,84,209,7,169,119,167,435,365,58,485,191,381,23,277,220,-96,6
70617,317,272,148,291,117,582,750,216,42,-99,507,-478,178,8,389,175,250,51,211,171,209,436,421,124,539,248,439,136,360,310,-15,77
70618,337,255,163,299,109,537,685,208,58,-105,504,-444,203,22,430,197,234,90,237,209,260,435,447,175,578,296,490,170,426,404,72,131
70619,324,235,184,292,97,526,689,224,76,-113,433,-425,207,25,429,204,229,114,256,227,282,501,461,201,611,331,520,210,484,452,153,177
70620,272,222,155,268,67,522,683,198,77,-124,449,-451,197,15,393,244,189,110,240,208,190,489,434,178,603,300,517,108,409,399,105,165
70621,276,208,168,277,70,493,631,208,71,-116,409,-442,205,18,384,206,174,92,250,214,194,471,415,156,584,303,495,11,321,322,58,130
70622,258,199,153,284,82,491,645,206,55,-116,406,-455,176,9,373,193,127,72,217,203,202,446,335,120,546,287,494,-43,266,261,11,99
70623,268,198,181,282,97,523,672,215,77,-107,448,-452,168,29,400,177,142,60,207,194,194,433,319,114,562,276,472,-17,260,251,-6,78
70624,222,144,145,273,72,523,652,196,51,-104,412,-492,134,38,402,140,118,22,192,206,177,428,297,76,544,286,445,-4,275,262,-10,65
70625,197,148,99,251,55,513,604,171,43,-88,393,-518,125,25,416,141,89,3,174,205,168,427,272,55,532,284,468,-48,252,259,1,123
70626,216,131,112,258,47,505,610,167,58,-95,378,-533,139,46,433,126,77,-15,176,206,176,402,287,48,537,269,484,-12,294,308,44,144
70627,204,131,84,239,48,510,637,153,52,-123,408,-569,102,23,411,131,74,-51,162,162,168,379,258,2,517,229,453,-39,266,271,28,114
70628,224,141,75,230,49,546,653,150,46,-124,414,-572,86,22,369,126,74,-76,126,163,132,415,251,-31,493,186,444,-95,168,152,-62,81
70629,250,153,92,224,81,558,661,155,50,-84,425,-576,93,35,454,132,42,-81,129,175,157,383,237,-42,490,225,454,-95,157,162,-34,115
70630,216,173,83,220,66,558,698,178,33,-92,436,-534,91,14,440,162,89,-78,127,169,175,331,251,-23,482,232,439,-37,239,231,9,138
70631,264,226,178,255,78,577,740,213,31,-103,510,-513,110,6,368,199,177,-55,119,176,189,402,288,5,501,248,470,29,275,264,58,207
70632,309,240,183,278,108,606,747,195,28,-110,537,-475,112,5,361,169,205,-17,152,170,159,407,339,52,526,250,481,96,304,314,97,240
70633,329,267,203,310,107,607,739,219,48,-87,546,-417,147,33,433,211,242,30,187,184,202,477,383,72,559,291,528,140,380,371,140,334
70634,347,290,228,307,101,619,795,299,51,-96,559,-401,165,26,390,236,261,49,198,165,209,476,399,54,531,253,496,112,327,303,71,287
70635,400,316,286,347,115,620,820,342,68,-87,518,-371,169,23,375,219,287,85,207,171,190,485,404,67,512,220,452,116,276,234,32,209
70636,394,306,335,366,115,565,761,341,74,-111,468,-380,194,15,383,163,330,112,199,160,185,515,460,117,511,226,468,207,386,306,89,261
70637,373,305,277,330,103,578,770,347,75,-101,544,-340,216,37,422,199,381,153,233,192,207,529,519,152,545,248,497,254,433,362,118,314
70638,377,307,258,320,86,562,750,308,72,-100,589,-333,206,40,415,249,396,164,227,184,203,552,519,160,540,256,484,261,434,378,120,318
70639,380,295,285,341,96,561,793,323,47,-112,487,-315,221,52,400,251,385,157,229,201,210,550,509,158,525,258,511,212,388,375,111,304
70640,370,288,293,350,98,569,798,359,57,-116,467,-277,251,46,400,256,390,179,254,199,231,536,508,162,555,252,491,200,407,350,70,247
70641,361,304,311,371,119,607,770,365,80,-93,544,-257,273,33,425,186,397,213,247,191,222,557,530,170,579,255,477,255,470,383,58,250
70642,335,287,283,339,122,616,776,332,75,-91,520,-286,251,21,408,165,357,179,220,174,216,560,471,140,546,229,483,252,450,355,63,267
70643,329,317,267,337,126,638,867,317,82,-75,523,-308,255,22,396,234,321,151,204,184,222,564,431,103,535,226,492,241,384,309,49,273
70644,345,325,242,321,134,629,781,259,95,-100,486,-366,224,10,426,230,310,101,202,196,209,542,394,71,532,222,468,177,386,351,92,288
70645,355,329,248,326,131,627,785,212,89,-82,452,-382,215,27,457,217,277,76,195,205,207,553,363,34,499,217,475,77,319,322,100,319
70646,337,328,212,320,126,663,825,277,85,-59,573,-410,205,5,460,222,258,24,190,184,213,550,331,11,477,190,446,67,284,278,35,206
70647,379,368,239,301,164,661,844,374,74,-88,582,-387,188,7,420,182,290,19,202,186,232,564,348,33,490,212,434,154,344,307,12,174
70648,388,372,277,314,182,693,827,329,66,-63,517,-396,180,-1,454,110,269,29,194,179,176,519,364,56,480,184,400,187,421,363,38,148
70649,380,368,221,274,161,702,797,211,51,-73,379,-467,161,-6,468,136,210,6,190,148,157,448,307,37,453,139,358,117,378,338,17,138
70650,382,363,229,279,170,666,774,228,48,-66,381,-480,147,-16,446,167,222,-3,185,127,138,369,287,23,445,128,310,94,297,296,5,177
70651,382,371,250,298,155,649,781,234,45,-101,644,-464,134,-45,380,159,237,-8,159,70,94,405,249,10,385,82,289,15,181,176,-71,137
70652,430,419,300,329,169,646,827,275,58,-131,631,-407,174,-49,348,191,235,26,166,90,109,430,263,14,404,100,312,-10,197,191,-70,129
70653,470,434,321,353,183,661,852,318,80,-108,590,-389,203,-21,402,190,260,58,188,111,124,452,325,44,439,124,312,43,262,223,-97,105
70654,484,436,327,393,206,663,867,338,90,-99,579,-369,223,-28,439,236,305,109,210,138,160,483,384,112,482,163,347,121,341,282,-47,134
70655,470,432,328,401,200,666,889,384,93,-86,606,-367,247,11,475,257,296,118,235,171,205,503,426,152,533,203,392,182,413,350,-13,194
70656,476,401,353,424,190,644,823,398,114,-115,583,-325,270,-1,388,251,326,143,249,159,188,537,442,161,527,215,415,177,377,335,-2,229
70657,483,398,380,442,176,661,830,413,124,-97,559,-332,285,-1,373,296,305,142,268,178,202,556,458,171,562,222,429,178,382,334,15,186
70658,465,410,354,450,189,653,838,396,125,-54,489,-310,295,32,445,267,299,156,285,213,237,557,477,190,570,263,427,183,438,377,25,171
70659,462,415,361,457,188,662,851,409,149,-43,575,-337,314,61,478,319,292,150,291,235,313,580,458,205,578,296,484,164,459,421,28,205
70660,446,411,331,418,167,670,869,352,141,-78,625,-361,291,49,405,299,272,133,261,236,280,547,439,171,576,270,465,170,481,418,10,185
70661,400,381,245,364,146,675,839,310,140,-80,575,-403,250,38,395,249,198,116,231,198,160,500,402,147,523,234,447,125,440,378,0,141
70662,388,354,230,356,134,637,779,316,117,-84,552,-407,240,34,431,186,186,89,219,203,184,463,378,109,506,247,439,85,387,333,-30,115
70663,387,347,189,358,165,623,747,298,109,-65,544,-392,249,52,434,212,191,98,223,229,210,451,398,120,532,272,439,81,393,330,-13,132
70664,357,314,183,332,160,629,699,301,97,-62,566,-415,218,59,457,219,156,70,208,223,218,415,392,108,527,256,433,67,374,347,1,169
70665,316,304,148,316,128,602,694,260,82,-73,492,-448,190,41,461,192,148,55,202,217,202,388,351,80,540,233,399,71,365,324,15,131
70666,311,324,127,306,144,614,743,226,71,-62,498,-479,179,33,431,203,136,31,196,203,188,376,338,89,532,212,348,68,339,287,-23,-37
70667,336,318,180,296,145,610,727,262,73,-78,495,-456,177,48,395,190,87,29,198,186,187,379,310,72,516,212,335,-15,262,255,-62,-25
70668,332,304,176,277,124,594,699,235,54,-88,476,-508,183,57,390,137,88,14,206,165,190,333,313,49,521,231,331,-68,210,255,-66,40
70669,343,284,196,287,115,583,718,230,52,-85,473,-516,188,37,406,111,70,23,200,142,164,238,288,51,504,218,296,-61,202,227,-87,-6
70670,334,278,213,297,135,595,706,260,57,-73,548,-461,203,37,422,159,81,50,222,179,154,260,307,97,548,226,291,-31,243,242,-29,-47
70671,363,312,262,332,161,559,668,260,77,-77,448,-400,215,61,393,127,173,91,260,212,149,287,373,159,598,241,301,18,293,279,-19,-60
70672,354,288,275,333,136,547,705,268,54,-89,402,-421,205,43,380,119,143,85,252,210,175,314,359,151,582,276,349,-43,274,277,0,-19
70673,316,263,279,318,133,555,695,282,61,-83,471,-447,200,52,413,134,109,88,255,224,212,297,350,158,609,307,390,-62,264,314,54,45
70674,270,227,198,289,121,535,661,257,65,-100,408,-459,204,78,434,157,135,109,274,261,235,349,393,206,631,354,407,43,371,383,77,51
70675,252,215,149,256,103,519,665,194,48,-96,393,-454,188,59,452,146,172,109,266,270,243,372,439,200,638,350,435,93,395,393,73,57
70676,237,227,196,258,98,533,664,206,45,-86,504,-435,189,54,460,175,178,80,290,295,301,389,440,198,658,381,524,94,394,429,139,141
70677,278,259,198,271,103,552,731,236,47,-79,540,-391,228,73,458,224,196,136,289,310,340,452,451,224,685,410,561,67,408,453,189,195
70678,269,224,179,265,91,535,726,213,35,-83,522,-380,206,76,517,234,173,141,277,301,342,501,452,209,665,414,578,60,404,457,233,270
70679,261,230,176,267,79,538,721,157,59,-63,504,-426,192,61,532,211,186,112,263,301,326,487,443,193,641,412,592,116,395,445,216,274
70680,255,185,165,264,74,554,653,169,62,-61,496,-416,190,97,532,198,164,112,255,283,307,467,455,205,634,403,572,171,418,416,178,211
