,Fp1,Fp2,F7,F3,Fz,F4,F8,FC5,FC1,FC2,FC6,T7,C3,Cz,C4,T8,TP9,CP5,CP1,CP2,CP6,TP10,P7,P3,Pz,P4,P8,PO9,O1,Oz,O2,PO10
83611,-4,192,253,71,166,388,570,262,286,387,331,558,255,152,287,418,332,79,-82,152,241,457,410,147,171,328,401,-194,432,304,175,472
83612,-36,235,239,98,137,420,582,269,290,390,363,525,260,135,290,415,352,77,-97,148,235,489,409,125,143,306,418,-99,452,299,201,470
83613,-41,208,229,89,143,403,542,284,299,367,338,512,261,141,279,393,350,75,-110,136,226,427,357,127,132,282,379,-139,432,267,151,428
83614,-50,165,243,59,152,383,521,329,287,380,347,536,252,144,286,328,295,64,-130,123,216,257,375,110,120,269,366,-294,392,241,130,271
83615,-73,111,229,59,137,348,528,368,290,382,367,591,259,126,279,395,250,74,-127,132,255,174,377,96,111,290,422,-402,378,220,120,199
83616,-102,72,213,38,120,376,534,230,270,396,381,535,235,131,301,450,272,51,-118,138,280,212,436,136,136,297,420,-272,435,262,145,266
83617,-125,51,231,32,131,398,481,190,266,424,376,473,217,174,310,440,295,51,-91,157,302,297,487,151,149,322,485,-175,471,289,165,270
83618,-97,52,271,65,147,386,444,276,305,420,312,487,268,177,289,354,317,79,-67,178,291,348,473,169,165,326,515,-298,478,325,199,318
83619,-73,65,181,86,151,372,427,365,313,410,307,495,261,148,273,315,278,71,-90,151,251,358,413,141,149,310,417,-593,406,301,198,289
83620,-78,92,154,88,152,382,441,367,280,406,332,537,239,147,282,344,251,57,-85,129,245,352,365,134,152,302,355,-460,378,308,184,305
83621,-82,114,228,64,127,391,504,284,271,384,335,513,204,113,255,293,210,10,-113,100,188,252,257,95,120,268,263,-311,334,284,168,390
83622,-81,80,257,70,114,416,536,270,263,392,325,466,218,114,247,273,206,4,-96,118,195,264,240,71,114,260,255,-267,352,250,121,299
83623,-118,68,263,76,112,401,466,295,259,395,317,491,240,143,276,374,255,49,-58,162,251,353,288,119,152,319,360,-150,440,328,158,372
83624,-86,132,326,88,149,405,463,267,273,412,311,460,211,149,275,387,282,58,-51,163,263,378,280,142,186,344,361,-126,447,357,209,382
83625,-78,136,289,76,135,414,482,238,260,398,355,450,191,128,269,332,277,39,-76,149,247,296,308,142,179,330,377,-231,433,319,208,179
83626,-96,9,250,53,118,434,476,209,234,401,367,462,183,126,288,297,253,46,-84,146,245,279,354,158,180,333,465,-215,439,324,181,128
83627,-82,-63,269,27,117,422,465,210,242,405,347,521,191,138,295,339,245,51,-71,155,249,283,320,151,167,317,411,-279,430,308,222,280
83628,-84,-102,301,47,114,467,380,259,271,440,395,613,227,153,327,428,325,126,-34,181,250,290,438,202,175,352,337,-196,520,376,292,402
83629,-96,-30,284,40,102,443,360,231,258,429,399,579,216,139,334,428,374,117,-31,173,274,173,478,208,195,348,338,-38,555,414,303,379
83630,-73,110,296,49,99,428,407,214,261,417,385,465,213,149,332,497,289,65,-53,167,307,193,415,177,192,354,458,-37,517,378,243,174
83631,-29,116,336,59,124,542,487,246,267,443,426,460,213,162,344,483,316,76,-55,189,326,361,432,185,202,380,543,-160,489,397,255,254
83632,3,92,331,61,116,499,481,272,256,425,370,520,209,152,321,396,308,73,-65,165,300,312,414,195,211,379,539,-229,497,417,302,349
83633,11,98,295,87,148,457,530,272,286,418,351,589,248,164,333,409,279,106,-52,179,275,356,432,202,245,389,441,-237,510,447,321,597
83634,5,99,259,105,129,420,539,296,293,390,318,603,263,168,313,397,376,176,-32,186,237,376,567,256,244,356,305,-47,596,485,364,695
83635,0,139,272,115,139,412,571,268,296,402,304,577,247,164,300,425,419,137,-54,177,250,355,478,218,212,319,294,-100,535,431,312,478
83636,9,194,304,111,145,425,609,254,313,405,350,590,266,151,306,426,391,100,-79,167,224,345,408,178,197,295,306,-175,489,382,243,314
83637,26,212,306,142,154,433,687,262,311,404,394,511,252,141,309,389,394,72,-79,163,227,370,371,188,177,328,386,-120,506,414,293,420
83638,40,181,338,132,157,432,604,274,318,415,335,500,241,150,292,273,390,72,-76,131,181,357,311,163,165,299,367,-126,484,387,279,353
83639,30,160,325,136,157,432,533,265,309,394,305,522,240,151,264,308,356,89,-95,114,178,380,320,124,168,280,342,-162,468,369,267,387
83640,12,154,267,103,157,384,493,236,272,405,312,501,237,143,262,385,327,84,-95,120,211,299,320,117,160,283,336,-128,490,385,262,414
83641,-2,137,273,79,160,431,437,223,285,400,364,498,221,109,261,407,324,56,-110,112,215,272,311,120,149,269,326,-126,490,366,240,328
83642,-44,127,264,41,156,447,462,241,284,419,409,487,222,134,284,431,308,54,-110,136,234,350,316,112,143,292,370,-162,461,363,256,328
83643,-96,78,237,99,144,441,422,269,290,410,416,541,243,141,310,418,375,93,-94,150,236,463,404,145,166,304,404,-126,483,361,231,371
83644,-118,-31,237,108,137,444,397,291,296,386,394,580,273,151,301,365,435,127,-82,145,233,431,533,177,169,290,377,-92,502,356,237,371
83645,-124,-60,214,98,147,450,404,307,302,389,397,639,298,163,302,331,454,179,-77,160,227,287,655,186,180,282,355,-211,508,334,204,296
83646,-176,-106,237,83,119,403,408,328,304,347,353,679,287,165,312,353,324,170,-60,161,237,291,586,168,189,287,406,-325,491,308,192,261
83647,-128,-91,269,77,101,404,378,286,288,364,384,669,265,148,297,368,213,107,-69,156,227,277,466,144,168,291,377,-499,447,305,182,240
83648,-55,-43,298,78,127,420,430,291,302,369,340,657,283,177,283,349,234,115,-48,169,219,299,455,142,187,302,359,-520,452,345,225,334
83649,-42,16,318,74,133,431,486,345,292,393,269,636,286,176,287,383,356,135,-49,158,224,383,455,143,175,309,349,-454,452,349,246,367
83650,-17,94,321,67,121,420,501,231,285,411,304,590,254,187,305,479,406,110,-55,184,254,428,380,150,207,323,356,-115,504,370,227,389
83651,10,157,333,53,112,385,517,164,293,396,350,544,238,197,306,423,351,86,-50,192,256,491,368,141,229,338,369,13,526,406,297,435
83652,-19,176,319,42,112,359,526,205,296,396,327,580,268,196,305,358,283,69,-62,170,245,404,339,131,209,318,358,-41,462,365,265,417
83653,-45,197,321,58,112,352,563,239,306,399,357,644,266,178,303,335,301,102,-56,173,223,308,372,154,183,302,310,73,511,367,250,340
83654,11,215,383,97,111,350,517,292,332,377,345,663,293,191,299,392,360,140,-40,181,235,423,425,175,204,333,381,85,575,419,312,399
83655,-4,171,386,87,123,351,483,273,294,362,322,566,268,174,306,396,456,121,-43,185,232,407,412,175,213,311,414,0,550,419,332,428
83656,-42,121,343,60,117,384,486,239,292,402,349,478,266,160,311,441,403,101,-44,174,254,394,349,152,203,327,460,-45,517,370,244,309
83657,-47,105,332,81,134,392,491,279,314,420,370,491,285,190,345,488,352,112,-35,190,308,425,360,168,215,335,502,-93,518,355,239,297
83658,-42,27,333,83,129,408,494,282,288,410,388,540,281,180,344,438,333,124,-24,194,272,356,415,169,204,311,474,-61,518,344,231,225
83659,-27,29,369,131,127,424,526,333,304,398,336,602,315,171,312,448,400,143,-5,193,244,291,441,167,207,316,448,-227,516,346,223,277
83660,-14,111,341,147,140,394,517,438,315,387,320,629,367,179,313,451,482,198,-1,201,223,299,571,221,240,329,372,-259,609,387,266,425
83661,-16,79,300,109,119,375,481,393,296,390,319,592,348,179,325,417,447,223,8,208,244,405,689,263,264,334,379,-165,650,420,305,453
83662,-88,13,219,90,105,436,452,304,269,388,327,571,301,178,295,376,371,166,-30,178,208,384,593,222,222,313,369,-146,563,376,287,408
83663,-104,23,203,99,116,498,443,268,268,390,358,544,283,163,298,414,398,124,-57,170,203,260,498,173,174,291,343,-200,506,352,277,373
83664,-112,55,209,110,98,411,486,275,273,394,352,558,272,166,298,452,442,131,-57,159,228,308,417,152,172,282,370,-31,489,349,250,352
83665,-54,129,282,118,114,374,518,274,278,398,360,603,279,159,300,455,446,140,-43,156,224,405,446,144,182,303,422,-54,482,324,213,394
83666,-51,94,256,102,116,412,457,278,271,399,353,604,265,144,285,367,406,135,-71,162,176,405,483,157,175,299,404,-133,483,317,269,416
83667,-48,102,183,139,125,421,492,317,292,406,343,637,276,155,303,297,374,153,-52,176,186,317,497,188,196,309,469,-123,501,324,276,205
83668,-53,85,207,134,129,428,512,361,295,415,377,655,292,166,327,374,383,176,-36,173,216,202,590,201,221,347,523,-68,536,313,177,89
83669,-56,50,267,103,126,420,489,342,287,417,413,697,291,164,339,526,329,155,-44,186,258,254,541,205,222,354,504,-259,514,352,219,294
83670,-66,89,280,90,132,361,469,393,307,405,425,716,310,179,338,456,317,158,-22,199,262,297,454,208,237,344,439,-119,519,381,233,333
83671,-99,38,309,95,135,416,467,299,287,406,441,701,304,175,344,424,474,161,-9,200,283,439,504,217,256,364,423,6,558,391,232,368
83672,-77,-70,329,70,119,426,582,202,272,406,450,609,255,168,361,430,444,122,-38,182,280,454,435,185,233,363,428,17,567,401,295,470
83673,-36,-97,396,114,135,461,576,266,297,417,402,615,288,185,356,428,388,156,-15,219,315,459,449,216,253,388,544,38,614,433,322,451
83674,-80,-43,375,117,123,452,427,267,303,404,329,616,293,171,325,409,440,163,-4,206,276,404,524,246,267,370,518,32,630,445,321,431
83675,-81,-7,322,84,125,417,427,249,284,393,307,566,285,180,318,348,514,139,-22,191,200,366,517,216,256,324,315,22,615,435,330,532
83676,-71,39,306,68,108,336,452,228,283,378,293,501,265,161,311,363,460,102,-49,182,170,456,452,179,220,324,256,4,550,375,224,527
83677,-32,159,345,83,127,282,494,266,285,368,280,502,276,174,296,315,446,97,-18,186,154,463,440,186,233,300,282,-77,504,349,234,486
83678,-24,199,318,78,126,303,494,259,292,367,295,505,284,166,300,344,410,104,-8,200,175,446,417,186,220,310,310,-173,499,346,246,490
83679,-34,171,293,77,121,334,497,246,283,367,317,513,260,161,291,395,427,112,-31,177,199,378,444,178,213,303,317,-75,539,345,197,473
83680,-20,149,295,29,122,337,463,226,278,343,293,528,245,150,281,356,461,102,-35,162,187,434,459,178,200,307,329,-29,553,348,232,462
83681,-44,135,302,48,131,359,448,275,273,354,327,585,289,152,292,344,441,137,-40,161,183,461,509,195,199,291,352,-27,564,356,229,446
83682,-70,90,260,97,128,399,445,298,276,373,351,590,285,145,291,362,464,175,-44,143,183,502,519,213,196,292,377,55,595,383,273,425
83683,-96,99,232,94,132,384,464,282,285,345,331,569,254,138,283,388,444,138,-54,137,177,509,431,181,157,286,384,-101,555,344,233,407
83684,-82,5,277,79,137,351,428,308,271,368,328,568,262,148,296,396,414,130,-54,147,207,475,449,190,178,298,413,-17,579,358,223,445
83685,-125,-100,266,55,103,336,339,275,254,356,221,526,253,136,269,338,312,102,-67,145,171,465,418,161,186,285,401,-63,523,314,189,379
83686,-174,-106,238,74,108,359,341,261,287,366,270,553,274,146,294,321,423,156,-35,168,194,422,498,208,216,300,382,-88,555,328,207,332
83687,-178,-123,197,63,127,432,403,267,309,394,349,615,303,162,340,394,482,215,15,184,245,367,666,249,229,308,416,-162,604,354,204,312
83688,-162,-137,192,76,105,467,464,290,293,408,410,663,317,167,355,475,521,251,6,208,296,483,714,283,260,362,513,-268,662,418,310,411
83689,-110,-18,227,111,117,429,554,323,300,408,429,675,312,170,377,487,517,262,-1,214,305,444,676,267,268,355,474,-284,624,403,309,379
83690,-114,64,211,129,117,478,619,365,298,429,465,580,296,149,384,468,439,201,-28,177,250,299,520,199,215,321,376,-218,511,327,196,213
83691,-100,131,180,130,132,528,715,335,282,444,463,587,272,153,381,513,376,160,-44,170,264,309,447,193,185,317,440,-219,467,291,195,-9
83692,-75,166,194,77,125,462,712,267,281,449,396,668,281,168,385,536,325,174,-34,209,349,451,418,194,233,387,689,-34,513,327,209,19
83693,-55,147,259,80,132,427,630,282,286,438,392,732,287,171,356,459,394,197,-33,173,300,318,435,232,236,339,531,72,535,341,231,506
83694,-71,113,268,98,118,425,579,257,291,423,391,616,281,152,344,428,419,161,-42,159,260,328,387,218,204,306,414,42,525,325,208,482
83695,-81,99,251,93,129,435,593,238,311,442,400,573,304,185,364,488,369,159,-27,181,268,496,369,209,214,325,478,-49,525,340,199,501
83696,-75,82,274,88,133,445,586,285,304,424,384,611,305,154,306,423,450,184,-41,149,193,416,412,198,196,271,376,-68,522,327,244,545
83697,-41,135,263,61,128,469,628,274,282,413,380,553,279,129,255,367,436,136,-71,109,155,358,382,163,142,203,268,-139,452,262,123,410
83698,-42,85,263,88,130,491,572,285,292,413,368,534,295,157,275,410,461,141,-54,122,174,345,402,169,168,240,298,-108,478,281,162,363
83699,-57,27,290,85,117,512,536,278,289,411,417,550,297,135,306,389,426,166,-68,138,192,334,457,157,185,267,383,-198,484,270,157,162
83700,-86,-26,301,80,120,468,507,326,271,401,425,538,305,133,325,431,401,140,-63,139,246,329,461,134,177,280,478,-395,453,271,144,35
83701,-110,-55,305,81,123,529,531,326,276,387,446,546,307,152,330,534,485,174,-33,166,276,214,541,182,176,295,482,-432,487,302,185,183
83702,-71,10,346,95,116,530,562,322,296,403,463,608,326,159,353,584,485,231,-16,189,322,311,621,229,209,321,565,-284,548,343,187,302
83703,-45,116,343,71,120,458,650,215,267,418,436,602,314,143,365,553,379,189,-16,184,307,502,561,211,222,349,517,-244,558,380,255,552
83704,-65,151,317,78,96,360,629,238,277,385,386,589,321,141,334,437,331,185,-22,181,250,427,514,207,218,324,338,-81,576,428,300,639
83705,-68,166,277,88,113,356,622,264,288,398,381,601,323,170,343,415,386,184,-22,190,253,433,489,210,240,336,374,-26,560,417,317,527
83706,-64,160,268,91,135,374,613,255,297,399,349,593,314,169,326,320,365,159,-15,184,215,447,456,206,226,312,355,-38,532,394,271,475
83707,-53,169,304,106,136,396,621,280,303,407,388,584,299,149,345,423,384,149,-8,175,231,482,428,191,206,309,375,-10,541,380,237,458
83708,-20,195,345,132,138,409,625,311,296,413,425,631,314,167,366,500,445,192,-13,167,253,506,462,218,219,320,428,77,599,400,272,443
83709,-25,185,344,128,139,418,627,305,306,412,418,650,335,176,343,478,497,203,-13,163,247,488,515,233,205,317,475,217,631,428,299,410
83710,-52,167,330,116,115,444,627,310,285,425,447,606,299,146,338,503,511,167,-49,162,260,420,491,214,195,326,458,107,615,426,304,437
83711,-90,142,310,97,114,448,659,323,273,428,468,605,296,148,362,537,437,168,-49,167,288,449,448,189,218,345,519,-12,569,420,297,341
83712,-30,163,300,52,136,471,645,344,286,452,496,668,326,178,397,538,569,240,-2,211,341,551,576,234,241,384,619,5,590,426,351,387
83713,-21,135,305,88,137,444,609,376,307,425,472,716,331,162,382,530,686,280,-4,198,298,555,685,267,245,372,561,-11,621,435,314,529
83714,-54,73,308,108,118,461,590,337,293,393,438,689,324,134,375,528,599,258,-1,188,303,602,683,260,239,358,493,-171,630,457,333,552
83715,-10,71,361,121,122,475,632,348,315,409,430,695,351,150,386,462,588,244,10,196,300,478,731,247,219,337,441,-260,630,434,316,477
83716,-1,103,364,126,136,522,646,375,305,425,459,688,354,170,393,519,560,257,8,200,318,395,768,263,222,344,447,-43,632,438,311,465
83717,-15,46,357,109,122,531,585,363,282,418,494,656,331,153,403,541,537,231,-16,208,348,391,712,229,199,343,503,33,630,439,300,435
83718,-32,37,372,89,130,523,617,329,276,414,510,675,307,162,400,571,573,212,-33,213,369,326,641,207,212,349,528,-79,615,423,308,411
83719,-27,41,379,109,140,502,651,321,296,418,473,696,316,143,405,612,535,222,-29,223,402,487,626,229,235,392,632,-29,641,433,297,361
83720,-48,7,378,100,122,490,614,291,288,425,447,667,291,154,397,623,495,194,-16,230,374,533,620,263,237,379,626,149,689,465,329,476
83721,-38,88,383,83,133,467,625,273,282,410,428,637,299,145,365,579,440,163,-48,207,323,415,481,217,236,346,427,6,616,456,322,609
83722,-54,125,333,89,131,469,662,286,284,428,427,613,276,134,353,527,375,120,-62,197,282,509,371,193,227,335,384,-203,536,414,287,535
83723,-69,137,325,100,135,484,697,306,288,431,437,640,302,151,371,512,441,146,-33,196,297,532,385,213,226,341,420,-67,603,430,333,490
83724,5,180,350,155,162,435,688,383,318,412,437,718,344,180,363,500,528,213,-18,200,277,516,473,252,255,369,454,146,656,482,367,491
83725,-8,160,258,153,150,417,611,457,311,384,367,806,348,156,325,443,459,228,-28,171,245,553,469,217,234,344,406,-19,618,437,348,525
83726,-44,123,348,159,153,412,580,559,331,393,358,873,361,131,315,389,433,260,-18,174,209,545,474,202,201,294,345,-314,528,385,279,513
83727,-39,63,453,149,148,493,547,377,305,422,463,784,337,137,329,386,431,231,-30,165,184,432,465,221,195,289,327,-167,540,363,233,456
83728,-63,21,421,108,125,562,472,217,302,415,436,695,303,161,314,370,413,234,-34,162,189,388,589,248,197,275,321,211,629,335,196,197
83729,-81,-10,412,127,132,554,542,260,295,436,434,646,299,154,333,415,320,191,-37,169,223,392,541,219,198,288,438,-19,563,329,192,127
83730,-62,49,414,119,149,433,576,247,293,414,404,614,297,161,322,398,342,199,-35,169,243,415,544,218,209,317,446,-184,548,402,239,382
83731,-38,104,379,97,120,353,516,240,296,361,310,623,281,140,294,393,365,175,-37,155,206,361,567,212,198,276,329,-150,583,408,282,479
83732,-45,160,369,120,134,350,542,304,306,385,310,677,302,150,301,387,490,185,-21,169,194,366,608,227,211,284,293,-72,607,436,339,471
83733,-72,200,359,106,138,342,578,263,290,394,350,662,287,138,303,346,492,153,-43,170,184,352,525,182,194,278,344,-74,580,393,299,315
83734,-39,188,329,91,155,401,673,259,277,409,436,634,262,144,320,420,430,127,-60,161,198,306,447,145,170,272,348,-252,499,342,217,284
83735,-25,187,361,104,153,393,678,277,300,407,390,627,255,156,341,515,409,120,-49,175,222,295,450,152,174,299,327,-305,449,331,197,381
83736,-48,179,360,85,147,428,584,259,289,421,371,525,245,160,336,532,405,90,-71,178,223,273,469,147,168,289,281,-217,466,333,226,366
83737,-53,189,329,60,142,412,577,250,269,409,351,486,232,148,339,510,388,77,-104,157,217,273,428,111,145,264,305,-192,445,314,173,211
83738,-46,203,317,54,149,417,607,263,295,409,360,514,234,151,362,488,444,75,-89,160,250,256,449,133,146,281,390,-25,506,332,225,14
83739,-38,198,325,58,140,438,613,260,270,412,380,542,242,148,357,494,401,73,-98,157,283,374,427,125,150,280,469,12,522,321,211,-3
83740,-41,156,342,74,152,461,598,274,276,438,396,587,271,155,352,410,374,102,-75,169,257,440,427,144,194,293,433,-67,525,379,285,351
83741,-104,98,346,63,128,469,568,290,277,449,402,624,287,150,353,434,516,130,-65,174,238,448,483,185,181,281,330,-51,555,367,251,176
83742,-89,54,342,71,126,436,522,316,286,443,416,669,295,158,360,486,656,184,-51,191,276,498,530,204,184,328,443,-23,585,386,277,260
83743,-61,51,303,96,133,424,470,326,275,396,385,656,294,146,325,441,556,180,-50,161,179,401,544,186,168,280,275,1,595,424,299,672
83744,-37,15,259,51,131,422,490,321,272,394,364,646,285,154,305,468,460,160,-35,137,184,406,536,194,170,259,250,-76,590,411,286,613
83745,-76,-28,222,64,122,417,433,343,278,376,378,680,283,152,304,393,478,193,-28,147,172,377,596,200,181,258,285,34,631,440,325,560
83746,-143,-5,212,119,108,402,398,323,291,365,376,668,286,145,293,373,503,176,-24,138,154,346,602,201,187,260,273,138,649,462,338,530
83747,-107,24,224,112,121,384,450,296,283,365,395,674,293,126,282,376,467,141,-49,115,169,320,552,175,162,250,242,40,598,407,276,491
83748,-77,62,279,113,137,447,508,354,283,366,451,706,299,122,288,381,398,132,-61,101,200,409,521,147,143,237,292,62,593,397,273,492
83749,-21,130,372,177,156,436,545,401,318,391,459,729,328,127,309,424,461,156,-46,110,228,492,575,179,141,254,326,151,610,393,283,528
83750,-25,144,357,139,147,437,567,319,298,359,416,600,272,103,280,415,438,108,-80,88,215,440,495,158,109,258,348,73,576,358,213,537
83751,-57,105,322,92,145,426,620,293,295,379,357,576,265,114,275,406,547,123,-72,98,227,375,575,181,111,256,343,109,605,368,249,483
83752,-95,94,288,107,131,395,649,320,291,374,323,651,290,122,279,402,623,174,-54,122,234,393,659,217,131,271,388,265,660,422,326,502
83753,-71,89,270,118,110,353,582,338,292,354,335,685,280,96,265,420,501,159,-73,103,238,449,586,190,121,271,439,39,617,393,281,512
83754,-52,86,286,138,140,440,542,394,298,394,382,710,260,99,278,413,398,104,-103,84,240,455,415,131,94,235,412,-230,476,316,191,357
83755,-55,53,314,133,144,509,577,449,298,415,395,694,253,87,262,394,352,78,-128,68,195,433,312,73,59,181,329,-388,376,228,70,244
83756,-42,90,316,110,150,460,594,448,301,401,382,681,274,87,267,321,415,107,-101,65,170,476,444,136,76,195,299,-289,456,243,94,315
83757,-59,88,253,129,148,434,570,364,307,395,402,613,260,116,305,414,486,115,-88,112,231,496,515,196,114,234,351,-130,534,294,181,389
83758,-54,50,243,103,140,462,566,346,305,404,430,585,278,125,327,521,418,134,-64,145,297,505,492,203,129,263,404,-135,522,289,170,441
83759,-60,4,303,81,147,446,564,294,297,389,409,587,283,135,320,499,384,120,-53,130,289,424,463,211,163,281,414,-161,514,297,182,450
83760,-122,-71,314,50,125,525,564,254,272,382,437,600,263,120,289,361,389,111,-64,119,209,201,505,203,130,214,353,-173,509,280,158,198
