,Fp1,Fp2,F7,F3,Fz,F4,F8,FC5,FC1,FC2,FC6,T7,C3,Cz,C4,T8,TP9,CP5,CP1,CP2,CP6,TP10,P7,P3,Pz,P4,P8,PO9,O1,Oz,O2,PO10
66740,-425,-339,368,-1307,2,86,-261,405,10,-276,32,413,366,97,-781,159,458,298,292,159,-116,356,359,125,368,61,522,74,356,204,-244,-63
66741,-424,-348,370,-1314,-8,74,-251,410,0,-273,33,410,370,120,-774,218,446,293,268,155,-98,353,349,131,368,33,538,49,372,204,-251,-82
66742,-423,-345,320,-1286,-19,82,-256,425,2,-264,46,396,371,135,-753,247,454,295,258,179,-117,363,353,120,382,65,539,32,362,212,-210,-81
66743,-402,-338,326,-1305,-32,85,-246,402,-6,-279,45,306,372,132,-753,239,446,278,271,193,-91,358,351,96,379,80,527,59,383,249,-167,-52
66744,-387,-303,365,-1292,0,104,-190,403,13,-261,73,270,362,126,-732,276,425,282,272,193,-56,392,371,109,362,81,597,68,386,242,-178,-18
66745,-415,-280,349,-1286,1,99,-173,380,-11,-272,87,302,329,106,-727,263,424,251,229,177,-40,380,366,83,337,63,640,21,348,174,-227,34
66746,-429,-277,385,-1287,-6,71,-190,361,-30,-285,48,331,320,108,-745,215,435,246,214,165,-68,368,389,47,316,49,544,24,349,190,-213,70
66747,-383,-289,430,-1240,9,86,-162,414,13,-277,57,372,346,110,-742,181,483,287,235,174,-97,385,378,58,316,26,473,92,352,205,-228,-61
66748,-372,-294,438,-1209,5,91,-163,433,11,-276,74,384,366,120,-752,108,482,287,225,168,-120,362,403,68,303,23,495,102,357,196,-237,-117
66749,-384,-296,435,-1228,0,87,-159,429,-20,-295,58,395,359,111,-761,169,523,295,218,156,-123,345,455,97,312,27,527,83,370,199,-226,-127
66750,-401,-271,428,-1272,0,100,-174,411,-22,-295,64,343,323,105,-767,251,483,255,203,149,-98,371,377,72,316,39,539,101,379,208,-230,-86
66751,-419,-272,367,-1310,0,105,-213,372,-32,-298,59,296,309,118,-731,292,415,229,187,145,-97,373,276,24,304,45,551,78,335,179,-270,-67
66752,-444,-329,325,-1329,0,91,-302,348,-50,-299,57,293,301,101,-723,288,410,222,177,131,-83,339,292,20,296,38,542,45,312,193,-207,-34
66753,-457,-373,315,-1339,-13,73,-340,323,-45,-285,49,269,289,91,-724,235,391,218,196,130,-103,317,302,17,277,31,550,24,343,244,-108,20
66754,-432,-326,329,-1347,-19,79,-293,344,-36,-275,99,278,289,100,-730,205,396,220,209,126,-132,282,307,30,275,15,542,39,372,300,-37,39
66755,-412,-307,350,-1327,-7,78,-245,372,-12,-284,38,314,313,109,-741,197,424,248,201,133,-128,342,319,53,282,-1,549,47,368,278,-88,14
66756,-430,-323,324,-1360,-11,66,-206,349,-37,-303,-10,263,264,82,-794,168,366,218,161,88,-161,363,267,-4,250,-26,481,-19,257,101,-273,-101
66757,-441,-308,308,-1340,-11,73,-212,357,-36,-288,-1,270,274,96,-818,142,368,218,152,78,-188,277,284,-5,208,-105,372,-14,199,-22,-493,-285
66758,-451,-312,312,-1322,-16,53,-239,366,-17,-290,-28,274,280,97,-823,110,368,224,164,78,-190,227,281,-17,211,-109,391,-25,213,25,-479,-124
66759,-491,-361,285,-1332,-37,44,-264,342,-29,-315,-65,258,269,83,-825,107,315,212,176,85,-206,229,262,-25,211,-72,409,-53,252,103,-352,-146
66760,-514,-392,280,-1337,-39,27,-325,314,-40,-329,-70,269,277,72,-839,103,349,215,168,68,-229,218,263,-27,190,-81,355,-42,238,52,-406,-319
66761,-492,-373,292,-1299,-33,59,-382,339,-25,-289,-15,276,304,85,-792,-47,385,216,176,95,-187,253,260,-25,211,-64,394,-47,203,8,-454,-279
66762,-501,-365,251,-1300,-43,41,-347,324,-38,-304,-17,261,299,97,-768,-239,352,212,175,113,-180,260,242,-27,224,-42,423,-30,226,42,-393,-198
66763,-512,-388,229,-1323,-37,30,-343,320,-54,-305,-32,258,284,96,-784,-93,341,214,187,103,-155,276,257,-11,237,-39,459,-13,280,118,-322,-124
66764,-514,-380,243,-1344,-28,38,-330,323,-57,-309,-80,247,288,95,-794,68,337,208,175,108,-151,194,247,-26,253,-42,448,-46,268,117,-301,-126
66765,-486,-363,272,-1334,-16,73,-409,328,-32,-300,-52,255,314,114,-785,238,314,225,190,127,-137,244,240,-4,267,-3,486,-47,259,133,-260,-97
66766,-480,-355,290,-1344,-7,86,-416,306,-44,-304,26,234,290,113,-837,271,309,207,158,123,-158,279,208,-15,233,-30,451,-82,240,117,-273,-131
66767,-453,-375,280,-1344,-19,76,-396,320,-35,-290,-5,240,271,108,-867,238,330,186,156,109,-178,226,207,-33,211,-55,413,-104,217,56,-343,-200
66768,-489,-408,281,-1345,-7,72,-392,310,-38,-291,-23,235,266,89,-865,138,321,186,162,110,-189,211,206,-56,212,-51,414,-117,191,34,-430,-206
66769,-477,-419,283,-1344,-32,37,-384,311,-43,-283,-66,243,280,91,-868,107,306,188,178,111,-168,221,218,-28,240,-29,451,-91,211,85,-356,-115
66770,-478,-422,266,-1333,-41,5,-390,329,-45,-296,-77,265,289,86,-875,60,333,186,164,117,-164,199,229,-22,246,-22,431,-63,224,73,-340,-139
66771,-497,-402,260,-1322,-33,20,-336,330,-34,-306,-75,267,273,94,-895,29,361,203,149,106,-187,183,235,-22,253,-20,358,-68,217,53,-381,-173
66772,-512,-405,317,-1311,-24,34,-312,340,-15,-293,-75,282,293,116,-866,28,361,220,143,101,-206,196,258,-12,265,-11,371,-66,229,100,-347,-88
66773,-516,-401,304,-1317,-25,45,-320,333,-20,-303,-78,269,279,96,-875,61,343,203,140,95,-196,206,229,-27,252,-45,413,-90,202,90,-348,-60
66774,-483,-397,293,-1345,-34,34,-336,317,-38,-302,-85,272,278,90,-886,82,289,189,138,95,-236,187,201,-38,223,-81,373,-128,170,26,-413,-200
66775,-443,-406,325,-1301,-9,58,-350,351,-3,-293,-75,269,299,101,-871,125,290,178,153,93,-229,207,196,-26,237,-77,308,-117,174,8,-415,-319
66776,-472,-388,288,-1320,-15,54,-396,322,-12,-301,-53,256,286,85,-855,140,279,178,154,94,-239,195,181,-37,239,-74,326,-148,174,40,-384,-276
66777,-463,-372,306,-1335,-17,44,-391,324,0,-299,-51,258,298,91,-824,119,292,212,138,104,-225,188,216,-13,249,-55,342,-123,204,62,-355,-248
66778,-473,-348,304,-1329,-5,54,-357,340,12,-288,-31,254,304,102,-805,98,332,220,156,109,-196,197,213,22,279,-28,375,-89,228,120,-306,-213
66779,-490,-374,293,-1312,-37,63,-314,338,5,-287,-20,245,305,115,-824,35,315,232,170,134,-173,204,233,14,299,-22,397,-83,259,143,-280,-189
66780,-477,-359,316,-1293,-35,65,-278,353,-18,-282,0,242,298,105,-818,16,308,206,144,114,-170,214,234,-2,272,-20,360,-83,249,121,-283,-203
66781,-485,-336,314,-1308,-19,73,-277,342,-26,-305,-30,230,272,90,-845,8,279,177,105,96,-201,202,185,-30,223,-64,322,-152,157,0,-412,-274
66782,-469,-354,313,-1307,-11,66,-300,327,-21,-288,-43,239,287,93,-841,24,292,206,100,84,-230,177,184,-35,224,-65,330,-150,138,-27,-472,-283
66783,-524,-412,237,-1337,-43,18,-386,309,-45,-310,-89,216,271,76,-868,-48,270,204,97,65,-232,155,186,-24,219,-64,381,-122,191,59,-378,-199
66784,-603,-506,190,-1361,-56,2,-432,308,-15,-317,-82,238,282,94,-860,-134,296,203,125,100,-219,147,222,16,263,-22,438,-67,262,133,-291,-121
66785,-658,-553,124,-1345,-59,0,-435,285,-15,-314,-71,229,297,104,-858,-162,295,202,144,108,-215,160,250,18,259,-17,411,-57,256,114,-305,-149
66786,-673,-533,107,-1335,-53,-5,-476,296,-7,-320,-88,203,277,113,-853,-210,309,218,122,88,-212,134,251,12,255,-52,389,-132,210,47,-345,-185
66787,-625,-477,156,-1298,-30,23,-432,313,0,-281,-72,213,295,107,-808,-104,288,222,139,105,-194,108,262,41,287,-26,413,-157,227,99,-289,-146
66788,-530,-379,222,-1284,-22,65,-368,327,-1,-278,-55,205,306,99,-807,45,215,207,162,138,-150,179,223,38,308,34,526,-155,287,245,-117,52
66789,-443,-313,255,-1288,-15,67,-309,344,-9,-289,-53,210,288,78,-826,-15,210,202,146,105,-159,195,193,38,293,3,489,-183,263,228,-110,2
66790,-423,-278,269,-1297,-15,84,-306,344,-28,-295,-27,215,295,70,-863,-195,251,202,133,96,-228,133,198,20,263,-61,297,-175,203,89,-293,-393
66791,-403,-276,286,-1286,8,88,-317,324,-24,-300,-29,196,280,74,-870,-143,230,167,131,67,-262,145,185,-4,232,-84,251,-146,162,-29,-459,-379
66792,-382,-268,261,-1274,-5,91,-389,313,-25,-287,-23,172,271,50,-881,27,204,160,118,56,-275,146,188,-1,220,-78,300,-171,173,-7,-486,-275
66793,-384,-303,217,-1275,-8,75,-480,309,-25,-291,-47,187,272,54,-909,123,197,136,112,49,-253,139,195,1,222,-71,321,-189,164,9,-469,-358
66794,-345,-249,252,-1275,8,86,-454,326,-18,-289,-70,195,274,80,-889,193,202,161,122,57,-234,201,206,8,230,-58,367,-158,190,56,-406,-314
66795,-252,-144,301,-1260,40,136,-402,347,-2,-251,-37,190,303,83,-866,206,215,192,139,73,-233,174,203,6,238,-58,357,-141,190,26,-402,-283
66796,-224,-121,331,-1257,44,141,-411,353,-21,-268,-46,194,291,83,-898,120,229,188,113,55,-274,80,197,-4,203,-100,282,-155,167,-22,-500,-306
66797,-173,-39,337,-1272,52,150,-329,362,-22,-275,-36,182,269,70,-881,107,232,191,99,32,-282,99,202,-23,195,-121,259,-159,147,-25,-519,-359
66798,-125,-4,377,-1245,83,173,-233,339,-36,-275,-13,169,250,50,-872,130,206,157,82,20,-276,109,195,-53,188,-132,240,-209,114,-29,-487,-370
66799,-111,-8,381,-1239,74,159,-246,327,-40,-284,-30,148,238,42,-905,107,156,142,59,11,-302,71,148,-87,166,-136,228,-254,68,-79,-518,-368
66800,-125,5,336,-1265,62,126,-256,304,-44,-286,-62,132,237,63,-907,88,135,130,56,20,-279,100,136,-86,173,-127,274,-236,85,-38,-448,-282
66801,-83,5,359,-1264,72,129,-282,298,-35,-293,-56,151,236,78,-878,82,182,134,68,37,-270,95,134,-77,169,-118,261,-232,100,-39,-444,-321
66802,-41,17,418,-1255,77,143,-317,331,-22,-305,-57,165,261,57,-876,55,220,149,103,33,-300,79,147,-60,175,-135,230,-202,104,-49,-505,-393
66803,-18,104,386,-1230,80,155,-285,318,-31,-319,-79,144,251,28,-873,21,200,148,92,14,-311,50,185,-85,156,-142,230,-207,116,-42,-478,-353
66804,47,171,393,-1222,97,162,-246,322,-47,-310,-53,73,236,21,-868,16,169,127,72,1,-325,15,194,-98,130,-167,216,-218,102,-69,-542,-355
66805,72,142,406,-1225,93,173,-272,356,-30,-293,-85,-25,271,45,-911,-51,162,130,74,2,-307,21,172,-109,123,-165,236,-251,103,-79,-551,-285
66806,37,131,351,-1259,83,168,-273,316,-47,-304,-85,82,235,29,-926,-187,122,90,57,17,-292,37,69,-136,117,-149,271,-307,69,-94,-511,-263
66807,23,106,301,-1287,78,150,-292,275,-64,-309,-81,134,209,18,-877,-266,80,61,40,14,-271,42,0,-124,125,-136,248,-264,88,-48,-468,-244
66808,54,159,313,-1251,106,186,-253,305,-30,-272,-56,114,236,34,-889,-223,83,86,56,14,-302,3,43,-129,123,-135,185,-245,101,-44,-491,-357
66809,132,268,336,-1240,106,234,-182,312,-35,-273,-8,111,228,30,-914,-129,93,86,65,2,-306,-13,48,-127,125,-145,150,-289,57,-82,-527,-426
66810,164,275,329,-1265,108,202,-210,291,-67,-303,-41,31,201,21,-917,-57,104,71,32,7,-324,-14,46,-146,124,-167,175,-313,46,-87,-527,-395
66811,163,280,366,-1244,121,188,-263,294,-44,-293,-42,38,222,46,-910,43,153,105,48,32,-309,29,87,-116,160,-111,225,-260,94,-64,-499,-328
66812,148,247,359,-1267,105,162,-320,274,-48,-298,-51,62,206,29,-942,55,121,73,55,37,-305,66,74,-117,155,-134,238,-274,82,-42,-470,-355
66813,187,297,350,-1274,107,166,-311,278,-59,-299,-49,59,184,24,-958,-12,81,53,47,14,-322,2,38,-126,134,-157,203,-304,70,-58,-492,-479
66814,273,388,434,-1222,123,204,-263,324,-35,-301,-47,82,225,46,-936,-144,116,93,57,17,-323,-62,66,-106,163,-139,223,-296,72,-54,-490,-441
66815,347,483,483,-1215,148,252,-171,349,-27,-263,0,76,223,30,-920,-184,100,71,42,12,-307,-29,63,-110,158,-127,225,-280,87,-79,-485,-407
66816,392,528,481,-1199,154,265,-154,345,-18,-258,14,97,211,6,-920,-105,85,55,27,0,-316,4,63,-112,132,-128,267,-291,88,-88,-503,-367
66817,427,550,484,-1197,148,243,-156,314,-41,-280,-13,51,180,-6,-948,-72,69,47,15,-27,-328,-19,45,-146,117,-158,244,-321,44,-96,-521,-429
66818,397,556,431,-1230,155,237,-168,311,-31,-271,14,20,182,-1,-938,-63,52,48,35,-16,-328,-21,58,-122,126,-145,211,-304,61,-89,-515,-439
66819,307,476,339,-1263,122,209,-224,259,-49,-281,-8,-5,170,-12,-941,-121,11,27,0,-31,-361,-71,32,-131,110,-185,159,-325,71,-92,-512,-446
66820,349,469,377,-1225,130,232,-214,282,-44,-263,-12,5,191,11,-887,-234,7,43,13,-5,-332,-63,59,-129,138,-174,163,-317,100,-72,-489,-429
66821,428,533,462,-1185,153,246,-178,301,-37,-275,14,42,176,5,-890,-257,30,53,13,-20,-355,-76,57,-140,130,-184,138,-319,84,-76,-507,-450
66822,463,560,490,-1156,145,235,-144,319,-47,-294,19,31,180,6,-930,-112,12,35,7,-48,-370,-53,27,-158,124,-197,144,-326,71,-84,-531,-371
66823,428,519,422,-1177,145,248,-170,295,-29,-272,-21,33,179,14,-951,-39,31,34,8,-29,-362,-41,31,-159,96,-213,153,-348,11,-132,-588,-363
66824,403,482,387,-1192,155,251,-198,267,-35,-311,-41,15,164,-12,-966,-14,20,28,-12,-37,-379,-79,29,-181,74,-229,99,-346,-2,-147,-639,-511
66825,391,479,400,-1169,165,255,-206,274,-40,-304,-52,22,171,1,-973,44,23,19,2,-17,-355,-41,13,-177,74,-201,185,-366,2,-132,-566,-381
66826,378,488,381,-1173,168,230,-199,270,-36,-298,-58,11,156,-2,-945,15,6,-2,-20,-34,-339,-42,2,-175,70,-187,193,-392,0,-122,-554,-403
66827,391,490,388,-1149,159,234,-224,270,-27,-269,-32,28,178,12,-917,-11,24,28,-12,-29,-345,-60,64,-167,88,-173,190,-402,1,-116,-557,-448
66828,413,505,413,-1144,174,254,-208,288,-26,-252,-27,41,194,12,-936,-28,35,36,13,-19,-382,-67,56,-136,108,-211,149,-387,12,-147,-616,-566
66829,390,470,399,-1168,166,249,-242,295,-15,-239,-38,13,193,23,-921,-37,15,31,20,0,-366,-59,2,-121,121,-195,167,-354,43,-119,-587,-533
66830,414,523,418,-1180,151,247,-152,292,-33,-246,-8,-11,185,27,-917,-43,-21,18,-2,2,-336,-40,-6,-142,123,-181,169,-379,40,-100,-560,-497
66831,411,533,408,-1189,151,256,-118,279,-39,-243,8,2,177,33,-932,-157,-32,2,0,-4,-342,-55,-12,-152,120,-190,119,-400,-10,-110,-597,-517
66832,396,508,396,-1203,149,250,-153,265,-34,-220,9,-18,154,32,-933,-228,-9,-8,0,3,-315,-53,-32,-156,113,-163,120,-388,-5,-83,-539,-488
66833,402,451,404,-1221,137,251,-138,253,-46,-228,31,-27,155,36,-925,-231,-26,-9,-23,15,-311,6,-44,-180,95,-174,148,-393,-8,-145,-572,-477
66834,313,418,326,-1244,113,227,-172,237,-54,-247,14,-51,120,20,-925,-198,-53,-29,-54,-9,-297,40,-56,-211,94,-192,138,-413,-39,-199,-671,-496
66835,280,448,343,-1261,123,224,-181,268,-42,-251,5,18,149,25,-930,-120,5,-11,-45,-20,-303,27,-7,-191,78,-201,116,-383,-2,-194,-689,-504
66836,284,432,353,-1272,111,228,-165,278,-68,-250,-19,59,154,3,-914,-64,45,14,-52,-36,-354,-96,6,-185,44,-224,86,-373,-10,-183,-660,-502
66837,257,412,336,-1255,121,233,-168,269,-64,-225,-2,48,134,14,-895,-8,9,8,-45,-24,-331,-38,-5,-194,61,-220,140,-390,-12,-158,-626,-463
66838,273,382,395,-1227,136,245,-163,318,-29,-212,8,53,182,61,-886,0,70,44,-21,25,-307,42,48,-150,104,-177,208,-334,40,-75,-540,-377
66839,251,354,380,-1245,122,242,-173,297,-40,-220,15,20,198,54,-897,-13,97,70,9,24,-300,11,61,-123,128,-150,230,-306,97,-26,-482,-323
66840,254,371,358,-1251,115,233,-145,271,-43,-240,27,6,187,49,-910,-14,63,67,0,30,-300,-16,62,-99,121,-130,247,-295,101,5,-476,-342
66841,275,374,401,-1235,130,248,-139,286,-36,-218,52,19,196,52,-886,-11,19,74,22,53,-292,11,55,-102,140,-136,234,-301,103,-13,-464,-360
66842,295,365,423,-1244,112,231,-116,295,-38,-212,20,9,187,32,-839,-28,10,66,9,40,-309,10,68,-129,138,-176,184,-332,86,-39,-480,-356
66843,323,387,422,-1226,123,236,-94,337,-20,-203,49,53,210,65,-792,25,101,101,13,63,-276,40,211,-101,156,-147,172,-318,78,-55,-514,-308
66844,295,381,387,-1219,126,238,-82,316,-14,-206,46,32,194,52,-830,75,92,85,12,59,-281,37,154,-101,153,-128,169,-295,103,-41,-522,-413
66845,247,386,372,-1226,121,231,-86,294,-16,-221,52,-2,211,60,-850,94,71,75,60,74,-273,31,21,-103,191,-124,205,-257,158,33,-441,-369
66846,232,358,372,-1204,115,208,-145,322,-7,-229,32,37,224,76,-881,64,127,109,91,106,-265,2,43,-71,214,-94,236,-234,148,45,-396,-299
66847,250,344,414,-1198,107,216,-163,336,-20,-223,15,89,222,56,-880,-62,129,116,78,77,-296,-14,71,-85,179,-131,187,-275,66,-97,-564,-453
66848,254,323,416,-1195,113,218,-176,348,-15,-219,27,111,240,83,-866,-196,148,119,92,89,-269,35,111,-79,187,-114,225,-244,91,-82,-555,-383
66849,253,273,385,-1226,106,209,-177,344,-21,-206,54,110,239,79,-855,-168,144,109,76,77,-225,54,93,-90,194,-97,281,-273,82,-28,-438,-256
66850,259,262,392,-1237,93,220,-160,337,-23,-216,50,74,221,70,-857,-83,99,85,50,62,-243,40,25,-125,169,-121,263,-340,55,-65,-485,-404
66851,264,283,404,-1228,108,224,-164,348,-32,-215,41,72,211,76,-852,5,93,79,59,77,-252,30,40,-126,180,-131,220,-326,44,-91,-546,-507
66852,252,234,403,-1228,102,195,-188,352,-31,-213,28,85,238,83,-865,22,109,96,80,87,-275,-3,69,-93,198,-102,202,-266,116,-23,-510,-368
66853,184,197,400,-1217,90,184,-238,350,-31,-219,10,94,241,99,-862,84,148,119,102,91,-241,56,89,-74,240,-54,309,-252,180,108,-318,-215
66854,170,197,412,-1234,105,221,-197,339,-34,-221,17,120,255,94,-868,140,150,136,100,98,-220,129,115,-75,257,-47,342,-252,182,102,-301,-174
66855,247,256,465,-1190,155,253,-124,350,10,-209,78,148,269,111,-826,114,132,142,104,106,-205,219,137,-73,232,-67,267,-223,122,-48,-518,-348
66856,266,295,495,-1172,130,268,-118,342,-4,-215,86,124,255,102,-808,103,152,124,77,100,-192,212,135,-82,203,-63,285,-251,130,-24,-475,-285
66857,229,257,442,-1200,97,236,-170,355,-30,-238,59,125,218,65,-847,54,159,89,33,55,-243,102,64,-133,164,-128,189,-289,62,-83,-553,-450
66858,173,223,391,-1226,119,232,-200,363,-20,-229,84,177,232,83,-801,78,151,111,53,69,-247,134,74,-111,190,-109,179,-284,84,-79,-563,-424
66859,169,218,401,-1209,107,249,-166,340,-11,-215,85,165,259,93,-767,74,129,114,75,139,-203,189,91,-69,253,-19,337,-231,201,84,-350,-73
66860,138,178,372,-1235,69,211,-205,321,-47,-245,37,133,228,55,-838,-112,110,86,56,108,-256,113,67,-60,249,-45,318,-238,214,165,-289,-16
66861,108,144,374,-1223,114,215,-192,351,-3,-219,23,186,263,114,-808,-96,190,154,97,126,-267,152,123,-25,284,-47,296,-220,243,172,-283,-112
66862,138,137,409,-1234,102,239,-183,352,-32,-247,23,144,262,80,-822,-6,169,119,61,75,-335,128,92,-82,206,-169,111,-272,84,-131,-663,-697
66863,140,142,388,-1231,100,235,-227,388,-28,-250,36,142,264,71,-821,85,121,119,74,62,-297,139,106,-83,211,-145,151,-236,129,-42,-541,-522
66864,220,193,426,-1208,113,240,-228,469,-7,-212,47,201,288,83,-813,97,165,150,92,78,-293,41,154,-44,247,-117,204,-179,206,38,-462,-307
66865,216,195,396,-1235,115,228,-226,391,-26,-200,47,210,259,66,-837,109,248,151,83,53,-295,8,165,-41,224,-112,217,-162,199,39,-466,-251
66866,219,176,422,-1234,96,230,-191,355,-12,-212,62,221,276,76,-788,99,232,173,76,89,-252,127,205,-35,223,-96,255,-174,180,38,-435,-283
66867,218,202,421,-1209,96,243,-131,399,-10,-209,71,212,280,71,-769,84,153,195,92,102,-243,117,284,-15,239,-81,265,-173,205,62,-404,-264
66868,199,179,432,-1187,97,251,-150,437,-8,-197,58,221,318,111,-780,46,190,246,139,122,-227,76,431,31,268,-33,277,-115,236,102,-322,-224
66869,171,162,417,-1217,80,207,-192,393,-13,-218,47,192,294,111,-790,-2,54,214,113,124,-217,63,275,-16,261,-39,265,-126,197,83,-329,-230
66870,118,100,386,-1207,47,187,-202,417,-7,-230,35,169,280,81,-773,-55,238,187,87,104,-239,58,140,-29,237,-52,271,-125,209,86,-336,-173
66871,98,87,379,-1198,59,190,-182,427,-3,-216,60,192,299,93,-775,-131,245,181,96,116,-232,55,197,-24,232,-58,296,-179,199,75,-358,-30
66872,78,94,387,-1219,28,186,-224,404,-10,-224,50,239,289,91,-814,-333,223,218,81,87,-280,25,296,-16,213,-100,245,-159,133,-39,-517,-351
66873,86,104,400,-1236,37,204,-233,388,-20,-209,51,233,279,82,-816,-356,217,209,82,81,-292,65,227,-39,208,-101,251,-165,174,-35,-538,-409
66874,82,82,388,-1252,61,202,-252,385,-26,-207,48,203,274,72,-823,-147,178,176,97,85,-264,81,140,-26,236,-98,268,-183,178,9,-471,-364
66875,94,65,416,-1234,73,197,-229,382,-9,-235,48,153,281,85,-826,1,209,184,92,75,-276,89,186,-11,226,-103,242,-137,140,-7,-514,-486
66876,104,82,464,-1217,71,198,-209,360,-15,-250,-2,76,273,67,-860,99,240,169,68,47,-297,140,192,-17,191,-124,252,-113,171,-26,-584,-414
66877,151,127,483,-1187,102,208,-206,378,1,-234,7,122,297,68,-838,129,241,200,109,70,-293,200,234,3,200,-124,309,-69,245,49,-498,-316
66878,200,163,531,-1144,131,229,-168,426,24,-229,29,216,300,80,-808,151,243,224,112,86,-241,214,259,19,216,-102,335,-55,260,75,-451,-310
66879,214,151,553,-1151,115,209,-188,431,4,-226,16,222,310,92,-821,95,265,242,121,82,-240,129,270,38,226,-101,307,-73,281,109,-405,-237
66880,210,148,539,-1165,75,189,-212,432,7,-231,10,227,317,88,-845,111,266,269,114,69,-257,167,295,64,234,-82,316,-76,298,157,-333,-150
66881,199,126,511,-1176,76,194,-228,437,9,-245,4,263,345,93,-850,102,313,302,116,91,-234,203,359,78,244,-53,348,-50,331,173,-293,-124
66882,154,107,475,-1209,78,180,-238,423,-2,-249,-3,248,322,112,-861,105,340,288,136,100,-231,218,355,85,254,-30,428,-14,324,158,-285,-55
66883,135,79,498,-1226,55,178,-242,415,-12,-250,7,231,324,95,-866,104,334,272,131,89,-228,238,313,68,264,-41,398,15,310,106,-382,-186
66884,181,83,523,-1203,71,181,-230,430,-4,-241,20,250,338,105,-859,91,326,273,131,91,-224,245,324,64,270,-41,387,42,358,156,-356,-300
66885,192,108,515,-1210,84,185,-217,441,12,-236,40,255,332,109,-832,136,327,279,124,112,-192,285,340,79,277,-18,443,41,362,217,-263,-149
66886,149,81,479,-1232,61,176,-218,426,-4,-251,32,276,334,110,-840,191,328,270,121,102,-193,242,339,81,255,-21,463,-13,344,211,-232,-77
66887,127,55,501,-1198,66,188,-214,435,9,-239,41,310,356,115,-839,196,341,288,126,116,-191,227,343,67,262,-19,462,-14,342,189,-235,-131
66888,87,59,486,-1214,69,186,-199,431,11,-227,38,288,349,107,-826,217,364,302,114,130,-169,245,341,57,278,-24,437,16,346,185,-286,-262
66889,36,40,422,-1250,46,187,-208,381,-12,-243,44,197,314,91,-862,194,301,259,101,119,-161,230,312,56,287,-14,400,-33,305,141,-344,-243
