,Fp1,Fp2,F7,F3,Fz,F4,F8,FC5,FC1,FC2,FC6,T7,C3,Cz,C4,T8,TP9,CP5,CP1,CP2,CP6,TP10,P7,P3,Pz,P4,P8,PO9,O1,Oz,O2,PO10
38463,71,100,236,13,-95,557,279,254,-46,19,345,227,279,213,158,106,-17,127,-20,139,-164,377,273,-47,49,460,158,54,166,1,-36,311
38464,69,107,238,22,-112,548,280,235,-48,24,327,208,256,241,170,258,-45,139,-15,164,-140,387,281,-44,66,460,208,44,205,31,-4,358
38465,84,163,268,20,-108,585,207,259,-40,43,354,219,255,235,190,295,-42,150,-1,183,-126,374,282,-34,58,477,210,26,197,29,-18,354
38466,56,189,241,43,-89,647,43,259,-49,67,414,223,261,257,215,297,-31,153,6,184,-110,376,314,-27,65,478,206,85,224,33,-33,308
38467,64,189,258,40,-81,682,110,240,-50,81,387,184,260,249,231,331,9,154,12,191,-55,398,310,-34,80,515,262,127,228,33,13,393
38468,48,222,273,58,-58,618,375,246,-52,82,349,170,274,267,230,353,37,185,30,212,-50,429,293,-30,90,517,258,116,229,34,7,455
38469,53,219,273,88,-82,468,561,293,-46,27,344,186,281,269,190,355,7,182,50,197,-53,421,312,-11,96,525,291,134,228,38,21,467
38470,82,211,234,55,-79,551,380,325,-50,62,399,252,286,268,212,332,17,170,48,219,-38,445,312,-9,90,538,300,142,226,63,16,436
38471,55,190,246,40,-61,559,351,308,-46,55,385,329,320,271,226,314,11,236,83,221,-39,472,357,36,108,544,296,159,276,59,18,399
38472,58,194,303,41,-70,556,371,273,-37,74,386,333,337,283,259,332,28,253,95,245,-21,482,386,53,158,579,322,182,291,95,81,455
38473,17,148,312,56,-87,557,329,243,-33,75,369,294,325,266,258,314,51,272,100,266,-24,492,395,70,179,586,312,163,292,95,83,469
38474,32,143,311,48,-91,545,315,244,-38,57,359,229,305,273,235,338,94,238,92,257,-44,443,387,66,164,585,358,90,258,61,55,439
38475,14,140,286,19,-114,516,279,230,-60,59,354,68,306,252,234,323,44,213,77,229,-53,414,378,40,146,574,321,69,261,48,33,440
38476,8,135,228,36,-95,540,269,237,-53,76,330,212,310,255,224,313,9,229,79,225,-58,364,398,58,143,557,321,147,300,45,27,406
38477,26,121,224,50,-88,545,264,197,-52,82,335,254,312,252,212,320,12,255,53,226,-67,327,400,61,120,542,325,133,304,38,2,418
38478,30,81,245,27,-103,550,274,-2,-62,43,300,245,293,245,191,293,-21,249,43,210,-87,357,364,32,104,530,332,142,278,32,23,462
38479,52,32,222,33,-87,550,261,271,-44,44,296,202,292,245,182,279,-30,179,39,207,-70,351,328,1,97,534,381,134,236,21,14,362
38480,43,25,225,33,-86,549,247,371,-26,42,302,265,281,247,200,293,-17,167,43,209,-59,370,313,-8,94,549,408,102,234,13,-17,385
38481,-3,42,248,58,-88,550,225,261,-53,35,302,258,277,241,199,284,-5,170,28,196,-58,411,281,-26,94,523,341,176,246,34,-37,377
38482,-43,48,173,108,-86,533,235,281,-43,33,320,204,303,244,199,275,28,152,31,219,-64,431,247,-15,115,539,291,179,245,55,28,368
38483,-42,98,156,113,-86,534,276,291,-32,49,359,164,318,256,220,288,-7,135,34,231,-45,414,245,-5,129,579,289,104,201,12,33,353
38484,2,151,191,84,-103,562,286,282,-47,59,382,133,310,242,244,309,-50,151,36,225,-34,399,300,-1,155,591,237,99,236,2,15,338
38485,54,176,215,65,-107,556,270,278,-45,62,350,182,307,236,233,310,28,149,46,237,-40,406,316,4,159,586,243,68,257,19,11,342
38486,40,155,230,48,-92,568,270,293,-38,81,350,215,336,264,239,304,-51,194,70,240,-68,403,321,43,153,601,279,104,286,65,60,376
38487,0,88,167,9,-100,563,252,329,-50,74,358,190,319,268,232,292,-39,208,76,245,-76,404,303,53,163,595,290,119,299,83,76,397
38488,-28,47,158,21,-113,561,213,323,-47,69,372,219,318,267,234,354,0,182,89,255,-54,415,303,63,175,599,301,163,334,107,97,456
38489,-6,103,206,16,-94,585,199,294,-41,81,376,230,332,285,250,390,2,214,94,263,-58,389,334,86,195,597,283,212,370,135,105,453
38490,11,164,288,52,-91,592,209,273,-38,71,349,219,322,294,268,409,13,236,103,271,-40,384,361,96,207,603,271,181,344,131,118,384
38491,54,151,324,80,-101,596,236,282,-39,68,381,284,326,281,265,273,58,243,126,273,-43,429,393,106,204,618,279,185,367,153,155,421
38492,20,92,299,27,-107,592,245,275,-42,73,369,239,332,277,263,210,64,254,130,271,-71,457,405,123,210,617,278,202,403,155,142,426
38493,-4,82,304,5,-119,591,258,262,-54,45,350,256,308,273,231,326,65,255,110,266,-92,416,407,137,210,600,244,206,369,124,58,357
38494,30,119,336,2,-101,585,275,251,-63,47,352,289,316,274,215,278,85,271,92,262,-106,393,443,138,189,585,224,221,381,134,33,365
38495,16,107,310,-8,-117,548,247,234,-68,36,328,269,309,264,207,224,54,261,74,235,-115,364,410,103,151,560,214,218,369,123,90,416
38496,-12,99,279,12,-126,529,245,244,-66,47,312,300,302,252,203,225,9,220,69,212,-141,348,361,75,130,560,198,187,334,127,101,408
38497,-11,104,266,4,-118,537,208,248,-54,46,276,294,299,255,160,228,2,214,47,197,-173,229,370,44,111,523,141,155,297,62,19,251
38498,33,120,242,14,-102,533,213,246,-66,33,261,271,294,246,143,241,-6,225,28,175,-177,259,338,34,85,511,145,82,271,31,-7,261
38499,43,85,166,32,-94,544,101,255,-50,45,254,238,297,230,135,227,11,191,30,165,-199,317,325,44,77,498,166,124,301,93,20,299
38500,-2,34,87,34,-83,585,-83,264,-59,43,258,184,285,216,135,175,-36,158,26,153,-215,281,280,14,80,491,149,101,274,54,-1,268
38501,-102,-46,63,19,-101,597,-38,277,-53,43,246,164,278,190,121,148,-98,154,7,154,-224,245,268,-1,54,471,159,74,269,56,3,251
38502,-112,-22,95,29,-82,533,267,292,-30,34,219,201,274,218,129,198,-74,139,21,153,-198,269,279,-6,62,512,240,84,270,78,47,326
38503,-111,15,141,55,-97,416,440,243,-43,6,217,199,255,224,94,264,-74,150,24,136,-181,274,260,-6,72,504,271,88,248,68,69,397
38504,-102,51,119,11,-115,496,244,159,-66,23,242,155,242,216,129,260,-91,137,-1,133,-182,192,278,-41,59,489,204,54,225,41,34,341
38505,-92,67,82,-19,-120,486,244,173,-66,29,249,173,236,215,135,271,-106,131,-11,130,-199,123,280,-49,48,485,198,-19,189,-1,1,343
38506,-87,17,-42,-69,-133,459,210,-12,-80,17,255,202,220,211,120,251,-76,147,-15,140,-209,238,313,-53,51,484,195,34,204,26,43,415
38507,-24,70,-79,-65,-114,491,218,187,-72,24,288,184,248,226,157,255,-96,150,0,161,-164,361,296,-51,63,500,247,55,229,46,54,414
38508,-43,78,-12,17,-96,520,248,444,-38,50,291,154,299,248,180,283,-65,156,28,184,-136,366,272,-39,96,533,271,74,263,79,59,444
38509,-65,39,135,28,-118,517,200,338,-42,32,287,135,272,223,161,261,-28,131,12,170,-185,287,215,-60,71,508,219,39,239,60,31,359
38510,-81,20,175,-4,-118,506,195,239,-72,23,286,98,247,233,136,210,20,66,-25,137,-195,287,144,-81,47,482,170,38,222,37,-6,198
38511,-76,61,190,-1,-107,520,213,224,-54,42,279,132,257,246,143,229,0,104,2,156,-184,337,178,-60,53,477,239,52,237,38,25,311
38512,-74,37,205,-51,-144,502,138,205,-80,14,226,162,249,216,141,283,-81,144,-17,133,-215,325,244,-62,34,459,223,68,231,38,6,316
38513,-68,32,222,-25,-107,530,156,208,-71,23,246,194,257,230,131,308,-47,125,-12,127,-208,335,251,-65,34,459,217,54,223,-3,-7,269
38514,-86,21,153,-30,-121,530,173,220,-75,25,255,205,254,236,129,263,-15,132,0,129,-225,351,280,-61,33,439,216,8,207,-35,-31,246
38515,-54,20,172,-53,-129,522,164,216,-84,34,269,179,240,233,119,182,-134,129,-10,120,-225,338,255,-56,32,433,191,41,214,-21,-34,278
38516,-33,-4,205,-59,-130,511,120,209,-92,33,229,130,237,223,112,22,-122,114,-6,121,-234,330,237,-54,29,422,179,59,200,-21,-59,311
38517,-71,-87,170,-69,-131,488,56,179,-86,1,177,105,246,214,87,27,-143,89,-22,118,-251,292,195,-72,11,408,180,0,172,-38,-48,302
38518,-86,-125,184,-52,-123,464,49,160,-104,0,152,105,256,224,105,108,-165,97,-3,141,-247,257,183,-77,27,416,175,-1,148,-46,-46,266
38519,-99,-90,173,-46,-141,454,36,143,-109,-6,175,103,217,211,112,99,-184,71,-16,131,-241,235,173,-78,24,437,147,-19,143,-64,-69,229
38520,-71,-18,196,-35,-131,463,57,138,-81,15,202,88,230,221,128,123,-177,81,-5,148,-187,238,198,-45,46,463,168,-10,136,-49,-43,253
38521,-49,0,189,-36,-128,467,32,137,-69,34,208,52,248,235,124,125,-172,72,0,160,-164,254,164,-54,39,478,197,-42,131,-51,-20,252
38522,-41,-89,158,-48,-127,460,1,144,-71,17,190,53,236,235,137,137,-138,66,14,142,-163,257,165,-41,40,487,241,-11,129,-60,-33,252
38523,-81,-112,162,-48,-141,448,8,124,-73,13,178,18,240,214,146,200,-182,70,0,150,-160,240,184,-56,45,491,259,-5,121,-69,-46,261
38524,-77,-35,173,-48,-152,441,30,106,-88,15,169,44,237,232,136,218,-232,60,0,138,-135,219,175,-45,41,519,292,-14,125,-54,-48,280
38525,-49,17,157,-35,-147,454,29,122,-84,28,198,57,234,237,148,162,-221,69,0,164,-120,221,180,-36,28,534,289,0,133,-46,-26,287
38526,-60,8,135,-31,-130,488,53,141,-72,48,199,70,248,243,162,16,-200,95,2,158,-127,238,176,-29,48,507,291,-47,120,-51,-23,287
38527,-80,-32,126,-40,-131,480,35,160,-64,44,166,73,255,240,141,-6,-172,62,7,153,-186,236,176,-37,35,474,252,-56,121,-67,-65,227
38528,-93,-62,120,-21,-136,463,72,158,-73,49,139,60,254,246,148,157,-226,36,4,168,-184,223,167,-40,24,481,226,-67,91,-79,-66,242
38529,-167,-89,51,-19,-134,462,56,160,-66,27,154,60,242,247,162,153,-249,58,10,162,-171,211,152,-41,34,485,226,-78,73,-82,-83,209
38530,-162,-74,51,-45,-128,456,13,163,-73,26,152,21,241,241,174,140,-255,50,-18,160,-173,214,129,-62,-2,472,226,-101,74,-94,-64,253
38531,-168,-34,63,-52,-127,461,15,172,-73,27,159,69,240,234,166,122,-222,67,-27,155,-171,218,141,-59,-5,468,210,-77,92,-78,-54,238
38532,-164,-52,59,-47,-142,469,33,198,-72,19,185,93,252,224,148,121,-202,75,-19,133,-171,119,147,-69,-6,464,216,-61,86,-97,-72,219
38533,-122,-47,89,-37,-109,473,56,187,-52,33,208,161,277,243,157,157,-203,82,6,156,-139,142,183,-61,2,495,240,-60,108,-63,-36,227
38534,-112,-61,89,-33,-121,458,35,203,-55,27,203,144,263,209,162,162,-221,86,-2,149,-133,235,193,-62,13,500,252,-39,113,-52,-39,245
38535,-113,-109,85,-21,-134,470,41,122,-69,32,216,162,263,222,164,170,-192,107,9,159,-128,231,213,-53,26,514,243,-31,101,-18,-32,265
38536,-141,-94,47,0,-114,489,85,44,-57,53,246,204,278,254,172,175,-169,142,26,184,-111,251,245,-16,35,548,243,-58,120,-42,-25,274
38537,-130,-54,40,30,-110,493,94,324,-39,44,244,146,301,234,165,174,-142,115,18,186,-131,282,230,-28,56,506,248,-103,91,-67,-47,258
38538,-115,-27,49,21,-103,450,54,350,-36,31,212,121,302,246,176,193,-111,75,13,175,-138,270,222,-56,49,493,250,-161,65,-94,-67,240
38539,-92,-17,98,-8,-124,426,27,329,-37,23,173,120,316,244,151,219,-182,121,13,155,-133,280,252,-47,21,501,277,-134,71,-88,-30,294
38540,-106,-26,143,-22,-135,425,27,235,-57,15,177,67,281,233,113,198,-234,105,-3,130,-157,313,207,-87,-6,485,296,-136,57,-79,-50,316
38541,-192,-97,48,-56,-137,426,-15,193,-76,11,161,27,240,242,119,175,-171,77,-24,125,-155,296,162,-96,-6,483,277,-118,40,-106,-58,265
38542,-272,-172,-58,-124,-161,434,-230,156,-79,14,146,19,246,241,122,144,-192,56,-22,145,-163,261,169,-84,18,476,275,-128,29,-83,-73,237
38543,-301,-195,-81,-107,-161,468,-313,143,-64,45,190,61,240,228,148,135,-262,58,-23,171,-152,263,189,-86,42,499,308,-113,77,-58,-28,299
38544,-224,-166,0,-81,-156,528,-90,160,-69,45,197,123,233,235,160,176,-210,70,-33,166,-144,306,152,-82,31,509,324,-35,100,-28,9,335
38545,-59,-50,242,30,-106,443,322,279,-31,23,212,156,277,249,148,250,-60,95,-7,177,-102,376,156,-62,50,532,359,39,140,19,56,413
38546,12,22,349,73,-87,402,331,313,-16,-3,215,189,265,218,134,260,-40,106,-21,164,-104,396,170,-84,19,544,377,10,114,-1,43,428
38547,83,74,402,77,-88,477,222,293,-34,8,245,253,259,194,127,234,-91,130,-24,147,-120,386,202,-88,25,515,364,48,85,-9,29,402
38548,52,-27,392,77,-100,470,190,257,-30,10,206,232,277,214,121,193,-69,121,-6,145,-124,384,221,-69,36,520,375,60,112,0,47,395
38549,1,-124,330,0,-106,459,125,230,-38,-8,186,211,284,235,123,185,-51,131,6,172,-127,390,248,-65,52,529,364,41,101,1,17,344
38550,-28,-112,298,6,-118,429,88,243,-30,-5,225,229,302,243,128,186,-40,152,25,176,-113,385,283,-58,70,529,390,46,138,29,50,395
38551,-28,-86,334,46,-96,440,90,284,-18,13,243,280,335,262,142,228,-6,198,49,187,-75,415,328,2,91,539,416,89,166,40,69,431
38552,1,-73,393,61,-97,465,97,343,-22,14,237,306,348,259,157,241,43,227,48,200,-66,419,346,17,102,549,382,150,202,43,52,399
38553,7,-101,384,46,-134,461,98,335,-42,12,230,275,334,253,160,234,55,215,56,187,-84,400,340,18,92,535,363,161,191,56,49,356
38554,-35,-126,292,34,-131,454,97,294,-47,19,239,235,305,261,178,248,48,199,72,218,-67,414,337,15,104,553,398,165,200,64,77,387
38555,-15,-97,249,77,-121,458,102,341,-17,43,265,183,343,269,188,249,64,220,82,214,-63,443,357,25,103,555,415,177,208,71,79,420
38556,-21,-102,295,59,-116,464,107,360,-25,49,268,280,348,255,174,243,65,231,52,196,-91,406,346,5,75,533,374,98,177,58,52,402
38557,-78,-144,316,66,-122,458,76,383,-16,43,248,297,361,236,159,227,88,231,41,169,-98,386,339,-4,62,533,352,83,157,45,61,419
38558,-140,-141,260,66,-126,431,45,366,-40,13,226,175,346,225,131,216,-39,213,20,166,-99,352,312,-28,38,520,347,73,143,22,45,459
38559,-67,-139,268,24,-123,444,67,351,-45,7,246,76,328,233,149,228,-31,181,9,168,-110,291,275,-22,34,519,350,81,138,7,21,401
38560,-24,-233,190,15,-123,455,96,363,-42,10,257,267,305,221,162,253,24,174,10,153,-95,293,293,-18,37,514,347,123,161,41,45,334
38561,-66,-249,179,10,-144,447,106,344,-45,12,268,328,304,232,167,348,30,163,6,161,-73,328,295,-12,25,530,358,100,155,32,36,383
38562,-74,-144,203,-34,-162,434,105,266,-55,8,287,333,306,232,169,365,48,195,11,174,-69,344,305,2,25,519,373,116,154,26,21,368
38563,-91,-91,218,-40,-175,430,83,88,-62,-5,281,378,324,237,178,319,63,217,28,172,-53,351,363,7,33,521,382,151,176,49,34,368
38564,-110,-27,204,-8,-153,456,135,275,-45,36,317,357,352,264,226,265,-22,229,40,195,-35,325,346,-1,47,546,384,47,117,6,6,380
38565,-126,-59,166,20,-157,452,121,462,-50,28,289,299,332,250,197,117,10,174,15,194,-108,376,298,-38,35,524,366,59,95,-7,-18,389
38566,-140,-38,179,33,-139,476,149,315,-21,27,307,294,323,263,202,239,66,197,30,209,-84,450,346,-17,45,543,378,113,128,22,28,413
38567,-120,-16,267,3,-124,507,195,241,-41,47,348,276,311,258,216,282,93,203,29,211,-65,466,369,-18,52,544,358,110,157,23,35,385
38568,-117,-35,293,-46,-154,485,184,230,-82,34,303,285,283,236,201,239,100,165,-3,194,-86,462,351,-42,40,530,357,99,164,16,46,382
38569,-99,-44,330,-73,-147,474,194,217,-82,37,314,301,275,240,210,285,68,187,-9,200,-90,425,344,-43,34,527,380,113,165,36,59,413
38570,-104,-67,364,-57,-130,488,189,256,-80,53,365,367,289,229,229,325,113,203,12,211,-70,440,333,-22,56,551,442,162,196,84,90,500
38571,-101,-77,375,-47,-126,505,215,239,-95,52,361,340,286,243,239,319,149,152,7,217,-27,502,329,-5,61,568,502,228,242,140,123,540
38572,-109,-73,335,-84,-132,502,213,220,-107,28,333,279,252,237,232,330,77,147,10,208,-52,502,330,-20,47,571,484,204,245,124,115,495
38573,-133,-87,307,-81,-153,471,184,225,-88,28,296,267,257,229,223,335,14,190,-6,191,-70,487,353,-21,40,543,452,177,242,109,97,479
38574,-136,-77,313,-62,-146,500,147,173,-93,44,295,275,250,226,183,375,47,149,-2,166,-114,440,336,-52,30,508,352,213,224,93,57,455
38575,-104,-76,306,-46,-110,491,136,188,-83,52,304,296,261,247,193,364,83,145,10,179,-130,453,361,-39,46,503,324,250,248,114,68,472
38576,-128,-110,294,-56,-138,494,123,201,-101,45,303,285,244,247,192,314,79,133,-1,180,-133,426,331,-64,21,488,324,166,215,72,31,417
38577,-115,-137,282,-32,-142,493,123,221,-108,40,294,271,237,255,188,172,56,116,-21,173,-157,409,314,-68,22,497,349,174,232,88,51,440
38578,-90,-127,203,-30,-141,494,115,264,-65,69,277,295,262,258,183,177,0,156,11,190,-143,453,390,-32,70,515,394,231,279,154,105,477
38579,-50,-133,161,-23,-147,484,99,270,-78,49,273,307,258,232,192,358,7,183,7,184,-118,420,416,-24,81,527,399,249,288,154,133,531
38580,-45,-116,259,10,-129,506,134,324,-50,57,303,346,291,252,228,383,72,207,26,221,-58,424,428,9,104,568,445,267,312,191,152,554
38581,-137,-141,209,0,-150,476,96,367,-53,23,295,320,284,246,202,327,36,192,25,211,-80,447,374,-9,84,563,415,222,284,152,119,493
38582,-176,-82,66,13,-161,471,94,428,-28,40,295,279,313,271,213,318,32,160,37,228,-77,449,348,2,101,555,397,228,273,148,131,493
38583,-164,-78,11,9,-153,471,107,393,-27,38,297,234,319,271,229,301,31,159,71,240,-57,444,342,23,134,575,402,252,305,190,168,548
38584,-161,-127,123,31,-164,456,140,337,-28,30,298,247,316,284,241,292,31,190,80,263,-47,466,365,47,166,604,453,247,316,205,173,553
38585,-140,-142,185,-11,-206,452,146,316,-36,33,276,187,313,280,240,293,74,173,63,253,-34,487,362,42,129,618,470,248,333,217,185,566
38586,-104,-128,244,-29,-197,450,158,274,-51,50,295,176,316,302,251,301,84,173,77,266,-13,517,368,38,165,619,484,257,347,268,218,636
38587,-71,-129,310,-33,-177,468,173,297,-56,62,325,179,340,313,262,302,15,201,96,286,-9,512,392,63,171,615,465,247,328,236,201,518
38588,-48,-132,366,-30,-177,476,169,299,-40,61,326,241,338,310,249,293,-9,181,86,271,-32,468,394,60,150,612,461,206,301,218,189,459
38589,-62,-136,390,-28,-184,418,129,272,-47,18,297,309,345,280,225,265,0,198,96,258,-40,448,397,51,127,570,418,198,306,194,138,423
38590,-96,-166,391,-76,-179,390,84,235,-68,9,267,317,327,269,217,258,-15,228,95,243,-61,394,388,75,118,551,380,158,281,150,98,408
38591,-82,-145,378,-52,-165,414,128,250,-60,38,284,335,356,293,230,299,28,265,121,252,-35,413,446,120,142,579,408,125,302,189,133,495
38592,-51,-142,373,-32,-155,423,147,316,-40,42,289,353,381,302,256,305,38,301,151,274,-37,434,501,141,178,599,436,136,319,220,170,514
38593,-65,-167,359,-33,-171,435,144,296,-38,51,303,290,378,309,256,300,48,284,149,283,-52,408,439,135,173,617,434,203,343,224,166,416
38594,-93,-166,293,-24,-149,473,148,103,-38,72,321,288,377,310,251,294,46,276,154,303,-13,438,408,151,187,612,448,195,361,234,166,475
38595,-98,-202,244,-11,-154,447,89,243,-52,48,278,239,368,291,244,257,24,263,124,271,-59,394,375,127,138,569,406,127,298,183,114,433
38596,-78,-204,265,30,-168,422,104,434,-43,55,283,215,387,292,224,244,71,305,114,261,-49,404,393,136,132,567,440,188,340,179,128,439
38597,-44,-121,312,1,-143,450,140,338,-42,57,343,284,389,289,258,296,167,326,141,270,7,442,441,176,175,611,528,253,412,263,232,533
38598,-55,-16,307,-13,-141,505,59,322,-53,74,363,320,391,270,266,305,208,340,125,289,16,444,485,190,169,634,562,303,433,302,249,567
38599,-81,17,302,-8,-145,567,-95,318,-81,82,399,331,383,275,281,282,157,322,124,293,3,418,513,192,159,655,548,333,417,293,252,548
38600,-80,-3,333,-52,-152,594,11,298,-73,113,379,376,375,290,311,297,116,363,147,301,14,414,554,215,195,667,578,378,471,337,288,576
38601,-61,-28,359,-96,-163,534,262,297,-65,90,343,380,376,294,279,303,125,386,147,311,16,454,556,217,201,651,524,367,486,355,282,568
38602,-39,-21,284,-91,-165,396,440,349,-41,59,318,419,398,316,246,352,136,378,162,323,17,487,530,230,206,661,475,333,508,351,309,551
38603,-93,-73,147,-91,-190,443,227,370,-56,62,318,390,358,303,236,290,85,287,118,273,-40,429,490,172,179,613,408,271,466,321,270,493
38604,-149,-108,161,-95,-198,438,190,298,-74,60,307,387,350,298,239,278,133,296,114,266,-62,421,474,154,169,614,410,311,466,333,289,477
38605,-157,-128,186,-83,-202,442,168,233,-73,38,296,336,328,298,206,275,115,313,112,253,-68,333,461,134,165,600,407,311,462,315,259,512
38606,-161,-151,177,-95,-199,454,136,202,-85,49,269,343,309,283,199,270,21,296,84,237,-87,337,437,142,172,586,380,288,471,304,241,508
38607,-171,-140,150,-93,-188,449,137,185,-86,53,240,287,294,269,194,243,23,213,79,235,-105,371,409,104,164,575,368,270,456,297,257,449
38608,-145,-119,190,-95,-191,419,98,211,-79,56,216,290,295,288,195,166,12,194,65,237,-115,361,449,81,151,564,374,265,440,272,226,454
38609,-164,-145,147,-126,-201,412,85,193,-91,50,239,286,255,256,183,136,-21,184,41,221,-136,318,414,53,121,555,367,190,386,213,182,452
38610,-176,-159,146,-142,-201,411,104,184,-98,33,252,230,247,250,176,157,4,153,19,209,-133,311,365,41,106,540,353,174,359,202,192,411
38611,-234,-223,124,-140,-194,396,4,177,-106,19,195,177,240,264,178,204,-49,144,36,218,-110,341,354,18,115,556,399,228,366,195,200,462
38612,-198,-288,140,-124,-197,391,-44,195,-85,12,191,143,245,259,176,234,-35,146,42,223,-78,346,362,25,110,567,435,234,380,213,203,481
