,Fp1,Fp2,F7,F3,Fz,F4,F8,FC5,FC1,FC2,FC6,T7,C3,Cz,C4,T8,TP9,CP5,CP1,CP2,CP6,TP10,P7,P3,Pz,P4,P8,PO9,O1,Oz,O2,PO10
29863,-387,-392,-169,-413,-248,-185,-161,-238,-217,-99,59,-532,33,-44,-192,-177,-308,-335,-230,-82,-3,-159,-365,-288,-15,-76,-120,-136,-26,-284,-312,-365
29864,-396,-387,-161,-422,-239,-152,-130,-256,-210,-80,47,-553,29,-40,-180,-131,-351,-348,-232,-91,-6,-121,-394,-314,-28,-93,-116,-213,-48,-293,-316,-337
29865,-416,-382,-144,-407,-237,-169,-122,-269,-216,-83,25,-571,29,-50,-211,-127,-377,-328,-244,-103,-8,-137,-405,-312,-33,-96,-103,-228,-81,-321,-342,-312
29866,-396,-363,-164,-389,-221,-159,-130,-262,-205,-99,29,-557,46,-51,-213,-152,-345,-337,-247,-110,-38,-130,-393,-302,-32,-105,-122,-244,-90,-362,-366,-338
29867,-376,-329,-132,-372,-201,-157,-119,-215,-195,-90,52,-580,54,-46,-212,-152,-328,-359,-237,-97,-30,-115,-408,-323,-49,-107,-148,-354,-166,-423,-397,-367
29868,-370,-312,-131,-358,-184,-151,-127,-213,-202,-97,53,-555,57,-55,-198,-167,-305,-345,-233,-98,-20,-107,-388,-314,-43,-105,-137,-261,-100,-361,-365,-333
29869,-362,-322,-128,-357,-162,-121,-111,-221,-186,-73,71,-491,48,-56,-171,-147,-247,-316,-208,-101,-7,-111,-318,-257,-16,-90,-136,-118,-15,-302,-303,-285
29870,-374,-311,-152,-370,-178,-150,-136,-246,-186,-90,77,-459,34,-64,-192,-181,-181,-315,-211,-100,-12,-149,-265,-235,-22,-108,-148,-43,-1,-294,-330,-299
29871,-361,-292,-112,-355,-189,-192,-157,-204,-191,-104,82,-467,50,-65,-210,-218,-123,-304,-220,-103,-44,-155,-207,-255,-28,-143,-176,-173,-45,-328,-374,-318
29872,-348,-278,-76,-339,-189,-258,-158,-190,-171,-99,54,-473,52,-62,-212,-210,-202,-324,-224,-109,-59,-143,-286,-271,-45,-141,-171,-333,-122,-396,-391,-345
29873,-333,-287,-78,-335,-191,-180,-121,-204,-181,-104,47,-472,60,-51,-202,-207,-223,-314,-194,-96,-33,-175,-301,-263,-29,-127,-167,-151,-71,-361,-385,-377
29874,-332,-304,-102,-352,-190,-171,-130,-193,-184,-99,35,-462,70,-53,-188,-217,-231,-289,-197,-72,-33,-180,-274,-246,2,-108,-159,-6,-9,-303,-341,-345
29875,-312,-308,-25,-330,-188,-137,-121,-159,-175,-89,45,-433,97,-58,-183,-209,-208,-261,-185,-69,-32,-104,-284,-220,15,-74,-122,-60,-13,-285,-300,-285
29876,-308,-277,-30,-318,-162,-113,-112,-131,-167,-84,50,-380,121,-50,-184,-221,-160,-257,-174,-74,-38,-102,-260,-226,-4,-91,-132,-94,-21,-298,-317,-261
29877,-329,-302,-66,-331,-147,-133,-126,-121,-155,-87,55,-383,132,-51,-199,-219,-159,-268,-175,-72,-29,-96,-247,-231,-7,-80,-120,-68,-36,-303,-288,-221
29878,-359,-349,-80,-290,-141,-107,-146,-137,-147,-72,63,-403,100,-66,-191,-201,-175,-278,-180,-79,-24,-107,-233,-228,7,-74,-111,24,23,-265,-274,-243
29879,-356,-353,-75,-291,-149,-114,-138,-147,-162,-71,52,-414,92,-61,-169,-196,-145,-274,-195,-81,-25,-119,-237,-241,14,-55,-97,41,37,-261,-266,-261
29880,-337,-315,-63,-293,-128,-99,-110,-160,-177,-52,77,-423,92,-55,-162,-171,-133,-317,-205,-63,-18,-115,-245,-249,9,-40,-74,72,13,-256,-257,-218
29881,-315,-291,-23,-298,-125,-83,-114,-148,-170,-48,120,-396,77,-54,-167,-150,-118,-302,-202,-52,3,-73,-204,-225,7,-29,-43,162,75,-215,-219,-188
29882,-259,-225,-35,-303,-153,-105,-95,-159,-180,-46,160,-389,75,-60,-143,-113,-102,-291,-199,-76,37,-27,-206,-235,9,-22,-13,91,57,-229,-226,-146
29883,-268,-217,-17,-300,-147,-86,-76,-152,-199,-52,156,-360,64,-68,-146,-96,-54,-270,-212,-74,40,-35,-177,-231,11,-35,0,169,77,-216,-203,-122
29884,-284,-195,19,-307,-137,-86,-42,-146,-184,-32,167,-329,84,-64,-139,-72,2,-229,-201,-67,63,-32,-120,-207,6,-26,18,194,126,-184,-162,-102
29885,-274,-180,24,-303,-153,-87,-35,-136,-182,-34,196,-323,103,-59,-108,-121,59,-208,-185,-61,67,61,-21,-185,1,0,24,127,129,-178,-132,-75
29886,-241,-186,76,-268,-122,-40,-19,-102,-174,-25,234,-312,83,-61,-89,-127,-20,-242,-176,-76,59,87,-153,-225,-1,-23,16,-264,-35,-272,-209,-111
29887,-237,-241,53,-280,-133,-44,-42,-127,-173,-49,211,-325,84,-79,-113,-123,-57,-241,-180,-86,43,47,-184,-235,-6,-44,-4,-105,21,-241,-211,-126
29888,-287,-244,-19,-312,-154,-51,-59,-162,-205,-58,163,-318,82,-94,-129,-108,-46,-249,-195,-91,49,37,-177,-210,1,-56,-12,-28,54,-238,-198,-135
29889,-261,-209,21,-292,-137,-50,-28,-119,-183,-63,169,-278,103,-64,-116,-56,5,-209,-187,-63,73,98,-73,-171,29,-16,38,67,125,-171,-167,-78
29890,-221,-175,96,-283,-137,-135,-6,-70,-181,-48,170,-266,122,-51,-107,-34,51,-167,-155,-46,99,125,-40,-155,35,26,84,270,204,-95,-114,-24
29891,-242,-188,83,-284,-136,-199,-45,-76,-196,-39,169,-242,128,-46,-92,-33,54,-156,-156,-37,95,115,-26,-135,45,22,102,365,254,-57,-93,-54
29892,-255,-190,84,-298,-142,-99,-51,-70,-176,-38,178,-267,111,-59,-93,-27,-10,-194,-172,-11,111,122,-137,-176,40,16,95,50,146,-152,-119,-99
29893,-266,-195,73,-309,-161,-126,-71,-84,-192,-43,158,-286,96,-65,-100,-62,-32,-217,-198,-43,93,77,-169,-212,3,-10,39,25,89,-229,-198,-158
29894,-338,-217,42,-313,-163,-109,-70,-107,-195,-48,171,-292,102,-61,-95,-62,11,-223,-189,-25,98,82,-84,-202,19,4,36,278,187,-171,-154,-94
29895,-342,-264,37,-326,-173,-104,-73,-132,-200,-40,166,-307,86,-53,-90,-55,3,-223,-201,-23,105,75,-125,-206,2,2,28,98,100,-194,-163,-79
29896,-307,-250,34,-339,-164,-94,-49,-135,-210,-25,171,-311,75,-56,-78,-60,-41,-247,-218,-34,96,15,-204,-242,-10,-14,16,-134,0,-260,-227,-139
29897,-297,-233,45,-324,-148,-53,-23,-118,-200,-17,171,-298,97,-46,-48,-58,-13,-235,-206,-9,117,71,-194,-217,-1,3,19,-130,3,-249,-224,-118
29898,-299,-254,46,-304,-143,-67,-25,-113,-189,-21,183,-292,90,-43,-51,-47,23,-191,-178,-12,121,74,-117,-175,0,23,32,46,99,-209,-198,-98
29899,-304,-284,17,-298,-145,-77,-36,-111,-192,-35,174,-284,101,-50,-83,-67,45,-180,-166,-25,113,7,-88,-156,15,0,8,117,129,-195,-186,-114
29900,-308,-282,27,-299,-155,-161,-48,-90,-177,-36,137,-275,138,-57,-112,-79,20,-164,-161,-39,87,-10,-105,-154,11,1,5,115,124,-181,-192,-119
29901,-280,-237,65,-268,-163,-192,-35,-50,-145,-48,135,-251,146,-48,-122,-79,31,-153,-160,-37,64,40,-76,-146,35,6,3,175,175,-163,-162,-73
29902,-277,-235,52,-286,-165,-127,-50,-29,-145,-67,141,-238,170,-33,-129,-87,68,-131,-129,-22,47,13,-10,-109,37,-5,12,291,216,-133,-155,-91
29903,-299,-252,63,-271,-150,-172,-87,-2,-143,-94,95,-268,161,-57,-165,-148,20,-182,-162,-70,26,-3,-92,-172,-20,-65,-31,29,48,-240,-245,-162
29904,-289,-248,77,-243,-164,-178,-98,6,-135,-97,81,-281,159,-65,-177,-149,-27,-216,-199,-112,-2,-31,-142,-221,-46,-90,-71,-109,-31,-318,-311,-216
29905,-305,-264,67,-228,-161,-155,-84,-4,-122,-96,88,-299,157,-78,-188,-149,-34,-194,-189,-112,1,-19,-141,-221,-50,-91,-69,-21,-13,-321,-332,-216
29906,-300,-272,66,-219,-148,-143,-87,3,-117,-97,80,-290,147,-74,-190,-202,-64,-205,-199,-118,-21,-74,-156,-222,-46,-108,-107,13,-1,-343,-358,-268
29907,-293,-285,65,-224,-157,-139,-88,1,-123,-115,70,-296,147,-59,-205,-195,-103,-227,-201,-104,-16,-93,-182,-226,-38,-113,-109,36,-3,-341,-341,-263
29908,-285,-298,87,-229,-153,-122,-93,9,-116,-101,66,-304,120,-65,-192,-175,-119,-244,-200,-110,-1,-77,-233,-265,-53,-117,-114,-189,-105,-398,-358,-280
29909,-283,-325,82,-250,-161,-126,-154,15,-108,-107,57,-345,119,-57,-226,-208,-137,-250,-210,-123,-20,-85,-244,-271,-61,-136,-131,-216,-138,-430,-419,-321
29910,-323,-353,15,-286,-173,-131,-167,-26,-148,-113,68,-431,107,-74,-225,-239,-195,-288,-243,-147,-54,-138,-288,-298,-78,-167,-183,-158,-147,-445,-450,-353
29911,-331,-328,15,-317,-170,-133,-144,-20,-127,-93,79,-407,132,-72,-207,-209,-165,-275,-223,-116,-29,-154,-264,-281,-41,-128,-151,-90,-107,-399,-402,-328
29912,-365,-315,-23,-283,-175,-140,-126,-83,-124,-83,112,-406,123,-66,-189,-218,-134,-285,-216,-109,-5,-96,-245,-290,-26,-88,-100,-49,-60,-333,-335,-247
29913,-394,-321,-62,-284,-177,-145,-115,-122,-143,-94,107,-407,91,-90,-178,-258,-98,-279,-233,-107,5,-84,-179,-277,-45,-99,-114,-78,-75,-360,-349,-248
29914,-416,-334,-52,-302,-179,-142,-104,-136,-141,-77,68,-400,60,-93,-181,-254,-105,-303,-234,-93,24,-80,-174,-288,-71,-108,-110,-63,-36,-349,-344,-274
29915,-395,-313,-29,-313,-201,-156,-104,-149,-160,-102,43,-444,43,-92,-187,-231,-179,-353,-252,-106,5,-111,-236,-315,-66,-105,-127,27,-23,-347,-343,-294
29916,-394,-331,-63,-358,-197,-162,-117,-170,-157,-94,72,-455,36,-80,-178,-202,-187,-341,-244,-94,-2,-105,-229,-295,-43,-107,-121,211,44,-273,-318,-269
29917,-403,-355,-70,-374,-188,-157,-120,-177,-158,-81,68,-473,20,-84,-187,-258,-207,-382,-247,-118,-41,-90,-330,-332,-67,-125,-129,32,-72,-327,-355,-268
29918,-425,-339,-37,-345,-175,-162,-131,-182,-174,-75,68,-498,7,-94,-203,-273,-277,-433,-298,-139,-48,-69,-462,-397,-110,-151,-142,-392,-238,-428,-387,-299
29919,-392,-340,-41,-323,-174,-152,-163,-168,-155,-71,69,-512,7,-106,-210,-231,-319,-413,-309,-150,-54,-88,-461,-388,-115,-160,-132,-386,-206,-418,-388,-280
29920,-384,-356,-69,-329,-178,-167,-176,-177,-168,-91,71,-501,0,-104,-217,-261,-266,-414,-309,-158,-57,-156,-427,-369,-109,-154,-147,-231,-125,-362,-351,-259
29921,-403,-336,-63,-341,-198,-179,-180,-185,-184,-90,59,-468,10,-115,-232,-306,-253,-393,-326,-161,-64,-186,-355,-361,-126,-179,-182,-93,-56,-330,-337,-254
29922,-412,-350,-79,-323,-183,-195,-165,-148,-159,-85,60,-422,26,-109,-215,-288,-166,-338,-293,-167,-74,-162,-257,-311,-105,-152,-158,90,34,-299,-302,-220
29923,-447,-391,-89,-335,-197,-171,-190,-145,-165,-97,69,-424,34,-115,-233,-310,-148,-345,-299,-184,-73,-138,-275,-330,-116,-151,-144,64,26,-329,-328,-211
29924,-413,-407,-47,-318,-180,-213,-193,-114,-153,-90,114,-412,48,-96,-208,-256,-138,-334,-293,-175,-31,-113,-244,-327,-113,-146,-95,-8,-10,-335,-335,-190
29925,-416,-417,-68,-323,-186,-290,-255,-122,-150,-104,148,-405,48,-109,-191,-222,-138,-321,-293,-173,-8,-95,-211,-329,-120,-147,-82,-233,-90,-365,-355,-223
29926,-442,-403,-77,-344,-208,-156,-284,-156,-159,-79,161,-422,26,-90,-190,-232,-193,-345,-293,-135,-2,-99,-277,-337,-98,-133,-92,-208,-47,-336,-321,-244
29927,-423,-386,-77,-354,-197,-109,-257,-196,-170,-88,143,-423,3,-93,-197,-239,-191,-356,-294,-124,-25,-145,-292,-328,-99,-127,-134,-16,2,-328,-333,-302
29928,-395,-385,-86,-353,-179,-142,-233,-182,-157,-82,85,-425,19,-80,-200,-238,-159,-344,-267,-128,-46,-186,-279,-328,-102,-125,-163,86,29,-329,-363,-321
29929,-379,-321,-78,-358,-181,-160,-224,-162,-178,-102,29,-476,-9,-79,-235,-244,-205,-390,-295,-150,-62,-186,-321,-361,-112,-153,-197,61,10,-362,-405,-337
29930,-373,-288,-72,-361,-191,-142,-193,-146,-164,-108,-1,-521,-34,-98,-258,-253,-249,-446,-339,-172,-82,-238,-389,-421,-147,-183,-220,-143,-141,-460,-497,-412
29931,-405,-309,-80,-350,-192,-177,-198,-167,-166,-124,-21,-516,-56,-102,-273,-246,-243,-459,-359,-212,-108,-280,-406,-460,-196,-233,-283,-251,-219,-527,-550,-454
29932,-389,-343,-110,-423,-205,-205,-239,-241,-175,-146,-53,-541,-58,-128,-290,-312,-291,-472,-377,-232,-132,-338,-421,-456,-216,-252,-295,-257,-218,-514,-515,-456
29933,-353,-359,-118,-428,-198,-178,-216,-276,-194,-128,-14,-540,-60,-132,-300,-362,-293,-476,-378,-237,-144,-306,-430,-475,-218,-257,-319,-304,-231,-499,-520,-450
29934,-382,-356,-111,-345,-174,-149,-198,-267,-203,-120,10,-488,-41,-137,-284,-342,-217,-409,-359,-241,-146,-224,-321,-421,-198,-264,-293,-35,-104,-443,-490,-386
29935,-381,-303,-80,-347,-148,-111,-152,-251,-174,-80,59,-491,-10,-118,-235,-293,-196,-388,-322,-219,-112,-214,-316,-383,-165,-230,-238,-46,-110,-408,-445,-345
29936,-372,-278,-97,-367,-138,-103,-141,-259,-179,-65,76,-548,-21,-111,-229,-260,-196,-383,-318,-189,-94,-219,-370,-397,-171,-207,-198,-160,-146,-423,-426,-368
29937,-367,-300,-95,-352,-124,-97,-154,-267,-189,-64,87,-558,-33,-132,-218,-211,-241,-412,-321,-191,-90,-193,-429,-432,-174,-212,-213,-304,-215,-483,-474,-416
29938,-354,-300,-53,-326,-126,-74,-98,-245,-171,-56,77,-531,-8,-134,-222,-262,-279,-421,-318,-192,-92,-191,-414,-432,-165,-217,-246,-248,-208,-474,-472,-435
29939,-304,-278,-36,-314,-115,-79,-89,-215,-174,-59,85,-481,-8,-125,-198,-293,-232,-408,-299,-159,-64,-197,-335,-389,-122,-188,-229,-160,-158,-443,-421,-406
29940,-444,-266,-25,-300,-105,-87,-86,-189,-162,-54,93,-416,13,-115,-179,-234,-200,-364,-284,-134,-33,-162,-313,-339,-90,-174,-181,-204,-159,-447,-444,-364
29941,-640,-287,27,-303,-114,-102,-87,-131,-143,-50,106,-349,68,-97,-183,-190,-139,-304,-261,-134,-29,-114,-283,-317,-92,-164,-175,-209,-142,-413,-420,-353
29942,-296,-318,67,-258,-124,-151,-89,-114,-150,-78,87,-341,91,-94,-180,-160,-77,-270,-256,-134,-16,-91,-212,-284,-80,-146,-145,-47,-90,-401,-396,-310
29943,-127,-311,61,-249,-142,-154,-104,-85,-151,-82,41,-309,102,-91,-186,-172,33,-194,-228,-116,-6,-79,-64,-239,-25,-102,-119,32,-4,-346,-348,-273
29944,-196,-304,79,-235,-125,-134,-96,-41,-135,-58,76,-293,108,-55,-165,-141,24,-200,-194,-78,11,-47,-98,-237,-7,-77,-88,-54,11,-314,-307,-265
29945,-210,-314,89,-223,-120,-121,-118,-38,-129,-70,101,-314,100,-66,-164,-169,-51,-219,-209,-72,21,-58,-200,-259,-7,-64,-64,-63,-14,-304,-304,-269
29946,-239,-326,89,-222,-118,-141,-151,-59,-149,-81,99,-320,77,-98,-183,-310,-60,-250,-227,-106,-11,-98,-195,-259,-15,-84,-109,91,41,-263,-283,-282
29947,-227,-307,91,-210,-108,-118,-149,-69,-118,-47,144,-316,70,-81,-159,-330,-83,-271,-228,-88,12,-72,-230,-251,-2,-66,-105,90,50,-252,-263,-254
29948,-251,-377,38,-223,-94,-123,-196,-118,-156,-58,143,-395,29,-108,-185,-295,-179,-346,-267,-117,-3,-95,-322,-305,-54,-101,-138,16,39,-279,-289,-230
29949,-219,-381,32,-222,-75,-145,-190,-123,-147,-60,115,-422,26,-117,-176,-241,-224,-373,-287,-118,-13,-127,-359,-343,-68,-121,-137,-54,-21,-296,-316,-237
29950,-227,-333,19,-249,-100,-165,-204,-168,-169,-57,51,-442,16,-124,-194,-200,-268,-395,-301,-144,-36,-177,-397,-352,-88,-145,-184,-135,-93,-352,-401,-344
29951,-280,-269,-8,-269,-92,-74,-160,-192,-164,-40,63,-450,37,-115,-177,-200,-236,-384,-271,-136,-43,-138,-365,-314,-73,-129,-165,-80,-81,-353,-382,-292
29952,-296,-240,-18,-274,-94,-102,-140,-182,-176,-58,70,-458,33,-118,-204,-208,-229,-360,-263,-157,-57,-116,-334,-333,-72,-148,-168,-71,-97,-372,-399,-293
29953,-324,-242,-33,-262,-106,-87,-95,-155,-159,-75,64,-427,49,-109,-213,-173,-175,-328,-245,-153,-55,-107,-271,-293,-56,-150,-155,40,-39,-366,-395,-314
29954,-324,-249,10,-270,-105,-37,-50,-152,-152,-47,102,-421,42,-102,-168,-117,-185,-325,-249,-139,-27,-85,-276,-299,-31,-133,-89,52,6,-301,-299,-219
29955,-284,-197,94,-218,-77,2,29,-112,-140,-23,181,-386,50,-95,-141,-119,-122,-300,-234,-102,0,-30,-251,-285,-35,-100,-81,119,28,-286,-307,-209
29956,-228,-119,147,-196,-82,-3,51,-66,-150,-36,195,-351,60,-105,-142,-152,-47,-274,-225,-114,2,-16,-189,-254,-28,-87,-93,267,99,-250,-310,-217
29957,-174,-103,165,-191,-59,21,56,-38,-135,-14,226,-277,98,-106,-113,-103,50,-217,-197,-69,48,44,-76,-221,1,-56,-18,196,116,-236,-256,-147
29958,-143,-115,192,-193,-46,46,89,-20,-120,-9,246,-235,96,-114,-100,-39,25,-247,-221,-69,63,90,-149,-265,-15,-54,-2,-262,-92,-333,-309,-173
29959,-148,-122,182,-204,-50,-22,95,-43,-114,-19,274,-286,92,-109,-79,20,-89,-291,-243,-59,92,127,-269,-326,-19,-31,38,-364,-156,-346,-285,-91
29960,-128,-117,211,-149,-32,-50,104,-29,-109,11,263,-220,114,-96,-79,14,25,-247,-218,-61,108,166,-197,-278,3,-2,83,-141,-58,-273,-196,-15
29961,-108,-156,229,-151,-43,30,110,2,-95,32,272,-243,132,-81,-56,30,36,-242,-213,-60,103,162,-190,-268,-1,-15,38,-40,-43,-280,-258,-117
29962,-130,-165,252,-190,-54,0,47,23,-115,16,244,-250,132,-74,-69,10,71,-230,-194,-61,102,147,-112,-247,11,-15,28,333,127,-191,-244,-112
29963,-189,-186,216,-178,-78,-11,37,26,-130,21,250,-228,129,-83,-81,-10,130,-219,-191,-42,102,149,-55,-223,36,-9,59,426,174,-161,-186,-85
29964,-187,-164,227,-178,-91,-24,61,16,-131,11,254,-240,103,-73,-74,-4,57,-248,-202,-32,91,151,-112,-241,12,0,61,252,106,-188,-202,-127
29965,-177,-180,259,-194,-100,-50,54,-1,-144,4,236,-222,85,-76,-73,-2,77,-249,-223,-21,118,174,-145,-255,9,15,88,187,112,-167,-155,-72
29966,-186,-175,233,-215,-99,-39,55,-22,-146,18,248,-207,77,-76,-68,1,117,-252,-218,-31,142,204,-169,-281,7,12,112,-64,10,-217,-156,-64
29967,-175,-164,248,-229,-115,-48,52,-46,-160,8,225,-208,62,-78,-85,0,60,-287,-237,-45,142,208,-228,-306,-2,17,112,-228,-37,-244,-184,-28
29968,-144,-161,252,-246,-98,-58,60,-57,-157,-4,183,-180,84,-75,-111,24,62,-251,-218,-31,155,226,-185,-271,31,47,151,-68,61,-153,-95,10
29969,-150,-149,244,-244,-70,-39,71,-40,-149,0,211,-176,87,-60,-95,36,101,-220,-186,-9,154,221,-134,-225,59,55,145,45,117,-99,-53,14
29970,-153,-144,228,-226,-87,-54,80,-65,-149,-2,237,-201,89,-64,-72,28,113,-216,-191,-7,171,235,-120,-213,52,56,145,118,132,-121,-79,-12
29971,-221,-134,192,-199,-85,-61,79,-76,-128,-7,250,-228,98,-74,-76,19,104,-201,-172,-17,195,224,-87,-192,56,74,139,171,157,-101,-80,-10
29972,-239,-132,197,-199,-86,-41,95,-59,-126,-22,239,-231,127,-81,-85,5,100,-192,-172,-35,170,215,-102,-187,60,74,124,104,144,-117,-85,-2
29973,-192,-87,209,-171,-71,-117,115,-34,-115,-27,246,-180,162,-82,-81,26,144,-178,-147,-4,176,201,-56,-144,71,65,113,206,220,-116,-112,-62
29974,-144,-99,231,-165,-43,-61,116,-31,-103,-37,242,-171,175,-73,-67,17,172,-176,-129,0,198,190,-5,-121,94,71,104,292,271,-70,-126,-71
29975,-129,-149,196,-205,-74,-65,68,-67,-111,-47,196,-189,143,-98,-81,-31,187,-152,-122,-15,160,151,10,-141,86,48,68,175,199,-104,-160,-66
29976,-134,-155,199,-209,-81,-98,27,-65,-92,-34,243,-170,155,-76,-86,-209,244,-120,-109,-19,121,111,119,-131,85,37,0,200,222,-124,-181,-136
29977,-162,-170,157,-221,-73,-114,-22,-73,-118,-63,252,-212,150,-76,-90,-390,202,-130,-125,-7,103,62,96,-101,87,39,-10,473,348,-48,-127,-114
29978,-153,-196,156,-208,-57,-119,-47,-88,-121,-56,225,-237,131,-88,-94,-349,94,-176,-148,-17,106,31,-19,-154,70,25,-2,337,253,-95,-133,-98
29979,-131,-167,162,-191,-69,-100,-52,-112,-145,-61,178,-277,99,-94,-119,-179,-2,-241,-182,-59,60,-21,-180,-231,19,-33,-61,-16,32,-273,-276,-201
29980,-152,-107,155,-231,-69,-116,-71,-129,-152,-77,150,-295,63,-111,-147,-92,0,-261,-195,-72,42,2,-220,-248,-12,-47,-61,-38,16,-296,-297,-231
29981,-211,-168,119,-332,-89,-96,-65,-129,-155,-69,92,-281,66,-92,-148,15,73,-221,-190,-73,44,51,-86,-207,-17,-43,-30,72,80,-250,-275,-198
29982,-281,-260,97,-303,-102,-93,-65,-141,-182,-61,125,-293,58,-101,-157,45,41,-241,-208,-94,42,56,-109,-234,-36,-80,-28,56,27,-286,-312,-217
29983,-280,-292,94,-259,-116,-127,-79,-177,-191,-40,107,-293,42,-87,-153,12,39,-249,-209,-87,36,71,-136,-243,-23,-97,-18,138,53,-253,-298,-205
29984,-232,-280,77,-296,-134,-124,-52,-198,-185,-41,95,-345,30,-100,-144,-8,8,-275,-234,-103,6,50,-190,-249,-34,-120,-46,160,40,-255,-292,-207
29985,-220,-253,94,-333,-137,-114,-15,-200,-212,-60,95,-361,3,-137,-164,-59,-90,-341,-255,-142,-34,6,-352,-326,-95,-166,-103,-131,-119,-387,-381,-275
29986,-233,-237,90,-334,-117,-97,-27,-188,-209,-53,83,-367,13,-132,-181,-75,-90,-331,-264,-154,-38,11,-353,-354,-116,-188,-123,-203,-179,-457,-432,-330
29987,-238,-181,88,-313,-115,-77,-13,-189,-212,-42,82,-389,3,-136,-186,-109,-152,-363,-282,-176,-64,-33,-414,-406,-155,-201,-180,-309,-271,-549,-490,-394
29988,-218,-146,76,-297,-103,-124,-20,-202,-205,-24,76,-381,1,-143,-181,-126,-163,-362,-275,-180,-64,-64,-351,-382,-135,-187,-169,-100,-169,-464,-445,-365
29989,-188,-110,69,-307,-107,-110,-29,-189,-197,-33,87,-387,8,-142,-191,-143,-167,-359,-285,-180,-64,-64,-357,-400,-130,-200,-162,-123,-183,-461,-433,-352
29990,-234,-158,56,-316,-117,-84,-95,-196,-184,-25,87,-377,17,-131,-182,-156,-138,-330,-285,-171,-82,-77,-333,-371,-131,-213,-185,-64,-164,-445,-439,-362
29991,-267,-208,36,-311,-115,-143,-138,-175,-161,-47,63,-361,47,-119,-183,-186,-135,-319,-270,-152,-94,-122,-277,-342,-126,-211,-209,-17,-132,-423,-447,-368
29992,-297,-246,19,-320,-134,-227,-196,-164,-182,-65,3,-350,50,-125,-218,-220,-86,-288,-263,-154,-118,-148,-226,-342,-124,-217,-221,-155,-162,-461,-462,-384
29993,-301,-287,19,-312,-134,-123,-169,-178,-186,-76,32,-378,36,-143,-217,-223,-143,-317,-268,-164,-106,-158,-338,-380,-142,-212,-204,-373,-273,-513,-488,-368
29994,-261,-265,72,-287,-102,-150,-131,-157,-151,-76,21,-414,41,-117,-205,-221,-179,-332,-258,-149,-103,-168,-423,-388,-126,-208,-233,-397,-305,-530,-495,-404
29995,-290,-274,54,-301,-129,-115,-141,-194,-177,-93,2,-407,35,-122,-218,-235,-189,-353,-274,-161,-125,-179,-408,-403,-129,-208,-224,-205,-224,-503,-487,-423
29996,-285,-273,27,-306,-127,-76,-167,-221,-205,-71,9,-436,0,-138,-203,-219,-229,-374,-267,-152,-78,-185,-397,-394,-110,-178,-181,-134,-183,-467,-460,-370
29997,-308,-299,6,-318,-131,-108,-233,-214,-206,-94,-26,-443,-27,-125,-235,-255,-230,-392,-274,-150,-96,-232,-370,-390,-106,-191,-217,-103,-167,-459,-435,-403
29998,-327,-356,20,-321,-123,-116,-273,-196,-188,-100,-43,-423,-24,-125,-257,-291,-245,-395,-285,-158,-136,-215,-402,-388,-91,-204,-270,-192,-197,-484,-457,-429
29999,-316,-344,25,-296,-110,-142,-278,-203,-168,-89,-25,-415,2,-138,-276,-277,-219,-372,-270,-171,-125,-199,-380,-352,-103,-196,-229,-154,-158,-443,-417,-361
30000,-318,-276,24,-297,-110,-168,-281,-191,-174,-89,-34,-405,16,-115,-283,-296,-174,-353,-263,-191,-154,-223,-331,-359,-103,-218,-240,-109,-115,-433,-438,-410
30001,-292,-256,36,-322,-115,-177,-287,-200,-172,-111,-69,-408,25,-135,-314,-330,-171,-363,-272,-201,-177,-226,-302,-354,-100,-222,-260,6,-53,-405,-411,-414
30002,-291,-273,29,-306,-119,-198,-287,-204,-164,-117,-97,-391,47,-129,-310,-319,-150,-324,-234,-199,-156,-196,-274,-301,-88,-203,-224,15,-24,-370,-333,-359
30003,-300,-311,11,-325,-142,-204,-298,-201,-182,-127,-93,-373,15,-123,-303,-296,-145,-327,-230,-196,-150,-170,-316,-324,-101,-197,-213,-219,-93,-398,-356,-350
30004,-257,-269,40,-323,-131,-145,-223,-185,-162,-98,-10,-373,40,-96,-255,-227,-126,-317,-218,-150,-114,-105,-299,-297,-62,-161,-154,-264,-86,-368,-301,-280
30005,-295,-286,24,-312,-141,-163,-208,-188,-170,-94,-9,-397,16,-133,-252,-227,-164,-319,-224,-173,-106,-84,-319,-299,-65,-165,-136,-323,-100,-377,-310,-263
30006,-342,-311,16,-311,-144,-155,-239,-195,-187,-103,-12,-390,7,-156,-272,-265,-186,-310,-262,-196,-127,-130,-338,-319,-116,-203,-175,-296,-118,-427,-359,-324
30007,-311,-321,16,-309,-146,-132,-243,-185,-167,-84,12,-388,21,-143,-265,-247,-150,-312,-253,-190,-134,-142,-289,-295,-112,-210,-202,-205,-117,-443,-373,-365
30008,-255,-311,40,-308,-134,-129,-191,-180,-169,-74,14,-387,22,-128,-241,-210,-131,-310,-245,-183,-100,-86,-284,-314,-120,-207,-171,-182,-104,-436,-373,-307
30009,-218,-252,59,-311,-115,-121,-175,-190,-179,-79,55,-382,25,-139,-226,-271,-119,-302,-252,-190,-81,-58,-296,-328,-105,-201,-135,-151,-79,-382,-334,-237
30010,-199,-248,74,-306,-131,-169,-242,-194,-175,-83,62,-380,2,-153,-233,-391,-128,-331,-265,-192,-84,-79,-270,-334,-118,-208,-168,-127,-82,-370,-333,-247
30011,-196,-274,101,-288,-115,-128,-226,-158,-167,-62,95,-337,33,-127,-204,-345,-55,-288,-229,-161,-66,-12,-222,-324,-91,-163,-135,-87,-66,-366,-337,-244
30012,-280,-314,95,-265,-116,-140,-245,-148,-171,-62,133,-329,39,-123,-201,-253,-34,-280,-216,-126,-46,3,-185,-283,-69,-141,-106,48,-14,-346,-321,-226
