,Fp1,Fp2,F7,F3,Fz,F4,F8,FC5,FC1,FC2,FC6,T7,C3,Cz,C4,T8,TP9,CP5,CP1,CP2,CP6,TP10,P7,P3,Pz,P4,P8,PO9,O1,Oz,O2,PO10
89969,277,415,101,293,170,663,445,595,105,136,365,6,383,287,427,432,826,452,325,206,314,829,588,454,-79,357,670,437,343,450,218,476
89970,240,382,108,264,170,666,451,528,89,144,374,7,370,284,450,452,811,432,342,213,317,828,675,486,-65,381,654,445,405,515,248,534
89971,239,368,103,279,183,683,457,547,85,166,395,-12,379,287,487,503,784,399,336,214,309,880,602,474,-64,390,654,455,423,529,287,603
89972,247,388,99,283,203,659,484,558,95,150,373,-22,361,278,492,497,761,418,329,201,287,854,583,489,-66,391,652,506,453,590,312,591
89973,265,385,103,279,196,660,447,532,80,137,391,-34,332,258,416,494,785,407,323,211,296,826,567,475,-64,402,683,584,505,640,374,607
89974,281,373,116,300,198,603,416,535,94,102,328,6,362,267,359,488,809,447,327,192,289,833,646,514,-60,417,730,688,554,691,403,621
89975,255,348,124,292,192,613,396,539,91,102,316,-25,356,282,412,496,805,435,336,186,287,781,629,486,-71,406,700,561,467,624,323,580
89976,248,346,115,272,161,607,401,539,86,101,295,-50,321,248,386,480,812,394,302,154,248,794,548,422,-85,390,674,441,382,568,282,567
89977,283,373,129,282,150,608,413,540,84,85,275,-7,312,238,360,444,765,384,288,132,247,766,532,395,-122,354,643,410,350,509,269,546
89978,306,383,121,298,162,620,400,525,84,102,296,-30,303,240,370,445,737,355,285,142,268,805,545,403,-131,350,671,379,296,483,268,579
89979,289,359,88,271,160,620,382,527,74,102,255,-75,283,223,360,390,716,326,269,131,253,806,496,382,-168,338,648,320,291,482,267,583
89980,293,361,78,256,157,610,369,520,79,100,270,-45,292,231,348,397,701,324,270,130,244,767,485,363,-158,327,650,348,299,492,276,556
89981,275,353,81,249,149,616,363,498,90,90,308,-53,295,236,379,445,719,324,295,133,290,716,462,382,-114,354,678,447,348,521,290,506
89982,276,381,107,282,147,634,394,558,86,89,329,-22,325,250,385,494,753,363,324,160,291,759,557,420,-71,379,666,478,388,544,320,547
89983,323,415,165,317,171,665,459,575,92,102,359,-11,345,271,423,497,807,411,356,206,296,832,619,463,-46,417,746,520,422,584,355,628
89984,351,460,168,314,182,677,491,591,113,126,356,11,361,281,456,502,804,420,370,225,308,845,607,480,-12,415,724,519,407,580,338,642
89985,355,450,152,286,185,665,424,575,113,116,336,0,356,296,478,454,800,406,351,215,279,804,581,455,-18,388,627,499,392,523,288,536
89986,304,404,123,279,155,639,401,546,110,86,341,-45,358,292,394,449,764,392,340,198,256,768,555,444,-55,381,605,479,396,520,288,499
89987,244,388,64,243,148,618,437,527,99,66,325,-69,372,299,332,445,760,384,346,185,229,735,559,439,-67,362,570,481,412,520,268,513
89988,259,366,60,225,132,626,390,509,76,99,308,-84,331,311,391,396,779,353,347,210,246,708,518,407,-61,364,636,507,401,501,267,526
89989,301,381,117,247,166,631,407,527,64,107,314,-50,303,317,386,385,746,327,327,217,245,701,496,391,-81,372,638,454,347,451,252,465
89990,327,432,128,270,191,659,463,543,67,121,338,-31,342,321,415,399,717,354,352,219,262,726,528,407,-43,392,606,440,373,480,248,452
89991,339,443,125,274,174,640,457,562,77,113,353,-37,359,327,423,451,777,398,402,267,284,752,534,444,-18,418,606,445,384,516,262,513
89992,333,439,138,293,179,653,469,593,91,118,359,-16,389,328,427,499,770,419,416,283,282,725,579,473,6,441,598,494,413,553,315,499
89993,338,437,131,292,180,649,462,601,91,114,384,23,405,360,446,504,791,455,434,290,300,695,646,519,23,457,615,530,475,581,316,451
89994,324,421,118,270,193,639,456,576,102,103,367,24,389,351,436,444,810,456,414,280,283,680,638,516,18,434,565,587,514,588,330,488
89995,264,348,63,210,152,602,432,534,68,103,322,-31,342,273,392,355,713,377,342,229,228,619,538,424,-57,372,505,400,367,470,222,408
89996,260,361,49,228,146,603,413,517,61,124,310,-66,324,286,418,335,701,333,314,222,235,636,456,369,-101,338,497,336,261,384,145,336
89997,261,355,69,225,152,581,377,484,60,110,305,-52,309,284,385,377,697,309,308,198,227,582,469,332,-127,316,463,314,205,361,85,291
89998,244,355,83,240,181,597,404,479,80,103,284,-63,339,276,359,322,682,310,305,153,159,568,477,343,-131,274,443,273,174,337,71,256
89999,215,348,10,260,179,635,420,554,109,116,312,-97,363,276,382,336,659,305,311,162,167,551,466,356,-95,250,368,318,194,358,78,261
90000,197,318,8,247,167,590,388,623,98,87,298,-117,372,267,353,332,625,319,307,171,153,555,446,348,-115,252,380,341,203,352,88,268
90001,268,361,162,248,169,623,400,556,53,129,300,-46,320,300,393,360,672,349,342,212,188,607,464,365,-68,301,407,381,254,403,151,319
90002,247,320,64,244,177,641,408,546,82,140,329,-112,330,317,419,376,627,338,339,225,165,565,426,369,-58,305,376,360,248,412,157,305
90003,216,284,24,248,189,641,378,550,75,139,328,-86,365,311,443,346,562,335,357,226,167,549,460,379,-56,296,375,306,228,387,139,261
90004,212,314,39,253,199,647,407,552,73,155,346,-107,343,285,448,340,625,289,322,230,185,547,418,347,-106,281,373,148,121,255,39,187
90005,251,338,62,274,203,654,384,587,66,144,289,-97,328,269,404,312,646,276,296,208,192,559,348,318,-124,280,403,200,101,252,31,225
90006,293,377,46,274,208,680,390,556,72,140,343,-108,321,266,442,357,583,303,288,211,192,556,405,343,-125,298,400,294,196,291,61,239
90007,323,383,96,279,199,686,402,565,82,152,377,-88,313,261,448,415,587,307,281,188,210,565,433,369,-132,292,386,349,209,322,48,267
90008,314,404,127,303,219,679,445,617,113,151,319,-30,354,254,416,430,639,353,310,202,234,630,466,389,-111,309,484,300,224,359,73,263
90009,299,412,130,320,211,676,466,608,108,131,352,-16,365,257,429,458,667,363,302,207,243,658,457,370,-109,303,509,252,190,335,79,280
90010,296,394,137,285,185,652,422,584,81,135,359,-15,360,257,442,425,653,359,295,210,211,654,449,368,-126,312,432,272,230,372,115,308
90011,269,353,101,264,184,657,409,560,79,118,340,-49,357,266,461,390,614,361,313,218,221,627,433,391,-112,324,439,326,277,434,157,363
90012,264,355,73,244,186,675,419,489,79,140,346,-53,372,269,471,409,662,345,314,213,247,663,427,402,-86,316,486,292,251,423,170,401
90013,283,388,90,260,184,664,456,524,83,147,345,-24,399,274,449,427,704,364,345,217,231,730,450,423,-82,332,474,255,226,375,179,368
90014,276,374,117,227,181,662,442,565,49,137,327,14,366,305,448,440,727,419,382,215,216,747,521,467,-74,342,485,332,271,402,158,343
90015,287,358,142,247,202,672,431,577,66,155,327,27,360,307,479,469,743,425,369,224,232,763,601,488,-59,347,519,335,314,427,143,360
90016,273,371,128,277,206,677,466,585,91,168,366,6,386,306,481,478,717,431,364,242,244,752,587,469,-49,364,528,364,340,432,169,376
90017,256,365,107,238,161,635,456,567,77,125,348,-15,365,302,444,460,689,434,359,230,253,756,541,469,-51,392,540,417,406,502,219,401
90018,270,342,87,234,170,631,434,553,73,115,361,-12,355,280,491,474,715,413,365,253,285,765,551,480,-55,410,572,463,439,548,241,447
90019,314,378,150,265,177,655,493,592,77,107,418,11,360,277,424,581,805,414,379,244,315,828,568,495,-51,421,639,441,413,551,248,460
90020,289,365,127,266,188,637,490,589,53,131,416,-5,369,289,445,556,779,417,379,238,316,859,562,504,-37,434,715,470,422,519,261,548
90021,260,368,113,265,172,632,485,595,65,99,392,12,384,269,474,553,756,431,363,238,293,846,615,498,-68,443,733,482,419,501,294,497
90022,308,403,154,278,174,660,522,560,94,122,416,37,376,262,452,529,793,429,349,218,260,806,632,502,-63,445,568,416,402,498,292,544
90023,360,433,184,312,206,691,542,600,105,155,436,56,401,275,470,496,809,455,389,248,316,801,619,530,-32,461,596,461,422,526,293,559
90024,331,435,199,305,200,674,472,599,85,143,404,18,425,291,459,500,812,452,404,257,334,831,613,522,-11,470,674,552,456,577,315,576
90025,318,401,139,295,186,671,517,580,87,152,426,15,393,264,472,507,776,459,368,232,317,819,614,499,-13,460,634,519,439,570,284,510
90026,308,391,122,298,193,666,515,592,83,147,420,4,400,241,480,473,794,429,363,248,328,814,609,488,-10,451,627,439,404,524,256,451
90027,324,388,156,296,190,682,506,595,97,157,426,-29,366,249,465,489,796,373,361,257,309,808,565,455,-37,425,585,360,350,480,219,474
90028,365,410,147,322,204,690,552,608,121,146,417,14,381,267,467,461,812,394,392,256,299,846,631,488,-10,433,594,397,376,531,263,496
90029,322,424,144,322,191,672,523,609,111,143,405,0,393,291,462,432,789,423,391,253,322,845,583,487,-22,464,648,445,398,571,296,548
90030,316,421,135,303,183,661,519,582,105,137,433,-1,362,302,488,484,775,407,366,262,351,863,537,464,-24,491,726,427,337,521,278,569
90031,317,419,86,305,177,645,506,563,114,158,418,-44,372,312,486,483,799,382,378,271,333,846,556,486,12,497,705,443,343,527,290,577
90032,323,412,84,322,180,627,481,655,140,140,381,-40,397,320,445,411,732,412,389,266,279,752,567,481,-8,466,584,439,355,494,235,520
90033,331,423,149,299,181,642,497,574,127,127,389,18,411,352,475,448,738,449,404,291,274,754,607,478,7,480,590,385,347,482,199,487
90034,333,434,155,259,169,650,526,430,103,135,412,3,398,343,453,489,751,433,408,276,282,744,540,474,13,464,619,361,353,495,216,485
90035,300,395,93,260,158,624,451,557,107,136,384,-21,406,336,447,480,743,437,408,271,258,717,535,475,10,462,606,374,358,485,234,464
90036,272,364,108,206,136,588,409,598,53,115,347,-11,362,328,445,431,737,412,389,276,276,746,581,478,17,445,596,358,358,498,231,478
90037,316,393,103,215,141,607,411,572,86,128,346,-9,378,334,455,420,712,429,395,275,279,795,543,479,19,432,613,374,339,490,242,438
90038,318,366,72,257,120,609,404,582,84,106,348,-36,399,331,444,415,731,404,414,281,290,773,524,488,28,438,608,386,336,452,231,436
90039,341,398,108,290,140,601,445,591,83,116,343,-12,405,343,438,433,750,427,442,303,280,750,578,494,31,461,617,389,321,480,241,488
90040,348,401,137,271,161,606,457,604,95,123,350,15,423,333,447,429,763,465,427,300,279,761,592,510,32,474,627,376,318,486,244,496
90041,329,367,115,270,166,599,424,596,93,104,337,-15,423,326,449,379,772,459,435,298,289,777,550,498,49,466,644,407,342,483,232,429
90042,354,394,147,302,180,633,426,624,104,124,386,4,451,358,491,482,744,472,447,347,333,799,590,513,74,494,692,398,380,494,262,479
90043,386,438,179,314,200,633,470,647,112,120,369,15,430,363,457,521,739,468,449,319,271,822,599,529,51,440,663,424,396,518,230,495
90044,391,415,161,295,182,634,475,605,107,128,389,-18,404,353,457,472,705,424,421,288,280,798,534,484,0,412,641,507,362,539,242,485
90045,385,406,172,328,206,644,446,646,103,116,381,-26,415,346,471,471,736,428,416,289,277,780,540,458,-10,434,626,400,308,476,203,497
90046,363,411,190,352,194,627,441,689,111,98,363,-26,439,338,465,476,732,466,427,300,285,797,550,481,0,451,621,384,301,471,204,485
90047,373,404,219,361,175,629,461,712,151,112,356,-1,444,359,496,489,741,450,456,328,311,827,558,471,37,477,638,381,302,469,202,497
90048,401,428,248,347,176,615,455,689,132,127,384,11,441,378,502,497,739,429,424,326,327,806,554,465,26,462,621,357,291,445,187,438
90049,380,410,190,335,170,604,453,669,123,138,402,21,434,374,503,489,734,447,415,314,340,782,563,480,20,472,626,417,330,490,196,455
90050,367,395,164,332,173,600,464,664,117,134,374,23,425,359,509,545,758,449,425,318,328,808,570,481,6,466,676,474,374,498,189,410
90051,365,377,164,320,165,616,412,640,106,131,383,-20,453,339,488,519,719,461,428,306,310,786,587,501,5,449,610,509,427,524,179,416
90052,367,375,173,330,175,605,438,653,120,125,350,5,481,319,447,489,707,462,436,288,268,754,554,496,-25,415,541,439,404,507,165,420
90053,374,365,171,324,181,613,447,664,120,140,358,44,456,335,442,491,723,461,426,277,278,736,544,472,-57,409,573,354,291,456,149,378
90054,384,374,175,324,213,631,419,638,120,146,375,70,401,342,452,419,766,445,404,302,292,705,629,457,-46,432,562,331,256,420,132,403
90055,365,372,171,309,170,611,399,629,98,135,371,15,408,335,448,376,738,425,405,289,274,713,579,440,-50,418,563,303,246,386,121,393
90056,371,380,140,306,155,633,439,605,84,147,358,13,368,342,436,373,724,358,372,261,267,670,480,401,-73,386,515,333,209,362,80,380
90057,335,401,101,290,183,638,455,564,97,162,370,-23,364,340,453,453,754,343,367,269,268,664,485,416,-83,400,465,435,305,422,112,402
90058,315,375,78,252,164,630,426,572,91,160,351,-70,350,337,475,499,750,366,358,256,279,708,486,395,-110,387,547,437,330,430,118,387
90059,314,327,55,235,162,629,402,547,65,149,313,-58,340,334,487,469,741,359,368,248,263,716,524,397,-102,374,565,429,309,440,137,392
90060,302,315,59,239,132,629,322,527,58,156,304,-67,346,317,508,451,688,350,372,278,269,682,475,394,-103,407,576,381,316,469,198,473
90061,302,326,78,229,135,626,393,554,65,135,361,-54,343,314,446,520,710,352,367,280,292,726,458,390,-124,424,582,342,279,458,233,532
90062,293,296,89,240,144,631,400,560,72,138,348,-18,337,321,431,433,741,362,369,265,262,723,532,378,-105,403,536,385,233,434,197,448
90063,267,258,66,223,150,607,354,531,65,130,371,-40,314,322,461,398,733,327,336,249,236,667,451,371,-123,397,485,469,282,412,143,396
90064,278,273,88,245,123,614,359,572,76,134,371,-58,330,333,455,414,700,325,345,247,241,658,488,393,-151,378,484,486,325,437,136,401
90065,290,293,71,242,118,580,390,587,69,112,282,-78,339,314,385,401,701,350,335,233,232,657,542,377,-150,364,509,414,286,390,121,411
90066,257,300,-18,245,122,616,408,645,86,113,314,-107,333,316,408,432,680,315,304,226,264,673,399,352,-144,363,543,382,248,380,138,397
90067,254,324,43,230,121,649,422,573,57,99,342,-97,306,296,447,424,643,277,314,240,273,723,336,356,-154,401,568,462,276,410,186,439
90068,292,331,123,240,115,625,386,483,42,81,334,-131,285,289,441,460,660,267,316,241,289,757,417,350,-151,404,574,418,254,388,184,468
90069,258,310,57,223,93,606,397,510,20,69,325,-123,272,282,399,483,640,290,293,214,248,758,398,317,-155,367,555,382,229,408,184,485
90070,256,296,29,236,98,595,383,521,31,85,337,-102,297,286,441,433,643,298,288,230,227,692,420,347,-155,386,540,371,266,403,205,505
90071,263,311,28,264,111,591,400,468,55,92,316,-137,325,327,455,421,661,334,336,262,248,712,457,393,-123,406,587,449,332,463,255,526
90072,278,304,87,284,128,589,349,495,84,113,269,-98,360,325,455,401,636,346,348,274,275,696,447,386,-101,420,604,473,346,483,266,515
90073,296,312,85,283,122,604,353,613,90,98,271,-94,354,303,469,367,647,330,352,251,257,664,455,374,-132,399,587,459,340,469,189,403
90074,305,340,67,231,149,628,387,632,74,116,325,-83,315,327,477,424,695,333,345,255,254,643,464,388,-146,403,533,404,283,432,155,380
90075,316,350,67,252,145,631,421,617,78,112,368,-103,322,310,385,431,651,318,328,224,263,674,425,356,-162,386,535,302,232,404,169,457
90076,290,338,83,251,157,643,386,604,90,126,331,-120,341,334,408,448,640,315,336,263,266,731,431,378,-121,417,621,388,317,466,231,482
90077,262,290,38,201,138,629,385,489,46,115,332,-139,309,329,426,409,633,293,329,251,254,726,424,387,-136,395,610,408,328,466,236,483
90078,242,265,-15,213,122,626,364,484,52,114,331,-159,330,318,398,377,634,295,311,237,260,722,443,380,-127,385,588,324,286,430,199,445
90079,231,262,-10,229,114,603,345,579,73,93,301,-158,366,347,379,363,646,302,334,241,242,687,416,368,-129,374,555,297,243,388,165,453
90080,240,287,29,200,120,586,347,548,44,93,283,-148,322,331,392,374,656,295,337,234,246,695,402,373,-102,380,558,317,210,392,167,477
90081,260,262,35,204,125,612,362,498,50,99,309,-133,319,349,432,414,650,309,360,289,288,734,407,395,-72,437,624,391,303,466,241,507
90082,263,258,62,229,132,594,356,511,42,95,299,-118,343,349,415,386,634,318,369,311,283,690,450,421,-62,449,607,400,336,466,235,445
90083,261,276,70,226,138,591,342,544,58,126,302,-106,340,325,412,349,660,363,384,314,284,663,467,431,-41,443,579,369,306,446,212,448
90084,293,307,48,222,154,611,364,509,59,138,324,-97,356,334,452,413,661,347,388,344,342,706,452,447,-10,457,624,336,291,423,213,471
90085,306,344,79,242,140,641,428,539,52,143,354,-124,360,366,489,504,658,359,419,364,367,765,515,469,8,497,672,313,310,479,245,479
90086,296,331,97,254,137,647,420,541,46,160,379,-126,354,376,492,516,660,344,416,379,358,770,480,439,14,501,673,351,304,497,260,470
90087,282,340,58,231,105,646,419,548,42,129,346,-130,346,358,494,476,675,292,398,384,360,756,397,427,7,505,666,374,298,477,255,481
90088,288,332,69,221,114,637,431,527,46,138,329,-110,351,356,497,464,711,348,416,378,336,748,448,455,31,522,672,368,329,511,244,502
90089,290,309,96,227,121,613,426,526,40,115,324,-72,351,346,475,461,725,393,438,379,352,744,480,472,44,538,669,431,372,555,272,516
90090,308,306,115,246,124,597,412,583,53,117,327,-56,365,381,496,430,728,437,461,404,374,734,559,522,52,558,687,427,400,581,335,511
90091,277,305,79,214,116,590,435,512,60,113,320,-82,356,385,485,427,700,411,459,387,353,736,531,508,67,550,679,402,371,558,316,504
90092,227,256,44,208,92,533,323,495,49,99,266,-96,342,369,422,422,644,372,421,358,292,692,502,474,22,499,664,304,314,478,231,474
90093,262,249,33,213,96,517,297,539,42,109,242,-67,341,363,402,359,638,375,404,332,229,623,484,427,-32,437,583,233,242,386,163,339
90094,275,254,26,204,113,539,326,532,49,105,268,-63,351,372,404,395,688,382,422,340,257,630,473,430,0,432,513,301,259,420,189,368
90095,284,257,66,233,127,556,363,546,69,119,308,-59,368,386,447,436,654,381,433,345,276,664,449,448,17,453,554,332,296,447,208,414
90096,263,249,56,227,120,540,349,533,59,133,275,-65,346,385,442,407,652,366,417,341,298,685,464,431,0,469,532,365,276,436,203,418
90097,265,244,81,229,108,528,347,537,55,112,253,-54,356,375,425,381,657,353,427,350,294,666,495,457,0,453,532,367,280,407,151,436
90098,279,263,81,231,117,553,380,528,60,115,284,-35,367,362,449,354,654,372,420,339,254,700,461,446,9,453,580,363,279,392,135,457
90099,287,259,85,254,114,561,376,538,74,125,287,-44,367,383,468,305,642,371,424,341,284,718,415,435,26,463,562,382,287,400,159,430
90100,268,219,85,263,101,536,353,545,68,144,296,-45,366,370,452,397,641,387,414,320,307,700,420,448,-9,426,485,382,293,387,125,342
90101,306,230,139,278,117,544,365,609,89,144,254,7,409,362,391,391,688,436,431,305,230,736,474,483,19,434,523,405,335,441,149,344
90102,326,285,162,294,160,603,389,635,124,166,305,34,423,374,493,390,692,439,441,336,281,694,511,472,25,450,562,387,311,409,173,349
90103,329,318,162,319,182,634,406,653,109,158,391,35,442,385,522,429,748,463,460,343,316,686,515,469,19,449,583,344,307,390,183,398
90104,352,327,125,367,176,637,469,739,88,153,435,24,460,395,454,474,716,453,473,335,320,700,483,474,26,455,575,350,280,375,161,407
90105,395,346,224,362,182,648,505,675,95,170,424,81,434,394,504,466,733,483,476,371,351,758,531,503,33,458,606,392,308,424,188,422
90106,370,327,223,285,163,664,506,574,84,192,421,108,411,398,564,476,774,475,475,394,396,768,578,534,77,513,676,445,380,488,244,462
90107,313,276,150,253,123,664,432,588,82,179,413,83,408,396,569,526,749,488,489,412,354,732,567,550,110,522,614,453,424,533,283,467
90108,334,302,134,280,140,662,465,593,82,188,403,45,413,399,551,522,752,473,503,417,336,768,555,558,97,501,560,473,433,559,302,504
90109,364,329,152,278,144,690,495,586,80,174,429,25,437,396,557,549,775,475,487,407,359,824,530,540,98,495,596,528,413,571,290,508
90110,359,313,140,241,137,685,478,542,51,150,405,7,400,376,530,535,740,456,486,379,321,804,572,543,102,486,609,603,449,594,284,492
90111,360,335,113,245,143,706,496,470,65,153,405,30,362,384,536,507,722,419,464,371,325,782,559,527,63,472,590,495,402,514,257,476
90112,315,336,71,271,145,695,510,518,80,152,406,-5,406,400,537,503,745,422,461,353,310,745,516,511,88,456,575,403,372,494,247,411
90113,341,362,114,287,148,679,528,671,55,167,432,15,418,417,543,526,731,445,489,370,319,748,531,531,98,482,583,403,372,505,256,434
90114,384,383,170,293,172,722,583,680,56,168,446,56,436,418,580,535,766,482,501,389,344,759,572,572,106,503,628,374,373,520,266,478
90115,319,313,113,280,158,689,472,623,66,144,407,-4,443,400,555,509,787,466,522,409,365,760,519,583,95,528,662,421,405,556,297,534
90116,303,321,107,290,149,680,479,603,74,166,416,47,457,404,551,458,840,494,537,412,381,766,575,600,97,561,677,486,445,592,351,599
90117,362,365,147,318,171,698,540,605,94,180,435,78,462,388,558,496,836,490,517,402,382,771,612,610,109,546,685,531,448,608,348,553
90118,362,396,169,313,184,684,514,610,82,160,423,33,449,381,550,486,822,462,479,385,355,742,603,593,87,532,681,494,442,561,302,507
