,Fp1,Fp2,F7,F3,Fz,F4,F8,FC5,FC1,FC2,FC6,T7,C3,Cz,C4,T8,TP9,CP5,CP1,CP2,CP6,TP10,P7,P3,Pz,P4,P8,PO9,O1,Oz,O2,PO10
43094,-232,-228,337,250,47,178,-269,665,368,53,146,273,802,-82,142,78,-218,146,103,87,23,-21,163,21,69,73,172,-385,232,-36,-69,-137
43095,-224,-217,331,239,66,183,-278,653,367,64,142,206,804,-79,137,84,-258,168,117,94,21,20,182,20,68,99,179,-287,234,-24,-71,-127
43096,-203,-207,326,244,52,164,-304,653,366,70,142,302,789,-58,150,89,-267,159,105,98,7,-17,177,19,58,100,215,-261,265,-29,-82,-158
43097,-186,-217,346,231,55,146,-311,645,371,72,119,424,766,-63,156,41,-289,134,89,86,-4,-81,139,2,55,72,227,-331,232,-50,-86,-170
43098,-189,-213,314,214,52,171,-329,630,366,83,117,466,763,-58,150,5,-259,127,93,78,-7,-14,153,-3,48,95,230,-269,269,-32,-76,-157
43099,-208,-221,295,214,50,166,-321,630,356,66,102,459,776,-65,133,-11,-328,160,93,91,9,3,201,11,52,79,190,-159,332,-14,-83,-144
43100,-258,-224,245,205,49,171,-311,593,346,51,110,407,745,-71,146,30,-256,138,87,98,3,-17,256,17,67,77,151,-145,342,-8,-108,-188
43101,-254,-236,227,197,42,160,-334,594,357,58,95,375,750,-72,145,-11,-266,124,83,79,-17,-75,221,3,71,82,153,-181,313,-21,-106,-191
43102,-243,-222,221,192,39,161,-331,576,362,52,91,329,748,-87,141,-28,-295,73,67,80,-21,-110,155,-22,72,86,160,-291,273,-42,-91,-164
43103,-222,-182,246,206,59,174,-331,586,361,63,108,357,733,-89,148,-18,-254,80,68,94,7,-100,154,3,78,119,206,-273,267,-24,-49,-136
43104,-214,-195,271,210,69,186,-313,600,359,68,121,384,750,-83,160,-53,-254,123,108,106,16,-90,187,36,120,134,256,-205,305,-2,-51,-140
43105,-218,-204,263,226,43,198,-314,596,364,47,111,385,766,-70,172,-69,-314,137,138,123,26,-84,264,73,169,160,246,-39,402,49,-10,-148
43106,-212,-191,291,241,51,189,-297,639,379,61,129,445,805,-27,187,-60,-209,199,180,165,65,-58,393,148,205,188,281,135,534,147,49,-89
43107,-196,-165,306,253,52,179,-250,656,373,50,145,467,815,-28,197,-230,-138,228,188,165,110,-19,465,162,220,221,349,158,531,160,86,-102
43108,-174,-148,320,256,73,199,-217,660,361,48,170,446,798,-31,239,-463,-191,211,187,183,141,-91,378,131,224,228,357,25,462,126,73,-116
43109,-176,-151,339,254,73,216,-214,674,365,55,186,470,799,-27,232,-216,-218,199,205,183,125,-97,288,136,216,232,305,-170,393,103,57,-67
43110,-186,-154,340,253,58,197,-220,684,366,59,198,466,801,-18,218,120,-187,209,224,181,113,28,271,146,238,241,323,-133,420,141,111,-37
43111,-177,-154,328,266,52,205,-203,680,381,56,211,481,797,-25,220,178,-130,209,233,202,122,17,338,184,276,259,340,4,493,182,117,9
43112,-159,-136,341,258,70,213,-180,698,384,50,231,525,835,0,241,197,-35,238,251,222,169,-14,372,192,297,289,374,29,485,185,135,25
43113,-149,-113,374,266,70,223,-166,708,376,47,232,514,841,2,232,204,-1,252,243,217,177,72,405,179,304,288,382,12,504,206,129,-8
43114,-150,-139,369,271,59,211,-171,698,368,45,213,509,840,-3,233,196,-13,232,249,211,146,218,414,191,305,290,382,73,580,239,129,-37
43115,-145,-144,350,269,69,216,-188,694,386,50,220,515,846,4,240,190,-9,265,278,220,154,199,475,253,329,299,363,216,639,296,170,66
43116,-132,-156,348,272,69,211,-196,725,401,54,219,542,858,8,245,99,23,314,287,230,133,147,551,274,352,306,356,375,707,354,228,108
43117,-158,-179,299,260,44,178,-208,733,376,39,179,516,839,-15,202,-101,-26,264,264,198,90,144,504,226,330,257,330,243,600,278,162,79
43118,-137,-153,311,257,51,198,-193,713,382,47,191,489,846,-1,213,-8,-112,222,252,197,113,122,373,167,276,233,381,-31,414,133,62,12
43119,-173,-166,320,241,57,192,-201,709,382,62,196,487,843,11,213,143,-158,214,257,201,129,92,365,180,285,260,429,-39,449,171,95,27
43120,-188,-183,319,233,40,186,-204,674,376,59,169,472,804,-4,202,86,-210,178,232,188,129,91,333,159,261,243,399,-125,427,144,67,-46
43121,-186,-195,322,230,30,158,-259,671,366,31,132,459,805,-10,194,-59,-136,191,217,176,85,9,381,160,256,221,300,-62,447,132,39,-54
43122,-171,-206,313,214,39,171,-258,653,367,36,169,468,820,-16,214,-42,-112,204,238,171,83,-20,417,180,262,231,276,9,502,174,88,0
43123,-164,-204,325,230,55,184,-224,640,365,65,203,456,827,-12,234,123,-87,207,220,193,120,-38,413,174,289,237,290,-40,508,169,98,18
43124,-176,-211,342,225,47,181,-223,654,355,56,163,465,820,-23,206,183,-97,194,205,185,104,36,380,180,276,243,317,28,527,177,86,14
43125,-172,-212,338,222,46,191,-235,650,351,56,166,473,820,-39,179,163,-156,191,201,168,88,139,372,159,264,228,302,20,517,197,92,-17
43126,-204,-220,290,212,41,194,-268,637,344,43,154,445,799,-31,176,116,-79,178,198,164,60,77,340,144,248,212,302,52,532,206,103,1
43127,-227,-215,280,194,54,195,-279,615,341,38,141,455,783,-39,182,90,-62,164,183,151,66,-12,325,134,233,217,325,94,544,226,120,-8
43128,-223,-214,295,190,48,200,-251,606,328,59,143,451,772,-44,177,75,-90,157,163,137,92,85,308,92,219,215,337,72,509,193,105,2
43129,-277,-231,271,154,8,175,-277,600,308,43,144,413,746,-55,165,10,-105,148,130,126,60,115,297,79,189,204,336,101,494,166,62,-12
43130,-257,-228,278,151,4,140,-296,598,314,49,127,426,749,-63,138,-124,-108,162,131,132,31,45,352,95,176,182,357,215,553,176,71,-54
43131,-224,-217,283,161,4,173,-281,611,337,66,146,452,775,-37,194,-135,-147,186,172,158,77,78,382,136,216,212,395,330,634,234,112,-20
43132,-238,-231,261,140,1,157,-296,612,325,71,149,442,780,-27,211,-46,-195,165,171,167,90,101,319,109,205,212,372,183,510,162,56,-20
43133,-233,-222,265,119,3,169,-264,576,306,47,165,413,748,-29,205,9,-106,132,155,155,94,106,255,53,172,197,344,-128,340,45,2,-26
43134,-229,-232,253,125,20,174,-286,561,327,38,155,389,752,-13,195,56,-33,159,145,160,95,81,308,59,182,192,304,-55,387,89,41,-16
43135,-219,-206,267,162,24,175,-304,595,318,43,154,389,763,-21,175,91,-102,157,146,146,43,66,280,50,192,171,266,-114,358,79,30,-29
43136,-212,-186,282,181,29,179,-272,616,334,54,157,417,786,-20,177,67,-95,169,184,154,40,-9,291,59,218,179,263,-91,386,102,36,-5
43137,-192,-190,304,197,46,182,-262,626,358,53,160,418,806,-21,169,45,-17,206,203,150,69,-120,349,86,216,198,289,76,456,146,58,10
43138,-163,-181,324,210,48,185,-272,613,363,46,159,284,792,-25,170,-54,-99,225,190,142,64,-15,342,124,198,180,289,145,469,131,44,-15
43139,-150,-181,330,208,35,178,-267,621,347,55,171,267,792,-30,163,-128,-89,187,168,131,68,141,308,102,173,167,284,34,432,101,0,-26
43140,-182,-159,301,208,36,170,-266,606,344,49,168,361,777,-29,154,-257,-129,161,140,132,73,181,283,59,155,174,286,-109,352,61,-26,-45
43141,-122,-110,335,244,56,202,-226,630,352,57,208,489,752,-26,181,-520,-126,155,147,139,97,192,286,49,172,176,303,-199,311,10,-44,-60
43142,-73,-112,360,256,70,209,-209,650,351,87,217,540,770,-24,195,-151,-111,171,170,134,111,174,318,65,172,200,367,-198,317,40,-37,-23
43143,-68,-120,372,257,70,202,-224,646,358,53,189,518,772,-37,173,295,-98,180,190,143,70,94,334,78,179,182,370,5,402,73,-33,-4
43144,-118,-104,349,249,57,204,-209,638,376,44,193,456,743,-28,167,303,-136,149,178,146,73,-18,303,84,166,167,350,62,433,66,-16,-10
43145,-131,-120,351,267,72,197,-222,631,360,37,196,438,735,-37,161,212,-205,121,140,129,75,-3,266,62,141,148,293,-16,385,27,-47,-59
43146,-135,-140,344,239,71,192,-245,634,334,42,160,414,701,-66,154,199,-239,81,89,77,48,88,204,7,87,119,227,-196,298,-18,-97,-95
43147,-133,-136,337,236,69,207,-217,619,334,42,173,403,696,-69,169,162,-262,61,73,70,50,113,188,-6,70,129,264,-236,270,-30,-77,-85
43148,-122,-125,336,239,77,207,-200,629,324,67,195,401,716,-41,142,130,-329,103,101,100,48,97,253,6,93,127,310,-121,329,0,-83,-103
43149,-126,-129,321,221,56,197,-207,631,327,57,174,360,716,-44,144,30,-270,121,99,75,15,41,270,27,90,98,256,-28,376,12,-115,-108
43150,-166,-157,287,185,18,183,-228,592,308,42,153,341,721,-56,120,-76,-207,123,107,78,19,-11,325,39,95,121,234,92,452,56,-60,-116
43151,-165,-161,308,178,23,184,-252,581,312,43,158,402,719,-49,141,-30,-141,110,110,98,38,-22,349,47,88,135,238,67,449,67,-31,-61
43152,-115,-115,336,209,42,201,-218,603,331,57,178,411,735,-34,167,94,-153,108,120,104,73,-19,331,61,96,140,245,-33,395,50,-37,-38
43153,-106,-108,350,205,53,200,-221,610,341,39,172,420,737,-57,158,-23,-147,113,109,107,62,127,345,54,85,150,235,-72,387,38,-13,-54
43154,-122,-128,349,198,53,184,-234,620,314,47,184,420,739,-84,145,-151,-131,133,117,104,75,143,392,71,109,183,303,34,483,109,36,0
43155,-134,-133,338,209,47,201,-213,613,318,57,187,402,742,-77,166,44,-129,161,133,107,120,101,425,109,160,221,461,184,547,154,39,12
43156,-172,-166,341,194,26,180,-241,594,310,39,144,388,728,-87,150,159,-198,155,124,118,120,74,311,88,135,223,424,205,504,112,35,-121
43157,-159,-133,355,208,57,192,-219,615,339,45,153,445,745,-69,154,143,-267,158,139,132,80,77,263,79,138,207,302,-62,428,112,33,-77
43158,-159,-149,325,215,64,180,-241,645,346,53,167,456,743,-57,171,123,-150,167,153,151,81,42,311,104,158,226,249,-198,436,142,75,84
43159,-167,-166,292,191,54,181,-250,635,326,69,147,436,736,-53,173,100,-197,152,149,148,72,33,315,99,144,241,281,-33,435,141,92,43
43160,-224,-215,250,152,20,164,-279,561,305,43,133,397,721,-35,154,52,-185,117,141,141,36,16,295,85,163,240,281,147,479,144,84,-23
43161,-245,-225,253,146,26,137,-314,536,316,28,79,372,714,-21,139,-7,-197,101,148,160,19,-113,300,108,176,230,249,251,556,182,96,22
43162,-239,-228,263,144,19,127,-313,548,334,58,98,360,717,-5,154,0,-196,98,153,139,34,-148,275,100,171,209,243,76,513,171,84,29
43163,-250,-237,245,127,-8,91,-302,524,304,9,95,330,696,-35,137,-81,-227,50,123,115,12,-63,210,46,137,175,209,-158,401,106,56,-30
43164,-243,-205,254,149,6,102,-291,541,315,23,103,323,699,-35,140,-198,-234,41,108,107,-7,30,181,51,130,180,215,-248,359,101,35,-70
43165,-232,-205,292,166,38,139,-327,582,331,43,113,367,732,-27,162,-160,-190,89,138,125,49,63,213,67,163,218,235,-194,392,126,67,-62
43166,-243,-220,264,169,33,150,-325,578,331,31,110,375,724,-37,161,-105,-167,126,157,142,68,52,281,96,183,218,271,-63,462,152,79,-32
43167,-267,-250,248,168,29,140,-335,563,311,30,97,337,737,-32,148,-220,-192,116,169,129,51,53,307,127,190,221,287,78,519,184,90,-17
43168,-264,-249,275,153,24,128,-340,565,321,26,90,208,719,-40,168,-197,-220,118,166,114,77,13,293,85,181,211,292,146,491,157,61,-23
43169,-225,-198,315,187,48,152,-310,619,332,52,126,233,742,-38,173,-55,-288,140,158,132,103,-78,262,78,175,191,283,16,436,108,4,-104
43170,-233,-226,293,176,55,158,-325,604,315,56,115,356,739,-55,173,-47,-425,112,140,127,58,-43,228,54,162,180,277,-166,332,23,-38,-113
43171,-270,-238,274,157,27,160,-323,574,330,33,118,427,720,-41,160,-7,-374,104,142,132,37,24,295,78,171,189,269,-132,397,106,3,-109
43172,-289,-260,253,148,25,159,-321,575,317,41,112,471,715,-33,151,58,-261,135,151,138,35,6,349,106,195,169,223,-57,466,110,-43,-150
43173,-304,-285,214,127,10,126,-363,542,305,37,86,413,724,-48,155,-137,-235,127,160,142,21,10,286,103,213,178,274,55,499,112,-22,-133
43174,-302,-273,212,134,12,118,-388,522,298,31,75,351,702,-32,164,-480,-289,69,150,153,20,-46,173,49,185,168,327,-289,296,31,-48,-139
43175,-302,-281,210,137,13,117,-373,554,317,53,80,356,728,-6,169,-313,-240,87,173,177,31,-80,221,79,198,207,313,-303,298,60,-22,-79
43176,-302,-281,194,135,12,111,-395,569,309,24,45,304,724,-40,141,-5,-409,85,164,139,-9,-24,173,72,195,163,214,-240,339,32,-41,-169
43177,-301,-268,212,138,14,105,-382,558,302,30,42,324,709,-38,137,86,-418,74,148,130,-19,-39,153,58,188,151,152,-255,305,30,-41,-106
43178,-308,-265,213,131,20,118,-369,532,309,35,46,348,706,-23,138,52,-220,83,169,146,-6,-69,226,89,184,152,162,-126,370,83,20,-56
43179,-280,-251,236,147,31,127,-363,536,339,39,67,363,735,-28,140,23,-135,129,183,165,-7,-101,254,113,208,165,181,-13,427,103,33,-109
43180,-281,-240,247,144,23,117,-375,552,330,38,69,327,737,-33,145,39,-232,105,187,139,-5,-114,230,107,220,173,202,67,454,118,23,-66
43181,-309,-277,275,146,24,120,-392,560,324,28,61,327,747,-35,134,19,-205,107,178,133,-34,-152,202,90,205,163,203,72,446,105,-9,-40
43182,-339,-272,243,122,1,111,-402,505,302,6,54,303,725,-37,125,-16,-234,59,132,125,-25,-146,146,68,186,132,171,-126,363,52,-37,-86
43183,-274,-241,255,136,10,118,-375,529,315,30,70,317,720,-38,154,23,-254,85,154,134,-13,-64,141,47,176,148,152,-189,347,56,-29,-92
43184,-253,-236,262,154,33,128,-357,545,312,25,87,337,693,-28,153,-26,-266,73,158,127,0,1,119,14,169,147,165,-298,287,13,-51,-83
43185,-268,-237,262,142,29,134,-342,540,305,24,85,344,703,-26,148,-394,-247,74,144,109,-37,24,183,26,174,126,150,-216,315,13,-45,-134
43186,-234,-235,275,152,34,135,-342,541,305,33,94,328,713,-28,148,-620,-257,95,133,100,-38,-6,258,29,164,122,129,-163,355,32,-66,-245
43187,-252,-264,226,149,20,148,-354,537,328,34,88,318,714,-35,167,-213,-343,96,135,102,-36,-85,273,42,150,115,64,-54,416,59,-70,-243
43188,-293,-296,217,133,-6,129,-378,507,310,28,59,293,694,-39,131,52,-354,48,141,89,-79,-123,188,30,123,89,22,-26,411,53,-81,-222
43189,-296,-289,250,136,4,117,-385,490,302,18,45,288,693,-51,141,43,-326,38,120,98,-99,-101,123,-2,102,76,39,-183,333,26,-104,-201
43190,-260,-273,287,141,16,140,-342,527,304,28,65,295,680,-48,126,6,-269,18,117,62,-101,-69,100,-27,82,38,52,-250,266,-48,-138,-188
43191,-271,-279,232,132,-6,120,-350,511,282,12,57,286,664,-59,104,-76,-329,5,91,47,-110,-101,53,-53,33,-3,10,-220,253,-83,-214,-223
43192,-265,-288,223,148,20,119,-378,520,304,26,67,312,680,-46,105,-171,-408,10,68,67,-85,-80,70,-56,27,7,20,-218,239,-98,-202,-243
43193,-248,-292,258,148,10,127,-402,510,306,22,60,284,661,-59,93,-271,-435,-12,49,36,-119,-217,60,-88,2,-21,-41,-204,230,-129,-241,-264
43194,-227,-318,256,129,-1,113,-406,481,289,8,50,251,627,-71,91,-328,-411,-46,17,14,-124,-331,39,-126,-12,-53,-40,-227,189,-171,-269,-247
43195,-248,-288,249,152,12,138,-371,492,303,17,60,243,634,-62,105,-238,-309,-57,39,19,-79,-184,45,-122,-3,-29,36,-223,187,-168,-254,-261
43196,-288,-286,230,142,20,145,-379,486,288,25,74,226,641,-57,105,-163,-373,-63,32,27,-63,-125,11,-118,-28,-23,81,-196,182,-168,-247,-261
43197,-282,-266,228,140,11,135,-375,479,292,12,66,236,618,-76,83,-194,-417,-102,3,7,-126,-147,-54,-184,-68,-47,81,-364,80,-232,-286,-289
43198,-253,-243,256,165,35,154,-328,505,323,34,92,252,642,-67,97,-66,-321,-89,27,7,-129,-115,-10,-164,-53,-40,68,-314,102,-225,-273,-300
43199,-260,-248,257,149,17,147,-330,513,345,15,70,227,655,-79,77,12,-288,-66,32,-7,-131,-108,63,-151,-50,-37,15,-219,173,-199,-244,-284
43200,-259,-254,229,134,-14,116,-351,491,309,1,68,218,625,-101,55,-36,-410,-76,11,-1,-157,-123,62,-162,-77,-48,-4,-273,135,-209,-279,-275
43201,-251,-291,237,137,0,113,-364,492,320,4,69,210,630,-96,74,-98,-580,-98,6,-6,-185,-97,-30,-168,-76,-28,71,-304,112,-202,-264,-260
43202,-274,-306,226,153,-5,96,-369,470,311,3,56,191,641,-77,59,-96,-446,-102,17,16,-162,-136,-23,-179,-52,-2,102,-285,130,-198,-234,-326
43203,-278,-291,209,169,-4,119,-347,474,333,7,75,202,645,-54,66,-86,-323,-45,42,35,-156,-171,94,-119,10,12,81,-84,206,-125,-177,-228
43204,-290,-290,184,136,-14,106,-342,453,327,4,37,128,616,-61,54,-132,-386,-77,15,-4,-166,-236,19,-146,-27,-2,64,-155,175,-133,-191,-200
43205,-263,-270,205,144,1,109,-364,489,335,7,63,21,640,-65,75,-306,-369,-46,47,13,-144,-198,12,-136,-22,13,127,-266,167,-119,-161,-211
43206,-256,-270,246,163,3,111,-406,519,330,9,40,39,649,-57,93,-416,-354,-13,58,32,-112,-178,18,-127,2,60,184,-384,142,-126,-153,-226
43207,-278,-272,212,132,-17,101,-375,521,316,0,73,164,665,-58,99,-121,-337,-5,65,32,-86,-118,38,-119,0,70,147,-378,152,-113,-139,-223
43208,-245,-254,233,143,-8,116,-346,532,327,20,99,306,658,-53,101,92,-388,-2,101,72,-52,33,59,-92,53,80,152,-347,162,-61,-98,-137
43209,-229,-257,265,144,-2,143,-311,548,350,25,110,359,669,-16,128,-35,-526,-20,112,83,-60,39,35,-91,69,84,119,-323,158,-56,-100,-73
43210,-260,-252,269,138,0,147,-326,524,348,16,121,306,676,-26,131,-298,-508,-2,126,78,-61,44,38,-92,45,89,88,-288,179,-74,-108,-132
43211,-253,-241,282,165,2,138,-346,529,364,32,110,295,692,-17,137,-340,-366,31,147,84,-50,9,101,-67,73,79,98,-182,237,-46,-100,-149
43212,-277,-254,223,155,3,136,-340,501,347,33,95,257,694,-22,139,-200,-273,0,117,72,-63,-66,145,-60,66,79,126,-100,251,-33,-84,-133
43213,-321,-299,194,105,-34,123,-362,473,308,11,58,254,653,-45,102,-101,-333,-29,94,46,-78,-136,118,-88,59,57,129,-140,243,-48,-111,-155
43214,-309,-288,214,120,-11,134,-367,510,321,24,64,263,655,-48,115,-42,-314,-6,101,66,-82,-222,155,-62,55,49,122,-156,271,-30,-91,-154
43215,-280,-259,226,135,6,163,-351,516,340,48,102,267,663,-48,143,25,-326,21,112,86,-26,-156,224,-28,92,88,155,-31,351,7,-70,-164
43216,-298,-247,212,147,-7,151,-345,491,302,17,71,261,645,-73,124,-141,-378,13,86,61,-46,-52,229,-27,71,89,148,-51,320,-14,-83,-163
43217,-305,-268,216,132,-13,129,-347,491,280,8,46,262,640,-105,109,-255,-370,-2,46,35,-78,-132,190,-52,26,47,143,-271,213,-75,-142,-154
43218,-298,-270,204,136,7,163,-323,508,306,24,93,257,647,-105,128,-58,-335,28,77,61,-18,-211,134,-42,63,98,257,-213,248,-25,-97,-100
43219,-277,-277,228,136,17,165,-320,502,338,38,107,260,658,-74,151,-21,-286,27,82,91,35,-54,166,-2,103,146,327,-97,335,43,-22,-73
43220,-304,-263,218,105,-8,145,-338,516,333,42,84,270,659,-87,149,-240,-253,-2,66,83,37,-34,187,-2,101,133,303,-177,314,12,-27,-93
43221,-330,-287,189,101,-13,154,-337,524,318,58,109,279,666,-69,163,-261,-258,15,96,98,38,-82,186,9,122,145,218,-193,313,5,-36,-115
43222,-358,-311,170,121,-42,150,-340,513,324,67,119,282,675,-47,173,-64,-281,40,93,107,19,14,221,27,129,139,123,-88,391,45,-25,-118
43223,-375,-343,207,125,-42,129,-356,490,314,62,91,304,682,-53,150,77,-370,65,114,126,-25,20,240,37,151,139,121,-78,420,63,-18,-119
43224,-373,-354,236,124,-45,127,-352,506,308,45,79,348,697,-43,125,75,-417,100,140,115,-54,-46,281,56,175,160,131,-85,413,68,-6,-67
43225,-373,-347,255,118,-46,108,-373,521,320,42,64,347,704,-56,133,-8,-368,90,147,115,-40,-19,284,62,157,158,190,-134,404,62,-33,-30
43226,-353,-329,231,106,-49,112,-376,516,323,61,63,342,700,-46,156,-69,-276,96,136,135,-30,16,248,64,179,147,241,-149,391,56,-32,-19
43227,-347,-316,226,124,-57,96,-380,547,325,57,55,317,696,-25,156,-78,-289,116,148,109,-22,-107,258,88,192,143,177,-64,425,59,-27,-126
43228,-349,-329,227,120,-29,103,-388,539,318,57,52,299,708,-29,144,-43,-421,112,159,111,-12,-65,294,104,184,159,205,59,487,104,-26,-182
43229,-346,-329,222,113,-29,105,-361,535,334,60,69,323,714,-21,168,-80,-284,132,162,121,8,29,358,134,191,188,235,177,562,141,-1,-119
43230,-345,-331,218,106,-42,80,-387,523,308,56,74,296,710,-44,142,-288,-199,109,140,116,-32,-39,268,115,171,152,253,74,473,77,-40,-124
43231,-322,-340,227,126,-31,84,-371,514,311,43,95,304,695,-65,158,-432,-215,78,136,97,-22,-66,134,55,141,143,330,-193,322,15,-75,-108
43232,-297,-324,241,142,-34,109,-346,524,319,47,102,310,712,-56,153,-143,-221,71,122,105,-6,-29,119,40,141,147,372,-378,270,-18,-76,-109
43233,-310,-337,250,120,-26,108,-353,546,326,47,82,194,705,-49,141,72,-243,76,122,109,-17,26,148,35,141,137,267,-210,327,3,-74,-95
43234,-321,-364,211,119,-34,78,-392,534,311,34,58,111,687,-75,119,-150,-326,55,113,89,-49,-32,158,21,129,114,127,-176,313,-15,-130,-185
43235,-352,-349,208,125,-23,102,-416,535,325,65,49,193,705,-37,122,-316,-277,54,147,111,-66,-79,161,46,145,123,62,-141,340,22,-86,-159
43236,-367,-354,220,113,-41,106,-431,505,320,68,39,326,698,-22,144,-166,-275,52,163,129,-33,-42,178,62,168,127,105,-84,386,23,-64,-124
43237,-345,-337,239,119,-30,112,-412,532,316,69,60,381,713,-11,157,-40,-372,71,163,126,-37,-53,195,62,174,144,117,-99,386,7,-91,-151
43238,-388,-366,193,109,-51,86,-446,530,310,60,21,345,702,-29,136,-81,-420,80,152,112,-67,-188,243,68,181,142,113,-24,425,53,-70,-202
43239,-419,-364,186,107,-51,75,-444,521,301,59,7,325,674,-31,121,-92,-314,82,145,106,-71,-198,256,36,156,110,125,-178,308,-51,-162,-298
43240,-431,-356,174,88,-56,64,-441,499,302,36,-6,317,668,-30,96,-89,-357,92,130,96,-105,-120,262,31,140,87,87,-191,279,-71,-177,-257
43241,-385,-365,188,87,-43,74,-458,513,317,50,-15,337,675,-26,94,-132,-358,103,140,90,-113,-100,238,68,139,92,61,-35,386,-10,-152,-187
43242,-401,-374,177,83,-69,69,-461,501,305,34,-29,287,655,-54,69,-256,-308,29,107,83,-122,-136,148,-12,109,81,92,-138,294,-67,-200,-235
43243,-400,-368,175,90,-54,63,-458,502,304,31,-14,274,661,-44,85,-370,-280,11,101,81,-109,-168,142,-17,93,81,85,-196,253,-81,-179,-259
