,Fp1,Fp2,F7,F3,Fz,F4,F8,FC5,FC1,FC2,FC6,T7,C3,Cz,C4,T8,TP9,CP5,CP1,CP2,CP6,TP10,P7,P3,Pz,P4,P8,PO9,O1,Oz,O2,PO10
42765,96,230,134,-12,-153,91,188,338,-101,-194,177,-30,288,65,192,345,109,52,-9,95,163,203,251,-5,214,186,320,29,267,213,320,-111
42766,66,237,121,-47,-169,90,190,314,-106,-209,190,-28,288,41,212,340,112,57,-11,98,160,213,246,-3,222,179,320,23,259,209,330,-89
42767,43,243,81,-51,-161,112,225,306,-102,-189,204,-47,283,44,245,358,119,68,-2,113,191,245,295,-4,236,209,385,127,326,278,409,-23
42768,110,237,100,-26,-146,93,182,311,-90,-179,182,-45,267,32,216,339,113,57,-31,93,181,218,294,-3,213,220,403,135,315,282,420,-21
42769,145,272,95,-8,-130,102,189,313,-95,-176,182,-62,257,16,223,358,82,26,-42,93,182,250,249,-23,208,209,409,66,277,264,440,-6
42770,152,284,77,-27,-162,111,202,315,-90,-206,197,-72,252,18,220,368,107,34,-52,90,207,280,266,-35,190,216,434,59,277,275,450,17
42771,179,303,119,-14,-143,126,213,346,-92,-205,216,-45,265,21,240,393,136,56,-48,84,233,257,296,-11,185,249,465,97,300,318,499,83
42772,163,299,104,-8,-121,116,221,337,-102,-165,236,-55,265,36,253,400,134,62,-27,102,241,274,314,1,210,255,500,95,298,302,515,74
42773,166,275,123,-7,-137,114,186,321,-102,-176,208,-69,251,46,232,365,93,25,-47,82,227,287,273,-1,191,232,468,61,286,298,495,65
42774,169,258,144,-16,-144,104,157,343,-94,-187,180,-53,273,58,214,357,114,34,-41,58,203,246,272,-8,174,200,441,76,264,262,486,37
42775,182,243,133,-13,-140,93,152,350,-86,-184,155,-58,290,42,199,329,133,50,-31,69,166,249,330,-7,182,182,421,148,287,273,478,17
42776,151,199,99,-11,-159,61,112,337,-82,-197,117,-88,265,21,160,280,124,49,-51,34,124,239,364,-25,162,152,372,29,244,216,432,-23
42777,148,222,75,-11,-139,61,110,345,-61,-199,130,-104,268,24,142,280,59,30,-56,26,128,184,261,-50,147,132,365,-48,207,169,367,-53
42778,146,232,84,-15,-172,58,101,322,-79,-219,116,-137,255,33,127,246,-16,1,-71,20,105,165,201,-51,139,103,327,-108,174,130,322,-87
42779,137,224,56,2,-150,72,82,317,-80,-206,86,-161,254,25,137,234,-36,-11,-60,7,85,152,172,-60,134,87,292,-102,159,122,309,-146
42780,145,241,42,-2,-141,85,67,300,-67,-198,81,-164,246,25,136,201,-50,-12,-64,4,66,87,162,-57,134,69,243,-17,175,132,267,-186
42781,127,213,4,-33,-166,72,32,274,-83,-207,78,-200,229,16,101,193,-38,-26,-54,10,47,77,179,-29,157,58,201,135,240,156,270,-192
42782,118,207,-1,-22,-162,58,25,260,-78,-193,65,-197,232,24,102,194,-57,-19,-29,17,40,62,169,-17,180,68,192,91,231,147,268,-232
42783,142,225,50,0,-151,42,21,276,-73,-199,53,-185,246,30,105,177,-47,-10,-26,16,46,34,155,-25,198,71,199,-45,183,165,262,-243
42784,169,262,66,19,-129,6,33,290,-69,-189,46,-192,241,30,88,159,-99,-41,-44,17,50,40,64,-64,197,71,166,-345,56,96,210,-270
42785,165,226,48,2,-141,66,36,306,-87,-222,47,-186,231,9,80,141,-81,-50,-50,8,18,40,85,-67,180,48,160,-289,78,100,197,-294
42786,175,227,70,5,-148,63,39,342,-75,-221,31,-132,255,20,70,135,-12,7,-39,16,4,15,190,-23,195,36,158,-42,180,155,218,-282
42787,251,301,166,36,-113,65,68,378,-59,-213,31,-107,271,30,57,148,0,24,-28,18,-11,29,201,-25,192,25,128,-34,179,143,202,-301
42788,289,310,199,47,-113,88,77,416,-52,-207,60,-88,279,29,70,154,25,52,-3,28,0,30,221,-10,210,39,129,20,203,155,218,-280
42789,262,279,159,18,-126,74,74,372,-56,-213,27,-108,278,24,61,146,19,18,-21,14,-17,15,207,-17,198,10,106,48,221,136,170,-301
42790,229,246,139,21,-128,72,67,368,-48,-204,33,-128,253,36,57,133,-6,-13,-38,20,-18,17,176,-54,162,19,91,-47,158,82,119,-338
42791,235,223,120,17,-139,67,54,356,-62,-213,39,-137,238,24,45,121,-32,-49,-81,-18,-37,-5,133,-93,126,-5,46,-118,65,21,67,-363
42792,237,253,95,19,-136,89,89,330,-52,-228,34,-177,206,7,34,114,-44,-84,-120,-46,-63,-14,75,-155,59,-56,28,-203,-7,-45,50,-384
42793,211,267,67,2,-122,70,77,301,-72,-243,9,-228,192,-12,-9,83,-85,-118,-146,-79,-102,-41,40,-217,30,-112,-19,-266,-41,-78,-1,-407
42794,221,263,41,1,-105,41,55,295,-69,-245,-8,-249,176,-10,-9,59,-112,-136,-159,-93,-108,-66,58,-202,11,-122,-30,-218,-28,-65,-7,-416
42795,214,234,36,10,-112,27,46,286,-47,-242,-11,-201,200,-4,-3,52,-110,-128,-153,-73,-105,-77,44,-198,7,-114,-28,-289,-58,-91,-18,-432
42796,154,171,15,-17,-133,-56,18,289,-68,-249,-13,-203,197,-4,-15,45,-61,-99,-141,-78,-124,-72,67,-210,16,-120,-39,-154,-28,-71,-25,-423
42797,72,147,20,-30,-153,-17,13,299,-64,-258,-17,-203,195,-3,1,41,-53,-120,-139,-106,-144,-55,62,-203,-14,-135,-39,-171,-62,-108,-65,-457
42798,107,229,48,-5,-147,85,60,334,-50,-231,25,-158,215,6,12,83,-26,-82,-124,-76,-95,-46,103,-169,10,-88,9,-143,-42,-79,-2,-412
42799,217,293,135,30,-108,86,77,380,-61,-233,28,-127,221,-5,0,90,-15,-71,-129,-84,-85,-53,85,-192,22,-94,15,-209,-52,-67,-2,-381
42800,179,193,88,15,-128,67,31,342,-59,-246,0,-133,213,-6,4,101,14,-69,-129,-91,-89,-26,119,-172,32,-88,43,-229,-57,-67,25,-381
42801,126,170,56,8,-116,59,39,351,-55,-237,15,-115,243,-14,21,118,77,-27,-123,-70,-60,39,242,-126,29,-54,80,-219,-16,-41,76,-331
42802,143,136,56,33,-91,40,67,368,-61,-253,38,-132,239,-8,36,149,59,-40,-132,-56,-22,47,193,-158,37,-29,133,-228,-7,-34,142,-290
42803,145,200,102,51,-93,55,96,385,-38,-250,58,-110,227,-3,67,173,29,-35,-118,-48,14,97,165,-120,65,22,176,-87,61,33,203,-216
42804,169,244,140,56,-98,107,95,397,-16,-237,82,-96,222,5,66,187,32,-45,-118,-13,12,133,176,-96,98,72,233,30,142,110,252,-147
42805,200,222,134,68,-81,112,97,387,-39,-214,66,-123,231,3,65,216,-8,-58,-114,-5,41,117,119,-121,118,90,264,-11,120,112,265,-128
42806,174,219,76,29,-98,94,129,331,-70,-227,82,-160,196,-2,74,199,-30,-75,-126,0,64,71,101,-120,135,89,263,-17,130,148,275,-118
42807,159,215,30,1,-123,111,135,297,-77,-205,112,-184,178,6,95,227,-53,-101,-121,22,62,124,116,-78,158,109,266,12,178,161,307,-105
42808,129,38,19,-6,-127,210,140,263,-80,-186,146,-190,178,22,122,216,-38,-92,-103,41,71,115,115,-70,156,121,285,8,187,166,332,-111
42809,124,-375,51,-7,-109,256,147,270,-81,-182,167,-181,177,4,134,240,-41,-77,-112,33,99,116,118,-68,160,131,320,-56,178,204,356,-83
42810,151,-307,78,-8,-98,121,172,277,-87,-190,150,-174,147,0,129,269,-85,-103,-126,20,96,152,79,-78,145,121,334,-147,153,197,365,-67
42811,148,125,74,0,-79,42,162,269,-109,-204,128,-173,144,-3,131,262,-52,-89,-134,5,86,176,123,-96,125,98,336,-86,159,169,303,-66
42812,130,343,66,-12,-80,155,158,275,-94,-179,151,-163,153,-5,138,267,7,-75,-144,-5,90,185,194,-105,99,86,340,-189,78,91,253,-83
42813,144,440,59,-12,-91,91,153,277,-110,-188,128,-155,150,-5,119,229,4,-66,-134,-3,84,148,181,-89,107,111,335,-5,167,153,324,-80
42814,184,405,81,-10,-105,98,174,282,-115,-185,144,-175,151,1,140,239,-80,-93,-159,-7,80,130,72,-130,74,82,306,-125,138,134,311,-109
42815,219,410,80,-14,-121,108,197,255,-116,-180,158,-212,125,-11,134,257,-149,-126,-186,-10,77,139,-14,-160,55,68,312,-290,76,94,260,-127
42816,252,393,87,0,-106,107,202,263,-108,-157,157,-183,123,7,151,270,-105,-107,-143,8,71,162,32,-128,92,79,307,-131,115,151,281,-107
42817,241,366,120,25,-109,123,234,283,-91,-150,176,-147,147,10,139,280,-77,-96,-141,3,76,147,75,-139,88,61,294,-50,161,150,268,-115
42818,220,361,129,18,-113,124,225,308,-96,-162,164,-112,182,-3,125,290,-6,-64,-137,-1,85,146,134,-133,89,43,277,30,152,129,209,-165
42819,214,324,102,4,-107,110,232,318,-82,-170,162,-138,183,0,128,275,-23,-51,-126,12,81,152,142,-136,96,36,257,21,143,105,173,-186
42820,181,300,90,8,-142,95,199,298,-82,-195,133,-152,198,8,120,256,-20,-63,-129,2,47,113,155,-119,85,21,207,60,170,130,131,-206
42821,176,294,106,0,-145,99,181,297,-104,-194,130,-155,192,3,111,234,-49,-89,-141,0,2,95,103,-147,73,-18,150,-119,88,61,68,-267
42822,142,273,98,-14,-154,77,206,308,-110,-196,144,-149,168,0,97,225,-69,-98,-148,-11,-15,131,56,-166,66,-41,124,-260,33,11,49,-288
42823,118,226,86,-9,-146,65,190,323,-90,-187,128,-138,199,5,120,239,-48,-90,-130,3,2,110,73,-153,71,-19,131,-173,76,59,96,-279
42824,129,194,90,-3,-146,65,159,333,-81,-178,134,-114,221,-9,112,215,-30,-65,-116,3,1,95,108,-143,81,-28,125,-105,102,72,102,-288
42825,104,206,103,-17,-162,71,157,353,-86,-178,130,-103,230,-4,102,227,-6,-53,-118,-14,-5,96,149,-111,90,-21,101,-28,136,76,95,-298
42826,101,202,93,-11,-167,63,162,354,-77,-195,119,-79,239,11,115,214,44,-6,-97,-3,-5,94,210,-51,93,-11,105,89,215,115,142,-297
42827,86,219,84,-21,-161,70,155,331,-76,-200,117,-62,258,26,109,213,84,35,-75,4,-4,118,265,-21,147,5,126,219,302,163,208,-259
42828,117,249,145,-3,-147,110,179,369,-70,-168,134,-32,284,22,132,256,130,71,-35,40,38,150,297,-6,181,46,152,227,301,181,237,-222
42829,112,241,140,-4,-157,87,190,367,-77,-163,163,-36,281,15,117,283,117,75,-23,46,51,159,282,4,181,71,158,132,283,191,246,-222
42830,100,219,123,-14,-168,46,144,369,-58,-188,147,-40,287,32,118,274,128,89,-8,54,66,162,313,33,199,76,174,87,276,224,278,-186
42831,73,206,107,-35,-174,67,147,352,-69,-201,134,-29,295,42,126,274,120,79,0,56,78,157,287,40,228,93,204,-8,245,204,298,-186
42832,102,221,128,-14,-166,66,158,365,-64,-196,133,-26,318,44,150,295,114,97,3,76,101,163,283,55,208,89,214,-13,252,204,331,-167
42833,142,284,177,11,-128,7,203,402,-42,-194,152,20,349,54,163,310,222,159,45,88,122,155,444,104,241,128,263,159,337,295,406,-119
42834,141,289,158,25,-119,69,229,421,-23,-179,176,52,368,68,184,330,276,191,47,90,141,176,507,129,260,152,297,140,357,335,439,-82
42835,103,249,120,-1,-131,98,217,379,-35,-199,166,-10,330,42,168,318,160,127,20,63,130,209,336,65,238,142,310,-47,252,280,426,-88
42836,101,250,104,-20,-156,17,212,339,-71,-191,172,-54,312,27,144,309,69,71,-15,50,110,173,248,37,217,128,294,-105,217,240,411,-88
42837,89,247,72,-28,-158,72,214,329,-67,-201,194,-65,306,34,148,317,27,57,-15,65,121,157,211,25,198,129,320,-38,241,235,414,-77
42838,72,242,33,-38,-156,97,219,319,-60,-209,180,-99,284,30,174,308,-11,22,-10,62,127,177,155,-6,193,130,348,-62,215,237,395,-62
42839,59,199,24,-34,-160,104,189,294,-68,-195,176,-105,271,28,165,306,11,13,-14,68,135,183,172,-7,188,139,370,-43,210,241,402,-41
42840,26,168,7,-50,-175,95,184,285,-85,-185,191,-103,269,33,189,313,1,20,-27,69,135,180,188,-18,198,135,380,26,256,254,417,-20
42841,35,164,35,-40,-172,103,199,292,-94,-193,217,-87,260,23,193,331,32,13,-45,72,160,196,197,1,199,152,395,78,288,269,435,7
42842,41,204,46,-45,-160,128,212,305,-124,-173,206,-83,240,32,191,346,12,4,-53,93,160,217,194,-6,190,158,403,39,263,252,427,16
42843,74,209,68,-31,-146,156,203,308,-109,-148,209,-109,258,31,198,339,-2,19,-48,93,173,200,207,-2,216,164,413,46,267,272,447,8
42844,93,192,72,-49,-128,152,168,311,-94,-119,207,-99,260,35,211,341,16,28,-22,101,181,205,200,2,222,189,395,62,285,269,435,15
42845,46,150,30,-70,-152,141,133,265,-122,-166,164,-131,247,49,179,323,-38,2,-28,99,156,174,168,-21,216,184,367,19,254,235,401,-34
42846,18,126,-16,-82,-158,105,104,231,-128,-190,134,-160,240,52,173,292,-28,-4,-39,109,147,165,165,-20,230,168,354,94,262,247,422,-25
42847,4,114,-61,-98,-175,63,95,213,-110,-187,100,-180,234,47,139,237,-67,-24,-47,80,99,121,123,-51,189,120,292,-24,191,165,321,-91
42848,-16,79,-57,-84,-171,53,68,227,-92,-179,97,-172,230,71,126,217,-47,-3,-30,69,71,97,148,-61,169,101,259,-202,117,129,281,-157
42849,-24,71,-75,-98,-192,41,31,205,-98,-207,45,-172,223,42,89,194,-16,-13,-41,34,34,66,200,-74,143,44,204,-304,99,113,246,-189
42850,-33,93,-103,-121,-194,27,35,188,-119,-219,28,-208,217,50,48,166,-112,-53,-70,5,-7,39,113,-102,114,8,157,-315,77,89,230,-235
42851,-38,100,-110,-111,-186,53,23,181,-107,-209,43,-222,209,63,62,154,-103,-46,-62,13,-7,27,120,-98,119,3,144,-215,129,127,226,-282
42852,-3,138,-84,-104,-195,65,21,193,-109,-204,50,-212,202,58,57,147,-115,-41,-64,10,-7,4,95,-80,120,-2,111,-97,191,156,221,-302
42853,-10,136,-78,-114,-170,56,8,176,-105,-207,40,-204,200,61,46,115,-117,-51,-92,-12,-60,-29,73,-95,106,-33,43,-97,159,95,177,-367
42854,-29,120,-80,-117,-166,40,20,187,-115,-221,22,-232,185,36,17,85,-120,-82,-113,-48,-104,-90,64,-102,65,-88,1,-130,109,29,120,-410
42855,-25,101,-110,-107,-182,22,12,177,-137,-235,6,-257,174,18,3,78,-116,-95,-106,-57,-105,-93,53,-120,68,-104,-31,-192,79,13,87,-426
42856,-39,99,-85,-112,-199,38,11,199,-127,-241,0,-229,180,27,-1,64,-121,-103,-116,-47,-111,-101,32,-162,56,-114,-53,-253,42,-42,43,-466
42857,-51,88,-97,-127,-202,38,12,181,-124,-229,25,-242,171,20,24,73,-114,-95,-126,-50,-123,-120,70,-148,38,-114,-73,-158,61,-24,33,-473
42858,-61,74,-101,-146,-199,16,-15,167,-119,-227,45,-245,171,33,30,69,-137,-113,-122,-60,-106,-110,43,-163,23,-143,-55,-232,41,-44,20,-469
42859,-68,92,-119,-153,-192,-23,-6,151,-152,-226,24,-251,155,14,12,44,-145,-128,-131,-76,-131,-110,33,-188,14,-163,-36,-270,3,-80,-6,-452
42860,-41,127,-107,-122,-180,51,42,150,-136,-200,30,-254,138,38,31,74,-151,-121,-128,-74,-94,-84,49,-162,27,-127,1,-173,94,-1,73,-409
42861,-54,103,-121,-133,-184,52,18,155,-125,-203,22,-261,163,23,39,105,-132,-98,-134,-57,-85,-69,78,-124,48,-88,31,-111,162,62,123,-339
42862,-46,72,-112,-131,-190,38,2,186,-116,-217,30,-231,185,21,50,103,-101,-67,-110,-36,-56,-31,109,-105,66,-66,68,-94,146,73,143,-308
42863,-51,88,-87,-117,-168,49,16,210,-102,-200,27,-205,215,41,55,119,-72,-42,-85,-46,-69,-24,153,-93,63,-67,77,-147,80,12,110,-304
42864,-36,101,-63,-140,-169,50,22,211,-96,-206,14,-193,234,43,43,112,-9,4,-60,-48,-77,-17,253,-48,83,-70,95,-164,129,63,153,-262
42865,-78,63,-67,-152,-186,37,2,206,-126,-236,-8,-202,221,20,22,76,-87,-25,-77,-61,-93,-35,155,-78,87,-83,93,-170,113,48,134,-303
42866,-82,36,-69,-175,-193,4,-31,191,-118,-237,-9,-196,238,21,14,67,-121,-42,-71,-84,-109,-59,132,-77,62,-96,87,-137,104,51,133,-299
42867,-80,5,-93,-197,-193,2,-21,186,-92,-216,-9,-221,213,43,8,100,-100,-39,-65,-49,-95,-65,128,-69,76,-63,88,-59,146,76,156,-273
42868,-109,-42,-93,-207,-214,23,-9,182,-118,-227,2,-231,210,45,17,94,-106,-40,-65,-44,-79,-35,94,-52,102,-58,109,-44,176,85,176,-259
42869,-103,16,-62,-213,-221,14,-7,175,-133,-228,15,-187,207,40,37,122,-68,-36,-65,-16,-62,-35,110,-50,113,-44,111,-83,154,74,169,-271
42870,-82,55,-65,-211,-199,8,27,168,-134,-215,28,-204,194,56,61,139,-72,-50,-68,-14,-36,-40,90,-61,107,-29,144,-178,141,89,183,-237
42871,-79,66,-106,-232,-215,18,29,151,-151,-199,34,-238,162,47,76,131,-107,-82,-92,-6,-21,-25,55,-105,103,-11,147,-276,91,56,186,-234
42872,-103,74,-136,-227,-235,17,43,143,-134,-182,46,-250,155,55,71,144,-77,-78,-86,12,-5,-13,132,-114,121,4,160,-321,80,37,195,-220
42873,-125,70,-132,-215,-221,13,37,137,-142,-166,55,-253,159,65,101,169,-132,-101,-94,25,-3,-9,75,-120,115,13,151,-379,41,42,189,-232
42874,-129,82,-123,-202,-221,7,38,156,-134,-189,56,-263,150,57,96,155,-171,-99,-95,-4,0,-33,11,-130,103,5,152,-275,55,34,157,-262
42875,-112,81,-143,-213,-225,28,34,147,-138,-198,54,-286,149,43,103,164,-181,-139,-104,17,6,-53,0,-116,116,10,167,-217,94,65,175,-241
42876,-92,88,-107,-193,-212,45,61,177,-113,-169,96,-252,196,64,126,164,-163,-106,-68,36,49,2,52,-94,134,53,192,-159,128,105,214,-187
42877,-72,83,-77,-137,-203,44,58,210,-82,-176,118,-187,229,64,155,185,-74,-65,-36,62,62,29,110,-40,164,65,215,-73,185,115,249,-158
42878,-37,97,-98,-145,-203,62,79,218,-85,-186,113,-210,234,73,161,220,-115,-52,-30,79,86,58,119,-32,186,83,248,-31,214,151,247,-137
42879,-82,77,-82,-167,-204,61,84,213,-97,-182,107,-240,237,83,152,222,-130,-45,-37,74,91,65,98,-44,189,85,236,6,233,160,267,-136
42880,-120,70,-132,-179,-198,29,60,174,-103,-182,95,-258,209,85,138,199,-119,-52,-53,67,67,39,99,-55,167,69,216,13,231,130,228,-155
42881,-105,62,-159,-180,-207,5,24,164,-111,-200,67,-265,191,82,108,166,-117,-94,-53,51,29,12,103,-79,142,16,201,48,193,88,173,-175
42882,-120,66,-162,-204,-208,-6,12,122,-133,-184,59,-278,146,82,89,148,-132,-122,-98,28,8,4,69,-135,121,-16,154,-15,106,12,107,-239
42883,-125,73,-181,-218,-213,19,3,91,-145,-179,46,-314,121,67,62,128,-153,-157,-141,-17,-6,-45,43,-162,70,-65,103,-70,59,-47,44,-315
42884,-140,57,-187,-223,-232,31,-2,68,-177,-206,33,-358,78,28,54,124,-236,-219,-174,-51,-48,-83,-46,-220,-9,-118,44,-241,-10,-141,-34,-397
42885,-135,50,-174,-209,-203,10,-19,101,-155,-194,30,-350,90,30,28,106,-239,-219,-188,-79,-60,-58,-44,-220,-22,-124,32,-323,-62,-180,-63,-408
42886,-116,84,-177,-203,-169,9,-21,94,-156,-190,23,-331,89,22,15,91,-225,-199,-207,-85,-94,-95,-42,-234,-38,-136,1,-267,-50,-210,-80,-424
42887,-89,103,-129,-188,-170,9,-4,106,-152,-189,11,-302,73,4,21,76,-218,-201,-219,-99,-125,-127,-73,-254,-53,-184,-24,-338,-96,-249,-160,-479
42888,-58,122,-94,-151,-164,34,38,149,-119,-178,39,-270,107,19,21,72,-206,-176,-193,-100,-112,-104,-49,-263,-54,-198,-26,-345,-104,-248,-149,-472
42889,-51,116,-82,-154,-164,-39,17,160,-121,-192,7,-288,90,19,21,53,-237,-184,-203,-95,-140,-140,-49,-274,-74,-216,-54,-294,-113,-275,-193,-516
42890,-68,83,-121,-165,-168,-48,-6,161,-116,-186,-8,-297,106,31,18,22,-180,-194,-185,-96,-146,-158,2,-266,-79,-226,-78,-333,-141,-289,-234,-534
42891,-92,22,-149,-166,-186,0,-40,137,-112,-213,-7,-304,121,37,2,12,-157,-175,-179,-103,-164,-177,11,-258,-67,-236,-93,-460,-187,-304,-215,-515
42892,-126,0,-191,-203,-205,-15,-66,108,-149,-211,-48,-329,120,26,-5,4,-253,-213,-199,-122,-174,-227,-102,-297,-88,-264,-115,-557,-249,-355,-245,-576
42893,-129,19,-190,-190,-179,10,-40,125,-120,-196,-28,-324,118,18,15,1,-277,-226,-202,-114,-180,-209,-126,-289,-87,-239,-101,-506,-232,-333,-224,-570
42894,-134,20,-190,-195,-206,-4,-55,127,-122,-200,-27,-315,144,21,-11,-6,-257,-206,-190,-129,-174,-200,-105,-271,-64,-226,-101,-343,-159,-278,-176,-539
42895,-129,14,-185,-181,-212,-10,-63,146,-129,-201,0,-316,160,27,-3,16,-234,-196,-178,-104,-145,-192,-62,-249,-38,-197,-63,-228,-85,-219,-124,-508
42896,-104,31,-151,-149,-193,31,-26,178,-111,-182,35,-258,164,46,46,64,-169,-144,-145,-57,-75,-150,8,-196,-1,-133,-19,-142,-14,-142,-56,-447
42897,-85,76,-104,-127,-179,-36,8,191,-116,-179,63,-223,182,47,52,118,-111,-111,-113,-29,-47,-107,69,-151,34,-94,19,-45,54,-73,-13,-400
42898,-57,117,-63,-112,-172,-50,68,193,-124,-185,82,-200,164,31,62,130,-84,-114,-109,-28,-42,-75,70,-136,41,-81,58,-118,32,-80,5,-384
42899,-60,85,-58,-133,-191,35,68,199,-114,-185,94,-180,167,30,80,154,-67,-109,-104,-24,-10,-53,78,-141,68,-18,102,-212,23,-51,37,-340
42900,-20,105,-16,-94,-183,33,81,245,-106,-164,116,-149,218,53,97,187,-12,-30,-82,11,17,1,186,-99,99,21,130,-156,118,53,131,-271
42901,0,114,2,-87,-177,16,82,287,-88,-187,121,-94,257,54,110,194,58,18,-56,28,57,10,253,-58,143,33,159,-184,146,71,156,-265
42902,12,128,-8,-96,-170,30,82,297,-83,-197,117,-88,279,84,128,211,35,41,-25,57,70,36,223,-17,180,82,211,-106,197,118,191,-219
42903,18,132,28,-88,-154,61,86,312,-76,-165,117,-78,295,84,124,228,-22,52,7,83,79,54,194,7,197,107,211,-110,180,108,201,-213
42904,27,124,51,-66,-159,36,92,340,-62,-201,113,-54,298,104,134,222,-4,56,3,84,83,49,208,23,217,122,229,-1,237,157,257,-179
42905,16,90,46,-75,-178,31,75,318,-65,-200,106,-52,303,112,146,238,33,78,35,103,117,61,256,55,228,136,260,113,297,220,278,-142
42906,17,110,53,-72,-168,44,75,344,-58,-186,134,-5,323,108,165,249,111,114,40,105,123,63,354,53,243,125,272,-12,263,208,269,-124
42907,8,101,49,-101,-169,14,61,317,-72,-185,119,-33,280,84,157,229,63,83,4,86,116,71,287,20,224,121,273,-172,187,181,285,-116
42908,42,122,48,-80,-164,24,79,323,-70,-153,128,-55,273,100,192,261,22,72,12,127,142,84,211,4,217,139,298,-150,214,207,320,-102
42909,37,115,32,-88,-191,9,72,307,-66,-168,107,-80,289,97,171,233,-42,46,-5,108,127,38,159,-24,202,133,283,-92,219,194,312,-134
42910,1,130,2,-95,-171,35,89,294,-69,-179,134,-88,270,102,173,218,-45,34,-3,91,106,-19,148,-19,215,126,258,-26,233,209,312,-148
42911,3,158,-31,-88,-167,13,92,285,-90,-195,151,-149,251,85,142,190,-88,-13,-39,83,72,-4,107,-57,169,85,203,-63,177,165,254,-181
42912,-1,182,-30,-86,-163,-15,96,275,-72,-208,145,-169,249,77,112,175,-106,-30,-66,63,39,13,94,-78,146,55,197,-107,116,89,197,-206
42913,-10,163,-14,-82,-145,86,67,275,-85,-184,109,-145,247,81,123,186,-53,-6,-52,83,62,21,142,-45,172,87,242,-24,188,135,259,-156
42914,16,111,11,-78,-166,70,32,275,-104,-191,62,-162,210,70,117,170,-79,-26,-52,62,56,38,139,-69,165,89,240,-85,173,127,287,-138
