,Fp1,Fp2,F7,F3,Fz,F4,F8,FC5,FC1,FC2,FC6,T7,C3,Cz,C4,T8,TP9,CP5,CP1,CP2,CP6,TP10,P7,P3,Pz,P4,P8,PO9,O1,Oz,O2,PO10
144799,185,325,571,232,167,404,492,405,172,268,519,788,296,259,343,409,755,148,12,289,679,511,554,237,251,638,543,290,472,544,296,634
144800,168,286,529,188,164,421,445,390,178,294,521,756,276,250,349,417,693,110,-7,294,675,531,552,228,252,640,580,238,480,543,316,558
144801,63,210,450,226,140,407,403,365,153,268,525,754,243,236,348,434,615,70,-14,272,682,492,531,190,245,612,563,140,453,499,263,497
144802,70,236,437,262,153,422,445,441,184,273,539,791,277,243,351,433,582,115,13,271,692,523,550,207,249,606,530,182,443,473,254,569
144803,108,198,426,278,186,461,445,532,223,303,502,763,305,257,356,379,558,119,25,275,687,565,545,205,250,619,539,247,431,488,314,641
144804,104,245,431,266,179,469,446,519,198,304,497,637,291,240,342,344,643,82,-3,260,663,523,514,164,213,595,536,255,391,457,275,593
144805,148,312,458,245,180,411,461,450,218,297,489,657,265,238,337,423,689,74,-18,253,656,523,471,156,211,584,526,285,404,443,229,552
144806,145,273,468,230,167,384,483,424,200,276,502,696,272,243,322,435,641,83,-28,233,660,547,462,143,212,564,516,233,391,425,224,568
144807,130,258,486,212,168,441,517,275,188,283,525,738,266,233,343,390,645,79,-33,248,652,560,505,161,207,578,552,268,418,468,248,642
144808,117,250,501,189,156,417,379,277,178,274,422,776,251,220,324,371,607,79,-55,235,625,501,500,144,177,558,519,196,387,430,179,587
144809,123,243,504,196,149,425,398,323,187,293,467,782,285,235,344,384,647,91,-36,254,612,461,547,135,197,562,482,182,398,390,182,519
144810,111,254,502,229,172,400,401,319,196,307,483,736,274,238,353,392,650,81,-37,253,632,523,536,160,216,576,499,236,426,412,178,564
144811,57,274,482,226,163,383,358,318,198,299,480,689,259,219,354,404,699,71,-55,256,649,530,551,141,174,561,511,292,425,407,172,528
144812,43,217,466,211,161,465,381,316,205,304,543,671,265,232,356,376,693,71,-65,236,622,429,572,129,166,549,461,293,381,357,144,466
144813,54,148,488,234,196,512,364,329,206,301,541,689,267,249,342,319,768,119,-56,228,626,398,634,152,187,553,459,288,399,359,126,539
144814,78,186,495,259,195,465,404,337,203,297,544,699,297,244,338,294,756,112,-31,248,626,429,618,160,179,567,480,75,363,333,95,541
144815,118,177,510,272,198,419,418,352,213,287,490,733,310,229,342,370,713,115,-25,251,615,388,629,164,198,572,464,153,374,355,146,510
144816,137,244,478,246,196,424,455,363,219,299,490,729,306,243,343,359,700,107,-25,257,654,342,601,173,202,584,505,164,379,385,172,518
144817,137,295,465,220,179,387,469,358,191,288,514,709,282,229,337,55,659,95,-28,241,695,195,584,155,182,574,537,247,389,351,133,441
144818,147,329,507,248,181,417,469,395,182,293,562,727,288,216,336,188,620,87,-42,245,727,279,523,143,184,585,560,237,368,361,156,509
144819,182,312,540,259,201,382,536,414,180,285,597,770,305,233,329,612,715,117,-36,240,634,438,508,148,169,570,509,215,368,350,171,556
144820,184,315,534,263,209,419,561,397,183,283,513,753,314,226,316,637,761,111,-24,240,570,476,538,161,176,560,433,332,406,387,195,610
144821,181,342,491,271,201,382,486,411,198,288,430,760,343,225,319,413,753,140,-25,263,612,416,554,178,190,578,424,358,432,408,208,575
144822,193,360,442,277,202,378,482,444,214,296,463,796,355,230,335,421,757,160,-15,257,621,518,540,183,188,586,495,244,406,425,197,500
144823,186,312,389,272,188,422,452,447,176,276,519,762,321,217,346,429,687,115,-43,241,656,495,496,135,155,572,598,102,303,347,106,275
144824,208,348,395,286,198,439,456,439,197,293,536,755,318,220,344,428,621,100,-64,235,673,556,479,122,147,568,649,121,280,326,141,481
144825,218,386,445,284,216,435,452,411,217,282,535,756,326,215,331,398,659,96,-59,211,602,492,489,104,138,519,458,205,304,320,106,614
144826,193,389,485,292,220,413,463,406,212,298,513,733,319,212,337,406,636,72,-63,232,622,443,446,78,129,523,438,192,299,299,74,553
144827,158,346,507,296,215,401,461,416,204,293,491,726,306,216,318,371,671,64,-69,243,620,460,459,101,133,522,455,184,289,307,89,529
144828,131,336,502,297,212,427,471,431,228,294,487,742,318,228,317,273,720,88,-53,256,590,469,492,127,141,513,415,261,327,362,136,655
144829,127,295,427,301,201,477,458,464,221,285,424,718,296,200,296,299,681,93,-81,231,546,441,458,113,133,495,374,223,315,325,96,560
144830,126,263,403,282,188,450,447,467,190,277,437,724,291,180,296,333,622,73,-111,197,539,382,470,105,115,476,361,226,292,297,74,450
144831,121,270,430,301,209,380,436,534,208,264,479,783,319,204,302,367,632,100,-85,195,579,334,521,133,109,487,419,253,293,287,51,440
144832,201,290,484,285,209,336,444,416,196,285,469,855,301,210,286,374,642,103,-71,186,581,390,495,135,100,497,431,184,274,280,74,470
144833,234,264,530,278,233,373,485,381,197,302,475,857,289,189,269,337,600,99,-93,184,564,405,469,106,89,481,371,127,257,271,46,437
144834,251,298,535,213,237,379,519,452,197,275,369,830,293,184,239,337,620,91,-90,179,548,504,471,91,95,475,449,96,271,265,29,362
144835,225,327,489,253,241,419,495,455,196,278,442,761,294,184,276,348,643,64,-94,191,566,522,477,97,112,477,470,60,282,282,80,475
144836,201,313,464,263,221,403,412,429,193,277,480,816,325,188,279,341,803,157,-58,179,533,398,640,171,131,451,355,172,361,326,113,532
144837,197,295,412,251,210,407,337,402,207,280,471,819,326,208,259,298,856,193,-40,173,516,261,733,194,135,440,306,270,413,353,102,480
144838,219,265,436,264,211,441,344,418,209,289,482,738,320,186,261,315,719,119,-68,171,539,302,618,145,113,445,330,49,319,294,90,544
144839,176,257,469,299,217,477,342,403,228,293,449,691,320,191,257,322,667,111,-77,177,544,305,583,121,114,435,334,82,284,276,60,476
144840,119,233,450,309,235,458,350,395,220,290,436,653,300,179,249,247,639,103,-66,167,511,232,578,96,103,428,301,183,267,244,17,383
144841,112,211,447,256,210,476,406,354,184,290,408,660,283,177,261,89,661,71,-73,185,530,297,512,82,91,429,343,116,246,228,49,454
144842,175,271,530,280,238,472,387,390,199,293,442,692,287,189,304,-62,663,79,-87,191,617,293,477,89,107,473,395,112,239,246,26,435
144843,215,249,557,276,239,463,402,410,196,285,504,695,293,196,303,221,725,82,-67,190,603,374,507,104,124,481,421,288,293,274,57,337
144844,240,218,550,263,246,512,409,392,205,300,478,708,315,208,306,532,674,85,-62,210,534,487,469,120,148,503,479,221,333,319,146,480
144845,226,282,526,272,241,432,367,413,207,292,410,723,319,213,273,402,594,85,-45,209,528,478,433,134,173,504,460,161,321,359,142,587
144846,208,276,529,262,236,419,298,411,206,300,406,730,321,197,285,300,618,96,-49,201,569,394,451,121,180,501,418,182,336,349,129,569
144847,190,263,564,260,205,358,304,385,176,261,399,741,306,190,280,351,690,112,-63,189,525,380,517,138,160,471,374,229,355,339,107,544
144848,159,299,583,239,204,322,362,412,179,253,392,750,303,181,258,359,727,121,-89,174,508,416,525,119,135,459,395,105,309,292,73,468
144849,181,374,575,247,205,343,426,444,168,262,442,731,287,161,266,367,700,112,-99,163,534,341,568,102,118,460,437,42,303,271,66,414
144850,198,371,548,274,214,363,483,437,187,276,496,717,278,165,289,356,649,107,-103,167,522,222,571,83,101,434,412,-17,335,297,68,401
144851,199,366,543,272,228,385,447,388,196,284,475,738,262,160,277,390,544,87,-115,167,534,349,538,67,106,473,455,-131,294,295,99,381
144852,219,387,566,265,250,456,534,373,189,302,553,708,252,153,300,352,518,64,-113,161,577,407,559,79,124,485,505,-45,307,304,89,411
144853,215,370,533,288,254,465,601,390,191,303,550,701,256,165,299,305,630,89,-102,170,566,429,605,113,150,464,450,121,351,339,140,515
144854,204,345,464,280,248,452,522,362,198,298,487,710,281,181,305,326,736,123,-71,183,576,401,646,151,186,500,480,350,407,389,180,494
144855,196,318,460,267,257,500,539,375,193,304,531,714,281,175,333,380,596,101,-92,192,631,331,535,143,178,544,532,284,404,412,189,426
144856,219,301,537,303,247,487,534,413,212,297,462,771,301,185,313,398,532,135,-79,192,643,142,502,157,180,534,522,221,378,416,238,469
144857,227,308,566,329,235,503,496,416,210,291,419,803,322,174,305,368,670,148,-77,185,597,219,565,172,175,511,470,283,431,446,245,607
144858,261,373,526,290,238,511,520,415,213,306,494,729,288,191,309,360,633,112,-80,189,576,401,552,137,162,518,477,205,393,416,189,506
144859,243,403,495,279,218,426,489,431,203,282,470,762,312,181,296,328,670,109,-75,194,609,505,581,129,166,531,602,210,405,396,188,495
144860,250,413,542,300,248,421,457,498,212,276,478,844,359,177,296,316,699,144,-33,191,602,557,582,163,163,508,526,135,408,381,211,596
144861,283,415,621,324,250,443,470,446,211,304,516,895,364,190,315,350,712,151,-42,185,582,558,579,157,168,492,391,215,396,404,214,701
144862,282,410,638,320,235,466,497,386,200,308,553,886,331,190,302,365,690,133,-82,180,587,523,489,133,159,495,397,320,379,405,194,677
144863,235,424,618,339,250,453,451,426,203,320,523,848,325,190,307,328,649,102,-79,186,588,495,426,135,143,503,456,299,380,402,196,646
144864,250,337,569,308,238,503,484,403,197,312,547,798,288,183,334,376,633,64,-73,198,618,562,409,112,142,519,503,231,384,385,187,667
144865,303,288,566,304,246,518,521,395,202,311,557,802,309,206,334,353,703,95,-68,211,618,492,466,136,141,536,495,242,405,427,204,760
144866,246,288,500,254,226,460,462,424,193,285,591,784,338,196,340,355,788,144,-66,209,619,515,583,150,150,534,462,205,413,435,225,724
144867,249,427,493,225,242,475,534,509,208,305,633,805,351,217,374,477,834,167,-49,225,670,555,664,184,173,582,511,253,445,468,262,772
144868,266,458,479,287,225,476,557,480,205,294,576,740,319,226,364,458,740,150,-52,231,665,565,651,197,189,601,567,220,455,527,345,913
144869,282,415,464,290,220,445,552,423,203,251,448,711,275,216,345,347,712,114,-72,226,633,593,620,162,181,611,535,188,448,534,327,835
144870,317,406,455,306,219,428,554,452,193,266,483,750,301,211,372,156,759,129,-54,241,698,543,633,178,194,615,538,194,477,536,310,744
144871,350,509,505,300,241,491,572,435,201,309,559,755,329,235,396,393,695,134,-28,256,722,571,656,204,217,623,554,263,495,548,312,692
144872,330,475,557,267,232,551,572,399,205,298,560,780,316,229,343,636,764,161,-52,230,574,539,660,198,194,551,472,336,502,486,254,468
144873,296,413,537,253,219,532,479,399,206,280,537,770,329,210,323,514,765,154,-40,211,531,481,645,181,182,513,425,314,439,407,170,429
144874,312,434,549,294,254,493,526,413,215,279,560,771,342,210,349,441,677,129,-38,220,620,466,587,165,205,529,470,230,403,403,197,472
144875,321,377,570,285,249,461,495,403,197,251,520,796,322,195,313,455,766,118,-65,206,612,495,550,162,172,530,481,183,384,404,175,506
144876,275,380,505,337,225,443,473,439,210,259,590,815,327,204,327,381,805,118,-43,216,626,512,556,156,177,539,477,198,374,421,202,553
144877,267,399,493,371,228,421,495,493,224,282,586,795,348,217,346,385,711,129,-47,231,655,487,508,171,199,564,479,221,389,433,208,544
144878,294,444,459,342,203,420,546,520,224,277,528,759,366,216,353,411,748,147,-6,257,688,511,509,205,243,592,558,293,422,452,201,536
144879,338,484,460,331,206,479,570,573,211,303,538,765,380,224,385,408,759,177,11,261,692,502,511,232,253,571,572,371,456,472,233,560
144880,347,455,555,350,228,549,570,594,225,328,551,804,391,229,384,396,737,206,12,275,699,442,558,257,261,595,529,447,512,497,273,598
144881,311,405,569,332,196,472,508,601,228,290,499,860,394,235,387,365,750,210,11,273,679,438,625,266,278,601,508,524,554,530,336,597
144882,325,456,589,314,203,432,566,498,218,303,550,921,387,248,386,375,777,235,13,292,658,442,644,288,299,607,540,529,570,555,315,546
144883,355,487,626,273,212,435,561,426,195,288,531,970,371,231,357,398,820,236,-3,273,664,486,665,259,277,612,561,430,511,538,298,586
144884,356,506,669,277,233,461,527,454,200,312,540,980,378,234,380,426,816,249,1,270,679,545,690,250,261,610,534,270,487,518,320,669
144885,364,472,685,327,253,492,523,524,228,322,511,1043,433,266,385,407,885,353,24,290,688,571,853,304,276,609,537,264,553,527,342,659
144886,330,403,622,320,219,492,506,511,229,318,509,998,433,263,379,367,860,362,17,282,697,545,915,332,283,617,548,299,582,531,303,607
144887,263,367,530,312,209,483,547,494,229,318,548,891,429,258,398,378,777,305,25,291,743,545,775,290,273,652,638,185,505,572,359,700
144888,238,336,507,296,211,492,543,474,228,304,509,815,397,264,402,476,858,258,32,325,790,633,760,290,295,698,769,382,548,631,428,762
144889,246,325,488,334,211,471,579,453,213,294,605,748,388,261,442,581,816,197,10,331,807,572,686,259,315,727,787,399,531,619,429,719
144890,276,351,571,355,222,477,598,463,216,306,678,735,380,261,454,582,795,172,-3,316,779,445,601,244,302,693,642,383,523,597,395,666
144891,317,444,581,330,222,432,572,478,236,319,622,773,399,268,449,541,868,212,30,319,783,539,640,265,300,713,695,484,566,616,396,573
144892,288,484,563,352,229,389,666,563,230,292,484,775,408,260,423,439,925,233,42,326,775,589,618,287,319,714,691,572,584,657,438,691
144893,330,493,633,326,231,419,635,574,238,299,506,800,414,261,435,289,868,245,39,353,787,556,612,305,318,707,656,584,586,661,468,749
144894,339,515,654,268,241,475,613,456,235,336,585,836,409,271,492,217,869,223,21,371,910,534,593,263,305,744,763,455,516,598,374,580
144895,315,448,631,317,220,467,578,458,236,323,595,873,395,285,480,512,870,220,5,349,902,599,589,252,270,742,825,433,483,572,351,329
144896,267,448,604,301,201,492,512,458,236,339,672,862,410,281,471,763,897,235,9,328,773,686,630,246,262,701,790,489,512,596,345,634
144897,220,417,565,257,190,554,393,426,220,328,666,788,385,269,438,566,820,205,-4,292,683,608,629,233,243,650,590,450,482,577,365,787
144898,227,363,515,249,168,535,369,437,198,311,637,673,373,249,405,446,791,164,-32,262,683,548,603,201,209,606,500,349,417,498,282,738
144899,227,282,533,271,191,516,346,409,229,316,581,697,389,261,400,425,853,184,-24,273,661,518,694,233,239,616,474,414,461,525,329,731
144900,244,279,464,279,197,535,337,407,242,320,531,713,382,263,388,350,790,189,-23,249,641,466,672,231,213,567,413,313,440,500,302,725
144901,238,304,389,264,190,536,371,428,216,301,570,679,366,229,381,358,752,160,-47,237,629,435,628,185,168,542,399,186,406,445,233,688
144902,246,324,435,279,184,460,354,511,214,301,525,736,381,239,373,355,799,185,-19,244,614,496,683,226,187,548,403,282,450,474,242,700
144903,263,303,459,306,207,446,381,537,245,295,465,805,382,244,330,260,740,222,-17,220,577,420,702,241,182,514,377,259,419,440,229,623
144904,245,247,461,334,211,432,422,532,240,277,441,783,401,225,339,275,664,183,-33,219,584,475,632,189,156,512,391,174,346,405,158,598
144905,264,341,606,333,222,393,482,416,237,282,435,774,398,214,342,286,716,177,-65,220,598,450,604,172,141,506,400,115,320,373,124,548
144906,242,380,591,323,206,456,448,398,236,301,438,745,385,222,365,283,745,167,-47,225,591,430,613,179,146,510,382,139,350,360,165,537
144907,241,397,567,329,216,476,432,426,232,289,411,774,362,213,345,295,660,136,-70,231,581,453,559,161,122,485,354,195,330,327,96,487
144908,241,391,547,286,228,415,451,422,229,267,390,790,354,206,333,244,583,113,-76,226,569,398,533,139,122,471,341,143,300,319,94,431
144909,241,398,531,286,229,386,491,383,240,278,423,821,344,235,351,243,610,144,-69,232,599,285,587,151,134,499,345,65,329,339,114,410
144910,235,400,556,285,231,367,547,396,237,284,419,815,330,219,357,347,622,167,-68,226,627,241,654,150,145,492,378,26,337,306,63,352
144911,243,397,530,279,220,369,538,443,235,284,408,744,348,216,364,401,674,171,-45,238,650,281,652,157,165,506,414,132,351,349,148,468
144912,226,360,465,275,222,421,504,409,247,289,449,680,341,226,349,361,647,138,-56,242,648,311,588,143,172,529,400,162,361,366,150,483
144913,225,367,487,268,212,415,453,394,235,303,483,692,322,227,362,351,605,96,-71,237,655,327,519,132,172,540,437,259,353,359,122,381
144914,236,380,482,243,212,439,449,372,230,320,473,682,313,242,356,325,581,84,-72,234,631,328,471,122,167,536,427,351,377,381,146,326
144915,241,378,489,189,195,406,393,330,201,314,436,615,291,218,347,258,642,76,-83,225,587,196,452,111,157,515,362,276,351,347,147,313
144916,250,302,480,227,207,426,419,331,206,318,455,621,289,228,346,249,702,84,-78,230,583,288,522,136,148,524,373,324,371,355,133,456
144917,250,199,484,241,215,483,372,402,227,331,444,675,320,235,350,227,764,140,-87,228,626,347,611,142,145,516,412,334,398,369,162,484
144918,239,221,512,257,211,528,326,496,238,323,458,749,351,210,328,252,809,177,-84,185,619,344,685,131,126,505,390,113,373,319,75,390
144919,195,144,437,189,184,597,296,497,229,321,492,760,343,201,317,315,720,196,-85,181,598,336,832,156,115,487,401,-124,372,300,59,259
144920,90,177,328,207,178,602,325,374,199,317,472,672,300,195,325,246,663,164,-116,180,616,275,812,125,101,506,485,-184,346,309,122,-59
144921,56,282,286,246,198,525,342,332,189,319,515,606,248,165,340,-65,557,72,-150,167,657,217,595,64,69,497,459,-29,293,289,91,269
144922,160,315,338,276,218,479,348,370,183,312,502,641,254,173,346,179,463,35,-163,163,690,132,412,32,54,494,393,11,272,321,122,455
144923,253,383,425,299,252,452,506,401,201,327,552,659,262,193,356,642,474,30,-160,176,645,287,333,39,86,500,490,177,287,315,128,359
144924,286,383,406,279,240,423,509,397,211,307,509,615,266,194,339,611,524,-5,-155,194,568,440,285,44,84,472,504,268,317,331,117,234
144925,297,444,428,261,249,433,492,287,220,313,435,582,266,198,336,335,622,20,-144,188,597,493,327,66,108,490,487,349,346,340,99,324
144926,233,439,478,258,242,384,476,297,216,299,416,604,270,183,293,303,624,9,-161,177,518,419,355,69,115,458,278,189,340,363,153,727
144927,236,410,561,261,238,442,449,289,202,288,453,602,265,195,289,277,579,-7,-170,178,488,429,352,60,102,426,228,171,304,337,112,730
144928,236,343,526,248,239,542,452,288,215,291,413,617,270,207,300,166,597,22,-159,184,505,428,384,75,110,438,260,301,334,333,104,659
144929,233,390,455,234,230,448,380,288,197,288,382,687,309,214,291,219,568,47,-129,184,518,402,452,89,102,448,272,324,354,329,106,646
144930,254,433,464,247,220,376,388,302,208,283,398,722,310,189,282,251,561,80,-128,171,502,299,484,100,84,415,227,294,338,292,84,473
144931,245,393,450,262,218,416,406,323,222,294,423,722,326,188,292,265,538,94,-116,167,521,345,489,101,93,410,266,212,314,269,59,418
144932,248,396,374,268,218,389,382,349,220,265,429,700,327,199,290,226,477,114,-105,150,503,286,509,116,72,420,251,143,291,241,23,384
144933,288,429,352,302,253,381,352,411,261,306,374,701,351,226,295,223,592,133,-63,202,529,337,538,132,113,441,229,178,325,263,58,433
144934,270,369,384,284,238,382,355,380,240,275,367,600,321,204,256,156,648,116,-100,195,502,353,531,106,95,418,209,271,325,240,9,414
144935,243,383,418,278,231,400,345,370,246,265,467,621,326,203,280,118,621,129,-90,171,508,244,536,107,75,420,205,213,329,233,21,407
144936,221,385,408,264,222,448,376,402,226,269,487,697,334,209,309,197,608,123,-91,187,546,284,498,69,82,412,239,-41,250,229,30,418
144937,229,342,385,282,214,474,376,375,204,275,442,704,325,218,312,263,510,105,-104,195,560,315,502,73,94,409,238,-9,242,190,-18,418
144938,211,346,404,299,194,426,281,363,213,271,418,664,338,215,322,222,630,149,-88,199,552,318,609,101,91,423,262,29,292,207,2,437
144939,167,358,380,312,181,459,318,394,206,277,482,588,347,209,358,262,695,165,-79,206,593,289,691,116,104,432,281,5,307,208,0,384
144940,147,378,305,298,199,533,326,483,230,295,492,570,376,222,360,313,646,157,-65,211,627,303,691,138,125,467,347,136,317,247,37,333
144941,168,275,376,325,216,459,328,494,245,306,488,630,359,215,334,311,614,145,-72,214,622,325,617,101,105,455,375,57,276,241,-3,332
144942,233,217,458,327,229,476,307,470,252,302,487,687,344,224,326,278,581,123,-85,200,613,273,539,56,94,457,366,94,245,216,8,375
144943,243,119,367,271,227,576,321,377,243,300,524,607,305,212,353,287,521,60,-110,198,668,247,418,38,72,481,523,147,251,205,-15,122
144944,237,10,307,235,207,540,359,332,208,300,455,530,285,203,341,330,604,44,-136,191,710,132,412,34,67,498,678,65,241,172,-45,-280
144945,270,207,334,269,220,470,343,416,249,299,469,575,324,193,338,283,576,72,-130,194,662,49,409,46,64,475,553,-43,219,169,-48,79
144946,291,335,397,284,224,470,272,446,242,311,550,644,323,190,327,-44,518,63,-142,156,556,-65,406,37,45,394,167,-81,215,163,-97,287
144947,202,421,402,289,218,379,246,446,221,271,475,696,351,194,288,-10,499,102,-126,143,532,-70,460,51,48,374,44,98,241,188,-45,437
144948,153,480,435,259,228,346,321,321,239,261,393,687,326,185,282,376,433,77,-121,131,493,192,406,56,65,384,140,108,223,206,-14,441
