,Fp1,Fp2,F7,F3,Fz,F4,F8,FC5,FC1,FC2,FC6,T7,C3,Cz,C4,T8,TP9,CP5,CP1,CP2,CP6,TP10,P7,P3,Pz,P4,P8,PO9,O1,Oz,O2,PO10
15038,-59,-330,-13,17,-29,392,23,182,36,72,179,-239,264,-38,128,-205,-623,-140,-9,72,-143,-571,73,140,115,-4,117,-357,72,-391,-276,-521
15039,-80,-357,-33,-3,-32,381,15,192,45,60,173,-198,281,-24,148,-268,-689,-115,6,93,-117,-560,123,195,137,31,150,-242,142,-326,-185,-437
15040,-75,-343,-18,12,-28,385,15,199,53,59,178,-185,282,0,157,-396,-682,-116,9,111,-116,-526,81,186,154,55,152,-380,124,-337,-189,-443
15041,-85,-347,-14,26,-26,372,-19,194,18,53,158,-178,266,-22,149,-409,-681,-118,0,93,-116,-578,64,163,148,42,106,-465,77,-385,-266,-580
15042,-73,-322,14,46,-12,418,13,207,27,56,173,-172,275,-43,155,-297,-645,-113,7,85,-111,-632,78,165,135,15,86,-537,55,-419,-341,-642
15043,-43,-305,44,47,2,442,38,231,38,94,224,-152,301,-21,196,-289,-671,-105,14,117,-36,-568,125,178,173,64,124,-602,77,-341,-221,-525
15044,-48,-298,9,29,-21,433,38,213,20,100,229,-163,303,-21,204,-381,-636,-113,35,121,-29,-524,103,181,191,80,157,-607,66,-309,-174,-502
15045,-91,-332,-29,13,-36,433,23,205,25,69,221,-226,294,-35,192,-385,-634,-94,20,116,-57,-547,82,186,197,80,145,-565,47,-319,-180,-483
15046,-122,-343,-54,-2,-43,431,5,180,26,84,207,-365,287,-32,163,-527,-666,-67,14,104,-131,-634,107,181,181,61,138,-560,41,-357,-225,-492
15047,-140,-363,-49,1,-61,435,-17,180,29,92,180,-322,284,-19,157,-566,-628,-108,16,123,-156,-618,102,192,165,78,210,-504,60,-345,-226,-425
15048,-130,-356,-73,-19,-46,445,-4,149,16,102,196,-255,268,-14,192,-423,-572,-155,24,140,-82,-472,38,171,188,118,228,-461,104,-277,-127,-416
15049,-136,-349,-77,-28,-61,434,-2,107,-4,71,186,-193,233,-25,155,-289,-572,-196,14,95,-102,-458,40,148,173,77,121,-464,101,-323,-225,-583
15050,-145,-362,-96,-28,-51,433,-9,101,-7,71,183,-195,221,-33,140,-211,-654,-167,2,107,-119,-547,81,173,172,78,102,-381,145,-288,-215,-585
15051,-147,-349,-94,-38,-51,415,0,136,0,90,191,-207,234,-20,158,-363,-689,-142,2,108,-122,-668,81,172,171,79,135,-332,167,-298,-205,-536
15052,-138,-348,-82,-23,-42,406,-10,136,13,107,189,-195,229,-28,139,-518,-634,-135,6,100,-140,-606,74,168,170,78,175,-388,110,-324,-217,-531
15053,-131,-335,-91,-15,-32,429,-39,140,27,87,175,-185,251,-16,140,-251,-637,-128,6,102,-115,-403,60,169,165,73,225,-496,62,-308,-192,-537
15054,-149,-347,-91,-27,-24,439,-29,135,10,71,156,-223,243,-32,124,-87,-690,-139,2,75,-94,-426,-5,143,147,60,193,-562,41,-304,-190,-535
15055,-161,-372,-103,-64,-47,411,-30,86,1,69,144,-289,213,-49,116,-223,-707,-184,-15,41,-132,-529,-49,109,112,30,99,-616,37,-336,-180,-480
15056,-137,-368,-77,-49,-47,402,-55,109,-7,58,123,-269,220,-59,123,-405,-675,-183,-40,48,-145,-602,-40,97,90,16,39,-642,19,-374,-202,-474
15057,-118,-352,-68,-6,-23,410,-52,144,10,61,138,-218,259,-58,132,-411,-634,-129,-25,44,-120,-692,22,124,112,30,81,-551,61,-329,-181,-457
15058,-141,-380,-74,-7,-22,410,-53,137,26,52,131,-234,264,-69,108,-357,-670,-110,-28,49,-152,-672,35,135,100,24,81,-450,103,-325,-191,-527
15059,-136,-367,-80,-1,-25,420,-38,151,35,63,131,-210,266,-65,128,-270,-669,-109,-2,71,-106,-549,66,161,120,48,177,-355,169,-286,-141,-475
15060,-119,-329,-40,21,-2,447,-8,176,54,86,157,-177,308,-32,150,-235,-658,-60,22,92,-93,-470,136,209,159,60,198,-326,164,-310,-214,-561
15061,-146,-325,-31,17,-8,428,-10,192,33,83,159,-142,327,-44,139,-373,-839,-75,28,84,-110,-475,140,216,165,36,166,-444,136,-319,-247,-579
15062,-151,-350,-28,37,-7,447,-5,203,36,73,161,-151,315,-69,137,-558,-824,-78,27,66,-79,-460,84,214,159,59,176,-555,102,-301,-174,-487
15063,-143,-349,-4,42,-3,441,-13,210,42,90,168,-161,336,-51,154,-465,-672,-59,37,87,-42,-489,129,227,163,81,167,-539,112,-284,-163,-455
15064,-154,-381,-35,40,-26,417,-9,202,31,68,176,-184,334,-57,164,-233,-520,-50,52,88,-2,-552,188,255,181,117,233,-485,158,-277,-147,-458
15065,-156,-391,-43,28,-35,409,-19,185,41,41,169,-210,337,-66,136,-144,-647,-76,47,72,24,-534,90,231,185,129,242,-533,123,-290,-166,-504
15066,-113,-373,-34,39,-22,414,-14,203,67,62,168,-201,351,-43,138,-166,-586,-57,74,86,7,-502,64,256,204,127,188,-462,145,-250,-132,-475
15067,-102,-371,-6,54,-15,406,-18,212,68,45,165,-203,340,-38,102,-245,-608,-58,65,74,-66,-594,88,259,202,134,163,-415,188,-232,-82,-391
15068,-102,-371,-6,45,-13,399,-14,224,52,26,167,-198,342,-60,105,-237,-686,-81,55,60,-105,-549,80,242,215,133,203,-444,189,-225,-69,-358
15069,-99,-367,9,68,-12,396,-5,207,66,34,161,-169,341,-57,127,-238,-702,-66,83,90,-104,-429,133,250,225,165,270,-368,219,-205,-41,-365
15070,-100,-352,-13,69,-1,413,36,207,67,36,187,-197,338,-56,138,-250,-674,-82,69,94,-61,-439,120,247,212,185,282,-376,208,-216,-45,-338
15071,-108,-338,-8,73,-7,423,35,216,54,47,182,-198,342,-77,145,-257,-615,-78,63,109,-52,-562,98,234,219,180,260,-430,204,-225,-54,-334
15072,-95,-314,-19,61,-2,421,53,188,48,58,195,-181,321,-88,158,-263,-574,-88,58,113,-40,-484,117,231,200,141,240,-377,188,-239,-59,-410
15073,-102,-319,-11,67,22,430,59,204,56,73,204,-153,333,-78,153,-352,-554,-81,54,105,-27,-358,134,228,183,152,255,-365,200,-225,-74,-413
15074,-137,-341,-24,70,20,413,42,191,67,52,181,-149,344,-74,160,-468,-511,-65,40,108,-24,-457,147,226,182,166,286,-393,197,-227,-64,-362
15075,-126,-334,-36,58,23,417,49,188,80,59,191,-113,344,-74,177,-369,-509,-61,48,100,10,-453,184,225,181,172,314,-377,186,-212,-32,-339
15076,-124,-339,-33,56,22,393,15,214,82,51,180,-106,343,-74,157,-288,-525,-42,43,103,16,-424,184,217,161,160,313,-399,181,-212,-24,-360
15077,-123,-319,-21,43,24,395,-16,213,74,53,168,-146,329,-81,162,-479,-646,-68,12,80,5,-451,136,198,125,134,338,-496,135,-265,-94,-394
15078,-107,-292,0,70,44,418,25,220,88,69,195,-173,331,-64,190,-489,-693,-48,28,90,32,-445,147,203,129,132,357,-522,139,-272,-97,-393
15079,-130,-321,-37,41,30,392,22,185,75,67,174,-176,321,-69,196,-165,-677,-58,15,84,49,-416,144,212,137,128,373,-411,178,-246,-98,-402
15080,-142,-359,-62,26,4,369,-8,160,43,38,127,-182,301,-88,141,-272,-603,-92,-18,42,-12,-419,105,179,96,78,308,-397,137,-346,-210,-555
15081,-152,-376,-76,21,-14,373,-12,131,42,18,112,-225,278,-100,105,-289,-612,-115,-12,41,-69,-455,126,156,78,33,191,-335,140,-336,-229,-520
15082,-139,-360,-81,24,-13,393,-19,138,55,35,116,-211,289,-85,85,-155,-646,-85,-10,39,-95,-485,142,167,101,37,159,-427,150,-313,-203,-420
15083,-112,-344,-37,41,-4,382,-28,168,63,39,106,-190,301,-78,60,-203,-683,-89,-12,32,-88,-470,120,178,108,63,148,-604,121,-317,-211,-443
15084,-96,-342,-2,66,-1,374,-48,208,77,32,91,-170,311,-79,66,-412,-738,-65,11,56,-75,-465,126,198,118,71,213,-541,134,-288,-165,-434
15085,-124,-344,-16,62,8,364,-48,210,72,30,88,-253,317,-83,60,-554,-747,-44,8,37,-78,-531,121,213,115,39,168,-538,111,-316,-208,-451
15086,-101,-339,-14,77,11,376,-8,237,83,25,118,-297,312,-83,93,-580,-669,-32,17,34,-69,-541,157,233,133,37,129,-517,113,-334,-262,-509
15087,-92,-333,2,84,11,404,8,250,90,35,145,-208,333,-85,119,-491,-583,-33,17,59,-71,-513,143,260,179,65,145,-392,195,-306,-212,-520
15088,-79,-346,27,84,-5,379,-35,253,56,34,120,-96,360,-85,110,-313,-629,-50,38,69,-114,-629,193,275,217,79,150,-217,288,-225,-124,-445
15089,-77,-344,64,87,0,362,-13,263,63,36,133,-73,381,-93,101,-193,-640,-37,60,85,-122,-710,228,284,229,112,157,-142,331,-158,-47,-392
15090,-50,-306,64,96,19,388,23,279,85,50,153,-80,399,-57,129,-227,-674,-29,80,98,-93,-465,179,288,261,145,172,-207,289,-146,-34,-373
15091,-55,-305,38,96,19,395,63,241,86,50,164,-93,379,-45,140,-288,-704,-74,70,95,-101,-388,75,246,212,121,144,-515,120,-248,-127,-429
15092,-62,-291,44,98,18,399,66,243,75,38,178,-99,348,-54,131,-230,-704,-115,47,104,-87,-514,28,204,164,110,162,-666,48,-301,-158,-442
15093,-82,-293,17,86,14,388,39,245,74,39,157,-142,338,-54,144,-123,-616,-109,37,111,-62,-378,56,196,184,124,223,-570,101,-266,-105,-382
15094,-90,-312,9,90,13,378,44,239,81,40,141,-151,358,-49,139,-143,-492,-77,62,126,-56,-385,148,243,213,160,221,-364,230,-183,-19,-355
15095,-88,-334,27,92,17,368,36,229,77,45,152,-149,365,-59,134,-149,-515,-65,78,112,-69,-508,137,265,229,139,210,-282,281,-127,2,-398
15096,-80,-337,26,80,10,357,29,236,72,23,150,-135,362,-54,132,-154,-549,-78,82,116,-57,-538,112,249,221,139,243,-289,270,-134,-23,-406
15097,-77,-318,1,73,13,381,64,226,73,58,179,-147,352,-55,177,-116,-521,-76,78,129,-3,-443,108,243,216,160,299,-438,206,-156,19,-283
15098,-71,-365,23,70,10,391,46,219,57,76,174,-149,331,-69,140,-139,-535,-116,42,87,-29,-365,108,182,168,103,267,-456,122,-253,-113,-417
15099,-59,-351,13,47,7,392,45,220,54,61,186,-129,332,-63,159,-166,-517,-102,40,98,-3,-375,158,220,181,142,304,-360,223,-166,-19,-346
15100,-71,-355,8,64,17,391,74,231,49,72,199,-128,352,-68,157,-212,-497,-73,51,112,18,-431,186,234,202,179,368,-293,290,-106,63,-295
15101,-68,-365,13,73,6,394,65,240,46,73,223,-120,335,-70,165,-449,-469,-67,39,98,13,-342,190,225,188,145,350,-293,276,-148,9,-298
15102,-65,-370,14,47,-2,363,45,231,38,57,210,-102,324,-92,130,-356,-415,-46,0,58,-4,-328,220,213,144,68,283,-229,260,-193,-68,-368
15103,-77,-386,15,52,-19,352,15,233,44,54,175,-105,323,-86,103,-118,-473,-56,8,40,-43,-413,222,230,139,76,287,-249,259,-198,-69,-370
15104,-86,-383,27,68,-18,357,-3,227,33,54,152,-101,317,-79,83,-118,-507,-57,6,31,-12,-447,201,215,110,87,331,-374,188,-252,-117,-349
15105,-91,-405,40,61,-10,335,-26,242,53,34,130,-87,348,-84,95,-192,-555,-16,13,46,0,-469,223,227,132,97,378,-340,228,-224,-103,-416
15106,-50,-381,48,76,-8,362,-10,264,66,64,151,-105,367,-79,124,-155,-475,10,35,91,27,-425,263,246,156,130,439,-375,220,-200,-66,-436
15107,-64,-388,48,79,-21,370,-4,251,81,64,161,-114,353,-83,133,-276,-539,14,31,85,25,-400,252,244,178,123,404,-409,220,-204,-73,-350
15108,-86,-412,43,66,-28,357,-17,261,62,55,151,-101,351,-65,130,-494,-527,7,45,87,-26,-430,235,250,193,138,312,-344,232,-194,-59,-379
15109,-95,-437,60,85,-24,358,-38,278,52,43,150,-71,366,-45,132,-432,-507,0,57,105,-31,-528,211,268,217,152,256,-294,262,-162,-38,-348
15110,-98,-447,41,86,-31,350,-32,260,68,47,126,-82,349,-51,101,-272,-540,-13,42,85,-55,-584,209,249,193,137,209,-371,219,-186,-50,-299
15111,-81,-423,47,76,-19,359,-8,266,80,64,132,-89,357,-40,103,-227,-575,0,76,105,-55,-515,183,253,208,123,230,-373,204,-196,-52,-341
15112,-95,-419,13,47,-20,366,-14,247,59,37,145,-112,343,-67,92,-244,-640,-25,57,119,-35,-448,152,242,202,119,221,-443,155,-245,-108,-436
15113,-73,-394,33,69,-21,365,35,261,63,43,178,-109,335,-61,131,-284,-677,-14,70,121,-12,-443,141,249,195,105,210,-483,139,-323,-206,-575
15114,-53,-358,58,102,-11,399,42,283,77,53,192,-96,351,-48,137,-437,-681,-3,58,119,16,-439,161,270,205,85,200,-361,191,-289,-196,-631
15115,-69,-375,61,106,-1,392,13,282,70,57,171,-101,372,-55,144,-577,-725,6,66,109,0,-508,215,274,199,89,185,-259,248,-255,-154,-566
15116,-67,-368,77,101,-3,396,19,284,67,54,175,-72,394,-62,142,-360,-644,26,84,106,-31,-579,252,295,195,68,75,-206,274,-236,-151,-569
15117,-44,-333,115,115,20,432,46,319,93,66,212,-34,408,-21,152,-173,-526,38,99,112,-87,-604,226,290,200,98,85,-389,205,-243,-96,-469
15118,-40,-348,113,115,22,422,50,307,87,66,204,-53,398,-42,128,-137,-506,8,90,100,-114,-563,202,261,163,93,166,-535,190,-246,-61,-405
15119,-37,-324,114,122,15,400,76,302,75,68,201,-59,407,-72,104,-129,-576,35,88,99,-94,-355,242,265,181,97,206,-515,213,-211,-27,-343
15120,3,-304,140,139,13,411,105,329,95,51,218,14,430,-64,119,-265,-608,75,88,95,-91,-308,263,292,171,100,226,-477,225,-202,-64,-378
15121,29,-289,134,127,26,424,115,328,82,47,245,12,442,-53,166,-451,-518,72,103,111,-40,-333,266,299,199,137,335,-292,304,-145,-23,-347
15122,25,-290,98,107,32,421,86,300,77,50,241,3,406,-65,174,-373,-462,64,103,113,10,-370,303,318,220,181,341,-138,392,-73,50,-325
15123,32,-271,100,123,15,423,119,296,90,64,233,0,412,-62,184,-52,-337,78,131,130,34,-401,346,350,246,222,353,7,484,-31,94,-351
15124,27,-258,134,129,31,421,118,308,100,66,214,-8,412,-47,180,16,-310,49,112,140,39,-323,277,318,244,199,360,-80,413,-39,94,-277
15125,14,-259,144,118,32,402,116,308,74,43,208,-182,363,-73,160,-38,-369,-17,48,93,5,-346,149,262,198,169,382,-397,249,-147,18,-226
15126,25,-246,131,128,27,387,128,294,55,39,196,-218,338,-96,154,-60,-373,-38,35,56,10,-439,139,227,167,172,432,-449,238,-183,-29,-296
15127,53,-246,158,126,31,385,127,289,65,38,177,-133,349,-69,127,-100,-384,-23,44,57,19,-295,167,225,157,161,447,-383,230,-179,-30,-327
15128,38,-276,118,125,15,367,106,278,68,23,166,-21,329,-93,101,-178,-400,-30,30,52,7,-252,210,247,155,130,431,-243,288,-136,-4,-294
15129,32,-269,124,134,25,385,88,286,81,45,181,-20,353,-90,125,-461,-394,9,69,78,27,-389,276,301,200,149,467,-95,373,-80,32,-291
15130,68,-250,152,144,33,401,142,326,71,41,204,-14,370,-71,139,-544,-386,43,117,102,52,-405,306,326,232,174,402,-59,412,-67,71,-290
15131,40,-276,156,126,13,370,126,318,79,36,221,2,363,-72,154,-255,-398,46,101,106,98,-211,255,316,260,206,331,-228,334,-80,48,-263
15132,11,-271,170,121,13,378,119,318,105,42,216,-4,396,-56,163,-151,-380,78,113,120,97,-149,326,354,287,221,284,-238,382,-37,66,-233
15133,26,-269,159,123,0,375,114,325,89,47,213,7,394,-58,151,-359,-390,74,128,134,82,-245,356,356,287,213,306,-239,401,-35,79,-250
15134,42,-263,161,122,1,384,124,341,65,46,224,12,380,-55,150,-363,-480,83,127,155,58,-313,291,367,299,229,334,-268,357,-82,31,-310
15135,25,-275,159,120,5,403,131,350,86,67,223,21,397,-29,160,-158,-442,117,159,165,37,-353,276,419,358,258,351,-283,358,-62,58,-349
15136,21,-251,163,125,-5,426,136,335,72,69,226,32,408,-41,152,-18,-447,116,146,169,34,-381,276,419,360,250,316,-334,310,-87,53,-328
15137,27,-242,140,126,9,423,143,334,84,58,221,8,419,-40,152,-32,-560,124,165,190,10,-395,320,408,369,247,274,-345,330,-62,79,-252
15138,25,-272,141,127,7,429,108,332,93,67,207,-13,423,-34,142,-89,-638,117,158,194,-36,-357,347,432,370,222,222,-392,314,-75,52,-288
15139,41,-258,177,139,10,438,112,341,91,68,197,-1,412,-37,143,-140,-581,88,158,178,-56,-349,298,420,348,212,212,-366,309,-91,20,-364
15140,31,-257,155,111,1,428,135,323,74,59,216,-32,387,-47,164,-313,-470,75,142,185,-26,-373,299,417,346,242,259,-295,359,-48,41,-359
15141,19,-262,150,109,15,429,139,324,78,83,254,-30,391,-29,193,-647,-466,77,138,208,7,-430,273,417,367,248,269,-211,382,-49,74,-421
15142,-20,-286,110,105,0,415,120,304,59,73,238,-41,380,-38,202,-494,-509,58,131,197,18,-513,241,393,343,245,235,-198,359,-65,56,-438
15143,6,-281,115,120,3,418,103,301,71,59,213,-53,363,-42,185,-189,-434,48,120,179,26,-495,228,372,335,249,197,-212,347,-51,51,-336
15144,6,-289,115,112,16,407,57,303,73,71,171,-61,362,-35,151,-148,-353,70,129,166,-13,-679,286,379,330,236,238,-197,357,-52,77,-314
15145,31,-270,145,114,9,396,71,303,76,61,180,-60,364,-48,153,-182,-377,87,129,173,-5,-579,286,369,322,231,336,-320,333,-81,40,-409
15146,20,-244,183,136,30,408,109,327,94,53,204,-25,395,-29,154,-252,-348,126,145,183,-17,-280,332,392,333,251,380,-264,393,-33,78,-388
15147,9,-243,163,129,32,389,87,326,67,37,169,17,372,-42,137,-309,-365,113,131,165,-64,-360,360,398,326,228,318,-141,440,-4,88,-270
15148,7,-258,171,125,22,382,66,326,59,53,140,56,365,-50,127,-334,-372,115,124,154,-56,-442,363,372,306,217,242,-113,447,-18,86,-261
15149,-14,-286,176,121,-9,345,43,327,58,33,119,53,369,-53,121,-427,-328,110,113,141,-32,-361,346,354,291,189,215,-127,424,-30,75,-277
15150,15,-268,191,121,13,366,55,331,82,40,141,21,356,-39,159,-476,-281,93,99,150,14,-299,330,311,262,197,251,-257,322,-102,23,-338
15151,12,-274,186,94,33,373,80,328,78,69,178,21,337,-40,183,-308,-333,67,86,162,70,-288,303,296,269,223,417,-307,285,-93,32,-287
15152,19,-297,187,85,24,375,60,328,64,60,167,29,324,-61,158,-87,-374,74,70,125,12,-332,327,300,243,189,423,-194,300,-113,0,-313
15153,57,-260,198,130,39,378,68,354,77,64,154,48,354,-47,140,-44,-386,82,87,111,-24,-334,376,307,224,177,381,-177,298,-133,-10,-365
15154,37,-282,195,143,21,355,57,325,67,42,131,38,325,-80,124,-284,-386,57,38,63,-32,-326,344,276,186,129,287,-258,248,-155,-37,-260
15155,54,-277,198,144,35,402,64,326,72,42,153,49,321,-77,139,-642,-455,54,43,67,-26,-287,238,274,166,115,293,-341,219,-172,-33,-251
15156,78,-236,246,159,59,409,44,374,73,58,164,101,354,-80,140,-329,-390,77,70,66,-10,-300,248,293,159,105,301,-386,222,-185,-46,-293
15157,91,-232,276,180,54,399,47,393,91,48,157,90,352,-73,120,53,-363,90,74,58,0,-300,284,297,166,94,273,-299,256,-162,-47,-342
15158,75,-267,242,156,32,375,38,371,85,35,140,-32,337,-100,95,31,-475,82,53,29,-48,-314,287,275,137,53,212,-308,236,-194,-82,-321
15159,85,-248,229,157,46,409,83,363,83,47,168,-111,369,-94,108,-49,-450,105,61,39,-62,-345,329,300,153,77,217,-349,243,-200,-107,-315
15160,82,-252,214,157,45,427,106,365,98,62,190,-50,365,-87,105,-165,-436,86,75,52,-34,-411,269,299,129,70,252,-398,216,-209,-104,-301
15161,31,-290,162,120,41,405,50,316,84,48,163,39,346,-79,84,-434,-430,54,75,62,-64,-514,269,291,169,54,220,-370,223,-205,-53,-287
15162,27,-292,138,96,39,393,46,280,45,43,164,50,325,-77,86,-396,-511,42,79,67,-78,-484,273,304,195,78,182,-292,273,-179,-50,-328
15163,38,-277,178,97,37,397,78,306,63,39,169,60,320,-78,78,-223,-539,54,79,41,-104,-364,243,294,194,69,185,-309,256,-217,-142,-439
15164,31,-287,181,111,47,379,33,331,101,31,126,71,340,-77,70,-196,-528,76,96,70,-116,-294,273,321,212,91,216,-274,287,-172,-80,-397
15165,-6,-312,184,89,21,349,-1,345,79,12,113,63,348,-76,59,-303,-427,79,114,95,-124,-319,299,339,246,118,219,-239,345,-104,-7,-320
15166,-24,-335,173,75,11,338,-3,314,79,16,112,68,345,-59,60,-330,-347,107,136,116,-102,-347,345,377,291,176,237,-124,429,-17,102,-245
15167,-25,-341,147,69,15,332,-5,307,83,24,101,73,369,-41,90,-240,-368,123,159,138,-57,-392,377,401,343,235,294,-39,490,53,182,-125
15168,-19,-324,151,56,-1,338,16,318,78,22,94,47,381,-37,99,-205,-429,126,162,145,-37,-445,395,396,334,213,291,-25,461,19,132,-194
15169,9,-312,190,71,16,332,32,340,76,16,89,26,367,-63,88,-228,-379,98,143,132,-55,-421,343,357,288,158,217,-310,289,-166,-81,-488
15170,8,-279,209,90,16,313,35,359,83,23,88,40,363,-63,102,-255,-296,102,142,129,-35,-430,324,344,292,144,211,-412,293,-179,-103,-482
15171,-6,-323,177,77,25,319,9,309,90,13,56,56,367,-41,107,-317,-326,106,153,142,-1,-421,344,381,316,190,301,-230,382,-66,-18,-424
15172,-29,-326,98,69,20,315,9,266,81,18,82,-28,351,-32,134,-449,-445,93,166,151,14,-398,374,394,335,244,382,-53,466,24,69,-368
15173,-50,-332,86,64,8,313,19,271,68,12,84,-23,352,-72,116,-510,-412,88,141,124,-25,-377,385,394,323,237,331,-60,478,17,94,-320
15174,-39,-307,111,69,42,328,37,291,54,6,110,-13,362,-83,114,-534,-343,90,132,119,-68,-317,376,381,296,219,293,-160,415,-3,86,-278
15175,12,-267,178,108,57,346,68,320,72,15,126,1,355,-95,113,-471,-284,63,104,97,-60,-276,314,332,261,188,277,-371,287,-77,67,-284
15176,20,-250,155,103,54,346,80,322,74,6,122,0,345,-96,96,-238,-303,55,97,96,-44,-320,315,318,259,190,277,-367,309,-68,60,-274
15177,34,-249,148,123,67,360,72,327,104,31,119,4,346,-77,121,-79,-395,55,119,94,-18,-272,322,346,274,207,309,-255,334,-54,66,-272
15178,35,-253,136,113,46,355,72,288,85,18,118,-31,340,-87,118,-70,-491,27,102,77,-13,-277,265,319,250,189,339,-256,352,-34,92,-267
15179,27,-259,132,86,35,358,75,281,62,3,131,-18,335,-105,109,-283,-456,28,92,71,-2,-367,271,319,223,193,356,-129,411,-7,96,-277
15180,25,-231,146,122,32,395,121,324,68,45,199,7,359,-92,145,-342,-470,77,111,80,36,-314,316,349,265,226,343,-30,486,40,146,-239
15181,61,-216,142,118,45,408,158,317,80,49,225,-34,336,-91,139,-18,-464,50,101,87,59,-271,316,357,272,228,362,-80,445,41,167,-158
15182,57,-218,158,133,60,416,143,287,70,55,213,-41,331,-107,115,104,-381,31,63,62,39,-389,275,329,217,222,412,-327,315,-4,164,-65
15183,56,-209,212,138,72,450,141,317,80,68,234,-11,365,-110,143,10,-397,23,58,70,54,-504,263,302,215,193,491,-354,283,-31,130,-75
15184,69,-209,219,136,62,465,170,337,77,49,232,-4,373,-116,128,-54,-426,54,82,52,40,-263,298,304,193,180,480,-177,323,-55,88,-172
15185,64,-208,207,121,60,442,159,334,74,45,224,15,371,-102,121,-117,-388,68,94,40,24,-78,314,304,186,170,469,-174,302,-86,76,-187
15186,82,-211,240,128,54,438,131,339,80,35,210,21,370,-102,124,-264,-413,61,84,68,14,-235,311,312,177,152,491,-280,261,-121,45,-180
15187,95,-204,214,120,42,444,169,337,61,38,225,24,360,-109,147,-403,-366,63,81,63,52,-296,319,290,169,159,489,-230,278,-108,43,-154
