,Fp1,Fp2,F7,F3,Fz,F4,F8,FC5,FC1,FC2,FC6,T7,C3,Cz,C4,T8,TP9,CP5,CP1,CP2,CP6,TP10,P7,P3,Pz,P4,P8,PO9,O1,Oz,O2,PO10
106797,79,143,270,4,-34,282,131,384,248,-61,278,721,258,104,65,-167,679,147,-272,167,144,415,353,30,74,370,255,89,250,313,179,380
106798,52,63,260,4,-13,282,184,316,240,-49,278,674,230,101,69,-163,575,97,-272,150,159,439,222,-5,71,388,279,69,228,327,126,125
106799,-1,119,223,18,2,233,240,330,245,-60,243,699,228,103,96,-128,607,100,-257,157,173,456,213,-18,63,407,366,78,222,312,115,28
106800,39,232,266,53,-6,227,300,356,278,-45,266,760,253,111,63,-149,637,122,-266,134,89,378,234,-6,54,327,143,82,210,275,106,334
106801,107,251,302,86,2,232,330,384,282,-50,308,783,279,95,75,-117,656,136,-260,121,86,305,255,5,47,318,123,163,217,251,100,280
106802,107,242,312,84,18,269,393,370,288,-44,378,807,274,94,111,10,663,158,-255,138,152,316,284,11,39,336,217,174,232,256,83,224
106803,91,224,305,79,19,307,443,348,291,-45,331,826,280,106,109,12,641,149,-223,152,188,411,255,3,54,346,281,180,217,285,138,310
106804,113,264,352,64,-8,254,420,352,294,-57,276,850,295,106,96,-75,670,183,-209,158,157,452,271,12,68,355,257,202,254,304,169,263
106805,110,231,373,76,-14,257,360,361,293,-61,262,879,299,102,94,-123,647,184,-212,159,171,488,245,20,89,398,318,52,238,310,161,217
106806,117,238,335,52,-26,269,347,338,292,-68,298,915,293,98,80,-84,545,189,-219,157,177,419,289,27,74,383,267,2,224,293,116,259
106807,117,254,350,37,-6,291,360,345,282,-70,318,984,292,100,83,-50,621,219,-213,135,163,280,389,60,86,366,243,-42,259,299,100,226
106808,96,257,316,49,-10,324,342,361,293,-43,337,944,303,112,104,-3,681,236,-221,158,178,287,450,72,106,411,348,-75,267,290,138,115
106809,100,237,278,66,0,300,355,330,292,-32,350,817,310,130,124,-14,713,240,-186,188,188,373,499,101,117,434,361,105,310,342,186,158
106810,96,205,202,64,-5,281,411,336,282,-29,306,762,285,127,106,-78,682,230,-182,177,162,393,508,99,131,407,233,151,347,404,249,377
106811,118,164,250,69,-5,371,349,339,283,-33,329,730,261,129,90,-79,644,201,-195,167,157,421,432,79,133,392,172,134,330,419,263,445
106812,127,116,340,53,-25,318,307,362,283,-47,337,749,265,132,107,-59,671,200,-199,165,181,446,390,93,128,420,246,178,365,436,278,451
106813,107,118,339,53,-14,241,270,384,283,-77,276,788,284,102,84,-92,686,220,-186,161,176,430,398,82,117,407,242,199,354,408,236,402
106814,85,101,321,53,-20,253,227,403,292,-63,238,787,287,105,70,-129,691,210,-191,158,149,443,364,85,112,406,245,159,316,387,222,378
106815,110,169,369,61,-22,268,242,475,289,-59,271,837,290,112,61,-154,679,192,-212,138,133,428,347,60,94,382,257,194,318,371,177,358
106816,149,253,438,66,-1,295,264,481,299,-41,311,707,284,101,74,-143,707,168,-222,136,149,435,345,11,71,395,266,134,289,342,165,327
106817,151,278,422,87,17,300,253,501,297,-57,322,815,266,93,78,-146,598,157,-236,124,143,425,302,-14,62,392,241,57,258,334,169,317
106818,144,285,403,87,16,240,237,416,283,-86,281,922,252,77,34,-225,534,151,-263,124,118,402,306,-5,61,369,232,48,250,336,142,310
106819,150,253,424,70,16,314,249,341,276,-35,291,1038,247,66,77,-201,741,205,-248,146,143,451,426,30,73,398,278,122,308,365,179,390
106820,171,264,462,81,31,366,278,378,274,-5,347,962,249,86,133,-48,775,213,-229,146,217,484,441,41,87,445,340,109,311,392,242,455
106821,175,274,476,98,25,343,326,358,267,-28,317,850,249,89,137,-46,810,192,-224,145,226,403,463,25,83,440,347,132,302,380,229,402
106822,180,266,491,123,33,341,398,365,282,-2,322,818,246,107,160,-57,757,193,-207,191,227,499,428,25,122,457,353,75,288,383,214,397
106823,136,237,430,79,30,313,378,366,269,-20,348,781,253,104,169,-58,728,176,-216,203,262,514,386,36,135,473,369,99,299,377,198,363
106824,144,263,402,72,36,303,419,359,277,-18,346,818,266,121,175,-41,747,175,-211,202,284,537,381,52,130,493,426,88,291,371,179,188
106825,140,277,335,80,26,278,431,380,265,-28,326,816,262,97,145,-42,721,170,-231,179,249,409,381,26,109,476,418,108,296,349,177,267
106826,144,244,324,75,18,305,398,369,253,-35,335,836,253,91,147,-23,712,198,-202,189,227,312,377,43,109,442,317,204,314,337,202,368
106827,199,244,351,27,32,319,367,365,269,-7,398,814,275,114,190,33,762,181,-197,208,276,457,392,40,125,455,354,153,297,356,207,371
106828,165,265,368,85,9,316,331,389,280,-38,338,807,303,131,179,13,767,191,-176,203,257,470,427,69,127,489,402,147,323,414,225,398
106829,130,234,335,121,6,334,292,407,282,-35,281,811,301,125,147,-81,735,223,-164,179,228,489,445,95,124,471,360,149,341,430,281,466
106830,128,289,355,145,31,364,363,437,297,-36,363,848,300,115,157,-39,817,245,-167,209,248,466,481,101,135,479,401,96,329,393,234,371
106831,123,304,358,91,0,326,398,460,290,-56,348,848,285,108,165,58,767,230,-195,191,256,402,494,70,112,463,373,-24,303,336,195,314
106832,113,284,304,74,-21,292,416,473,267,-62,333,817,281,89,150,-1,658,223,-211,168,222,398,486,67,93,421,301,-14,283,308,156,364
106833,101,294,330,99,-15,256,421,444,275,-51,345,835,298,94,139,-139,658,227,-212,156,192,440,497,49,66,416,237,-54,243,287,111,376
106834,128,262,391,104,-2,269,390,372,293,-36,311,887,302,113,121,-69,726,252,-215,162,200,459,540,49,78,411,244,-140,258,275,124,357
106835,115,227,434,73,6,256,395,348,293,-33,314,919,265,97,120,40,639,224,-234,155,201,363,504,44,62,415,265,-179,243,260,114,288
106836,123,251,434,76,17,280,399,357,290,-25,322,878,252,82,133,21,588,221,-256,139,219,338,455,30,40,420,304,-137,198,257,85,162
106837,127,258,398,73,25,291,406,329,286,-15,349,742,223,91,155,98,569,160,-272,158,244,340,365,1,35,433,370,-107,192,285,112,278
106838,136,217,416,61,37,308,396,338,291,-20,363,757,222,76,138,47,625,165,-273,146,240,471,385,18,27,440,335,10,229,335,173,427
106839,134,213,439,64,49,326,389,357,288,-10,372,808,242,78,137,0,660,181,-261,145,259,642,383,45,60,461,372,144,278,372,197,537
106840,136,232,429,78,36,348,350,368,280,-3,362,838,242,91,150,38,670,165,-250,154,246,596,336,26,51,439,365,139,267,336,176,459
106841,112,240,397,67,2,347,316,405,275,-24,337,883,206,66,113,-1,621,159,-304,133,198,555,278,-10,10,409,361,79,206,264,120,340
106842,124,199,409,87,15,431,339,426,277,12,387,954,223,75,143,47,620,178,-291,167,256,521,332,4,40,443,441,101,249,307,159,272
106843,135,222,424,75,22,436,392,469,267,16,495,1027,270,91,163,73,664,227,-255,182,266,523,390,30,71,451,397,175,282,336,174,363
106844,102,217,410,51,8,458,352,337,249,21,539,922,236,89,198,54,655,228,-265,192,262,618,445,58,73,469,383,180,327,349,186,467
106845,126,241,432,60,6,429,343,279,247,30,405,814,209,85,174,32,740,195,-247,203,254,651,433,65,94,492,389,55,320,383,236,513
106846,124,226,413,48,15,384,331,309,238,14,392,827,216,99,159,83,815,199,-255,197,236,615,431,57,92,496,364,112,309,370,237,444
106847,92,141,285,28,8,345,235,319,237,-8,374,841,222,124,163,12,801,181,-253,203,226,575,380,39,106,511,360,203,309,414,247,321
106848,83,128,277,17,-16,293,263,340,241,-31,280,875,227,102,162,5,727,170,-244,206,249,592,376,23,101,530,455,127,306,424,251,355
106849,84,175,361,57,-5,253,388,401,264,-33,323,931,253,104,163,43,807,205,-214,204,253,540,398,32,92,515,398,-67,282,406,224,483
106850,80,214,326,78,-3,274,465,451,283,-15,356,948,286,124,167,88,895,252,-211,203,266,502,498,65,99,503,393,-47,288,389,239,492
106851,126,198,330,91,15,343,466,430,280,-17,362,931,298,106,189,97,887,270,-214,212,286,592,559,75,103,524,431,-3,332,420,266,515
106852,195,206,350,55,14,412,459,381,259,-25,390,902,257,96,182,61,726,222,-218,206,255,675,493,42,82,539,404,109,301,420,239,481
106853,182,311,323,53,9,333,479,341,254,-48,375,817,240,84,176,64,618,162,-241,204,254,637,365,8,79,502,405,108,264,402,257,465
106854,145,357,258,25,0,287,518,285,249,-53,371,630,208,83,168,54,607,82,-267,190,246,619,254,-10,61,499,420,118,225,393,266,461
106855,133,329,278,22,-1,311,454,260,251,-51,403,594,207,92,174,124,673,82,-261,204,290,502,208,-12,63,506,490,193,227,368,209,-12
106856,175,334,342,34,19,354,447,322,267,-27,428,769,213,88,204,199,652,99,-270,207,375,557,190,-8,44,558,734,137,201,341,194,-142
106857,204,397,332,52,22,362,465,319,280,-25,393,741,201,67,188,142,604,99,-279,182,304,586,231,-2,34,516,527,182,231,375,201,512
106858,138,327,277,52,26,379,413,301,247,-21,396,727,206,82,165,64,550,101,-276,153,244,538,257,5,28,440,298,179,248,357,179,606
106859,80,191,189,0,0,389,373,262,233,-28,368,759,227,83,153,-29,509,115,-278,155,212,559,287,29,24,426,242,186,261,348,201,486
106860,96,236,217,-6,0,309,359,286,247,-41,336,803,233,74,134,-77,622,156,-277,154,205,539,332,29,50,435,280,176,255,347,179,436
106861,152,280,284,-33,10,359,404,292,244,-28,362,756,214,82,147,-20,692,112,-289,174,225,515,284,4,33,421,294,105,226,310,143,450
106862,131,280,340,9,14,311,420,299,234,-43,324,758,223,79,121,-12,648,107,-281,155,210,531,271,-24,11,417,321,85,234,311,134,475
106863,140,258,400,29,31,367,452,322,249,-26,328,779,229,100,141,43,630,142,-268,173,237,495,289,-19,47,435,334,78,243,301,137,456
106864,152,261,374,31,10,365,464,316,237,-31,355,800,224,81,151,35,624,163,-268,174,241,455,288,7,17,422,332,49,213,276,115,369
106865,142,271,405,38,4,322,414,341,241,-45,349,936,269,98,148,45,684,208,-249,176,249,528,331,37,45,457,361,85,249,327,169,431
106866,149,238,408,37,0,305,340,357,244,-47,331,930,264,86,143,56,758,202,-243,184,280,615,355,58,84,471,380,192,288,377,217,535
106867,174,216,362,47,12,322,381,393,248,-37,343,914,264,91,161,51,698,198,-231,184,257,638,349,69,58,485,400,195,293,397,226,524
106868,128,155,307,56,-3,384,279,462,262,-7,422,977,266,101,173,23,682,217,-249,179,262,585,333,51,49,454,379,172,284,364,190,450
106869,101,104,295,82,-8,461,211,461,269,-1,457,907,261,107,167,35,774,215,-234,173,269,581,407,83,70,457,373,261,314,389,216,455
106870,77,153,292,82,0,448,312,404,247,-10,518,752,229,82,183,38,780,185,-254,175,237,537,438,61,45,447,357,182,301,334,178,395
106871,73,278,268,38,-7,481,342,375,252,13,615,717,228,98,193,95,768,188,-282,173,290,572,428,51,72,459,460,100,304,345,189,375
106872,129,386,341,81,2,466,364,359,269,-12,444,740,237,94,167,30,836,208,-259,183,303,593,437,67,83,478,540,118,321,387,227,364
106873,201,382,405,106,23,389,386,346,272,-34,367,857,256,79,157,87,824,203,-259,163,258,498,445,52,51,465,496,54,291,335,166,256
106874,212,350,449,82,5,322,389,288,268,-53,381,964,260,64,137,125,858,226,-286,133,217,429,460,51,21,406,384,27,251,285,120,320
106875,235,291,436,93,5,282,450,384,291,-56,333,985,275,96,124,119,854,241,-271,143,203,326,475,51,7,397,285,59,260,315,149,411
106876,271,317,383,76,7,265,461,358,287,-48,344,916,261,111,133,141,845,224,-262,155,240,374,480,59,8,429,340,5,270,328,167,307
106877,220,310,335,57,6,317,444,343,279,-26,356,880,268,104,134,95,847,229,-257,164,261,504,497,75,32,454,454,8,281,343,211,339
106878,190,331,355,44,14,324,424,352,268,-16,352,895,262,109,123,40,843,243,-249,176,240,609,505,89,65,448,442,129,300,410,250,487
106879,196,323,370,42,8,267,437,354,258,-18,365,855,254,119,149,95,860,243,-240,199,253,651,493,92,91,463,415,180,323,424,263,559
106880,133,299,357,25,8,331,450,322,250,-15,362,753,239,114,170,96,949,251,-229,209,255,641,561,104,93,481,386,317,378,460,291,588
106881,114,357,403,57,18,355,423,378,270,-6,397,806,251,125,167,168,914,275,-218,223,260,624,538,132,110,497,366,343,413,497,338,620
106882,169,317,367,51,-3,369,432,388,262,-3,483,909,261,81,180,170,797,271,-229,203,252,512,484,111,102,476,358,246,389,458,283,517
106883,183,239,346,68,3,397,397,392,249,9,462,874,274,120,195,176,866,304,-216,224,277,436,549,142,131,488,403,234,404,452,297,453
106884,199,144,347,52,-6,431,339,406,270,17,463,942,289,166,214,183,873,355,-175,255,341,381,630,178,151,537,559,-102,390,500,334,220
106885,162,116,336,18,-24,459,348,380,253,2,444,936,306,145,238,229,818,353,-170,253,395,427,723,180,156,584,772,-164,367,446,291,-34
106886,78,24,325,-20,-47,491,283,333,240,11,493,844,261,138,237,202,759,300,-204,252,360,359,643,133,120,568,716,-82,349,415,240,204
106887,81,39,307,8,-37,503,238,322,242,13,554,779,233,144,195,69,666,225,-228,234,261,492,450,62,87,501,524,1,280,419,246,508
106888,82,64,191,-3,-7,464,354,339,261,2,531,775,257,143,156,-58,671,208,-211,209,231,619,400,45,68,488,458,127,281,406,256,307
106889,85,260,202,-12,1,387,444,372,261,12,490,798,248,133,154,-31,652,220,-225,186,217,512,374,54,47,471,356,85,265,410,248,581
106890,47,349,275,43,16,384,383,436,264,5,383,879,288,120,98,-33,748,259,-223,164,135,372,423,72,46,407,137,-17,245,355,195,646
106891,55,252,290,113,3,345,287,467,295,-16,309,963,312,126,89,-6,763,293,-198,179,148,464,478,77,84,411,145,85,297,382,234,603
106892,76,227,265,102,-15,399,216,472,293,-2,370,956,321,118,94,-100,695,278,-214,180,127,449,444,50,65,404,125,152,290,382,221,540
106893,52,120,236,95,-19,475,256,476,276,-6,454,889,297,95,116,-48,682,247,-240,167,149,482,488,59,44,380,202,-25,282,357,219,481
106894,33,94,243,102,-4,299,343,465,272,-18,420,851,290,96,118,40,768,301,-217,180,205,467,597,88,58,433,358,-173,291,342,207,219
106895,1,56,204,72,-23,416,396,379,232,-12,389,764,261,97,135,94,662,241,-234,211,280,456,542,47,61,490,612,-196,242,321,181,185
106896,-1,-64,230,59,-22,506,247,336,240,-13,400,797,242,93,149,19,542,193,-245,209,244,428,384,8,62,482,542,-151,221,375,236,482
106897,64,-51,287,53,-12,530,82,310,249,19,460,786,218,118,143,-75,566,177,-240,202,158,342,310,1,61,449,246,99,273,432,291,546
106898,109,87,234,39,-15,439,218,286,263,5,424,738,182,117,163,111,528,106,-259,225,232,375,211,17,64,488,317,161,277,449,321,359
106899,117,294,125,14,-29,385,380,299,248,22,536,765,201,123,201,139,591,104,-249,240,256,448,182,39,103,522,373,342,335,501,331,401
106900,116,426,117,79,-46,314,350,397,273,11,449,937,284,139,177,43,623,196,-195,250,207,484,253,88,143,533,343,438,416,564,387,541
106901,-10,429,129,115,-46,230,366,480,302,-14,298,984,309,126,133,-30,672,228,-188,229,168,517,276,82,132,508,217,276,381,529,354,744
106902,-308,384,161,76,-25,247,321,577,298,-18,347,893,304,116,131,-115,828,258,-192,209,143,417,423,113,122,472,164,271,440,495,325,567
106903,-289,280,354,141,-25,220,392,488,293,-46,285,894,311,124,127,-70,769,272,-184,236,145,407,532,132,135,505,255,238,488,553,396,395
106904,10,283,388,145,-12,241,438,352,283,-23,296,812,275,137,168,43,594,224,-194,235,208,474,470,106,136,543,407,181,422,534,392,296
106905,218,352,424,49,-11,253,358,212,238,-15,403,720,199,121,162,-8,618,161,-236,215,216,403,392,68,107,529,320,244,413,520,372,466
106906,298,380,515,-12,-15,296,125,183,234,7,503,699,199,118,198,-40,684,129,-246,229,201,361,332,39,102,511,205,419,405,526,361,660
106907,259,105,463,-59,-18,477,163,150,228,35,551,694,171,91,213,-106,653,73,-290,223,199,375,246,12,82,499,277,431,395,528,319,619
106908,157,-108,366,-28,-23,448,215,234,220,27,466,670,167,76,155,-96,509,39,-297,189,173,251,103,-32,46,470,244,213,308,474,308,534
106909,113,-1,339,33,4,408,359,318,240,10,407,736,210,103,133,18,616,109,-280,198,169,294,206,-2,56,447,225,324,345,475,326,521
106910,69,-77,355,89,4,359,369,321,255,-44,352,753,201,86,97,-46,650,92,-311,145,138,448,223,-5,24,427,288,306,304,412,247,481
106911,59,29,388,102,-4,326,413,349,275,-57,259,785,209,78,86,-75,597,108,-300,132,126,494,179,-27,3,432,311,185,267,394,230,466
106912,9,104,328,128,-1,232,421,351,280,-58,241,731,209,82,81,-88,453,89,-287,142,157,475,154,-55,-9,437,413,34,217,358,206,51
106913,-184,208,111,116,12,358,327,435,287,-51,238,723,241,78,90,-14,514,87,-295,133,161,420,155,-35,-15,415,407,15,204,299,142,161
106914,-440,257,38,189,-11,301,305,495,310,-62,242,848,286,53,49,-63,703,177,-276,84,70,362,307,9,-45,337,146,164,272,340,181,410
106915,-157,347,304,224,14,195,431,462,309,-71,294,866,284,46,34,-87,693,186,-289,83,57,374,327,-12,-46,334,169,34,200,265,132,346
106916,143,446,383,125,14,189,439,327,287,-78,305,804,251,44,48,-5,707,173,-301,81,107,384,346,6,-30,338,189,221,255,276,140,415
106917,220,458,406,30,8,284,387,196,262,-40,327,748,244,77,90,13,687,183,-273,117,144,427,393,50,-4,391,186,63,272,324,156,467
106918,260,304,425,-27,-8,340,381,121,254,-24,351,778,226,78,103,-38,661,201,-263,145,128,521,463,62,8,387,165,-107,226,329,177,517
106919,263,313,426,-50,-2,278,408,170,256,-42,300,837,248,84,95,-39,688,250,-235,136,113,469,590,92,44,391,151,-23,275,331,186,501
106920,268,413,408,-68,-6,214,466,165,243,-47,292,715,244,99,87,-55,715,242,-228,144,121,469,606,88,43,399,165,51,322,327,198,451
106921,213,402,352,-59,-4,224,451,205,247,-33,297,764,250,101,99,-70,654,232,-223,156,121,506,547,47,56,400,195,-135,283,333,180,448
106922,164,401,257,-22,-13,192,406,286,260,-46,250,775,269,93,87,-101,518,192,-227,154,117,508,421,25,41,425,233,-237,208,351,182,516
106923,173,410,275,-9,-19,211,404,311,258,-52,243,659,255,92,98,-120,524,128,-244,156,135,514,294,-2,23,415,245,-289,146,301,164,471
106924,164,396,341,-22,-33,252,419,351,252,-52,257,687,249,110,109,-42,562,125,-235,153,156,521,312,0,33,410,318,-128,179,277,149,334
106925,135,337,325,-64,-40,314,370,207,225,-25,338,675,212,100,112,-10,515,80,-290,137,154,514,180,-50,14,408,283,-83,155,257,121,392
106926,83,223,286,-37,-32,412,356,160,213,-19,388,706,192,63,131,1,528,66,-314,129,137,349,121,-79,4,390,181,8,120,237,77,438
106927,8,182,274,-45,-20,431,386,231,234,-10,371,703,220,67,144,14,627,99,-270,167,170,224,209,-49,40,395,224,174,184,281,120,365
106928,104,235,293,-55,-8,395,423,287,248,-14,368,712,232,80,162,29,647,126,-277,180,209,421,217,-40,29,429,394,164,169,268,107,333
106929,154,304,294,30,-5,295,456,327,233,-41,334,721,229,86,149,21,603,119,-280,172,224,434,181,-40,25,439,440,160,148,258,86,279
106930,185,383,273,43,15,279,507,356,253,-34,351,687,264,84,175,33,678,134,-258,189,243,524,254,-10,39,469,539,136,171,264,101,208
106931,210,371,277,53,8,302,519,365,246,-37,393,724,280,86,164,90,697,152,-261,196,284,609,278,20,47,492,532,73,228,331,170,459
106932,206,285,313,44,9,344,452,295,251,-48,390,794,272,82,155,110,683,190,-241,189,282,592,328,46,57,496,416,159,258,366,202,615
106933,208,245,368,33,3,428,396,276,257,-27,384,828,285,59,158,22,689,225,-224,179,254,619,396,74,66,489,398,179,286,382,190,535
106934,165,261,343,34,1,502,413,268,262,0,464,847,296,89,192,68,748,252,-208,209,284,695,430,84,114,516,398,236,348,430,239,565
106935,151,323,344,31,20,465,438,262,254,23,552,828,287,116,217,165,781,250,-220,234,311,651,464,94,116,537,465,247,353,463,311,540
106936,187,296,367,55,26,488,526,312,253,25,552,889,296,121,244,145,756,260,-195,245,334,631,459,125,114,556,514,207,330,451,293,507
106937,194,346,415,55,24,417,579,323,271,16,498,943,316,120,233,147,822,298,-176,263,338,727,492,154,143,575,511,258,351,439,297,579
106938,214,375,409,57,20,383,567,320,280,9,473,861,294,119,208,161,885,295,-183,252,330,716,510,148,121,571,481,314,386,438,268,592
106939,218,374,379,46,-7,372,601,283,248,-24,413,871,279,111,209,183,805,257,-194,220,315,615,425,118,109,539,500,228,335,404,212,541
106940,160,395,377,58,-24,319,529,291,263,-35,418,960,284,102,218,202,706,243,-201,224,339,654,408,116,114,553,556,189,328,397,242,525
106941,101,394,359,63,-12,315,534,337,268,-40,426,1039,318,133,239,257,766,311,-203,255,359,655,471,163,129,575,577,245,370,435,246,537
106942,157,424,345,63,-9,296,516,357,260,-43,418,1007,330,121,220,198,815,332,-188,236,339,667,487,164,124,568,529,234,373,436,246,495
106943,142,404,375,58,-15,286,517,361,278,-34,429,917,354,126,223,193,837,319,-165,248,308,608,514,169,148,551,414,268,394,443,266,562
106944,88,389,341,61,-30,276,517,380,276,-29,395,831,358,131,187,173,933,316,-164,242,276,543,566,164,155,530,355,268,404,451,283,600
106945,90,419,317,87,-31,235,522,421,288,-57,373,867,369,145,178,156,965,377,-145,245,281,579,674,196,130,538,379,143,422,464,279,633
106946,106,375,373,106,0,308,507,410,294,-28,415,909,394,130,194,139,870,384,-143,237,318,692,701,187,119,534,496,52,402,457,264,581
