,Fp1,Fp2,F7,F3,Fz,F4,F8,FC5,FC1,FC2,FC6,T7,C3,Cz,C4,T8,TP9,CP5,CP1,CP2,CP6,TP10,P7,P3,Pz,P4,P8,PO9,O1,Oz,O2,PO10
84109,240,225,329,-11,-3,264,-22,33,183,98,-60,218,356,-71,217,-9,167,97,104,-57,-19,142,96,216,197,189,453,-211,141,193,-9,-24
84110,238,252,337,9,6,270,-11,46,199,104,-43,243,361,-54,216,-2,155,116,106,-41,-19,137,133,204,193,189,432,-161,140,176,-49,-43
84111,235,238,341,-1,5,270,-12,28,211,105,-43,253,354,-69,203,16,127,96,104,-34,-16,139,152,216,182,176,428,-153,142,155,-37,-40
84112,194,199,314,-24,-24,249,-46,5,187,99,-69,235,336,-80,192,-18,117,82,106,-47,-42,112,169,214,159,182,423,-39,228,259,12,-10
84113,203,191,326,-14,-7,256,-38,23,172,86,-73,234,345,-61,193,-36,136,100,107,-45,-26,111,193,243,176,195,448,30,281,317,77,107
84114,204,207,323,-26,-6,250,-44,13,174,96,-72,217,347,-76,199,-31,121,60,101,-49,-21,107,157,234,179,216,472,-89,245,296,98,189
84115,200,217,296,-19,-18,260,-54,-11,186,110,-74,198,336,-69,231,-11,108,52,100,-38,-11,113,149,232,210,272,515,-123,259,368,186,335
84116,236,212,315,-23,-5,259,-46,-26,174,116,-67,218,347,-58,251,-8,136,56,108,-23,16,99,176,235,221,273,520,-105,243,372,157,359
84117,273,236,334,-5,0,281,-14,-11,174,105,-33,217,333,-73,240,8,149,59,108,-18,22,142,173,206,206,265,533,-125,204,320,146,372
84118,265,248,335,-6,11,281,-24,-2,191,97,-45,226,340,-73,225,24,161,85,117,-13,18,153,194,241,210,276,517,-18,283,373,137,312
84119,279,262,344,4,25,274,5,19,218,109,-25,242,365,-60,216,4,181,99,123,-14,-14,130,219,246,208,233,418,81,271,300,12,-24
84120,242,236,269,-3,7,267,0,-22,182,95,-53,211,322,-82,202,-29,119,61,89,-22,-12,104,187,223,193,225,394,76,278,305,51,-61
84121,234,246,273,-39,-14,272,17,-42,161,81,-39,183,286,-95,209,-19,82,38,69,-38,-8,99,113,182,171,201,398,-91,192,232,-20,-46
84122,240,277,305,-27,1,277,26,-14,157,89,-29,178,274,-82,209,-24,93,-23,39,-62,-37,97,46,120,114,161,375,-330,8,83,-113,-76
84123,247,267,290,-33,17,277,18,-43,135,88,-47,177,263,-103,208,-36,99,-43,33,-63,-68,76,51,113,99,153,354,-340,-18,63,-127,-81
84124,232,254,281,-38,10,292,-3,-54,141,89,-55,160,263,-104,201,-31,73,-19,33,-61,-59,77,69,118,117,175,354,-255,80,115,-82,-34
84125,244,273,290,-30,55,317,12,-40,180,97,-25,160,266,-102,219,-38,69,-13,36,-65,-57,72,95,114,111,161,343,-197,109,125,-114,-81
84126,226,250,262,-30,30,303,-9,-71,171,106,-17,136,251,-101,216,-35,46,-34,24,-56,-39,52,75,111,88,170,396,-188,139,183,-43,69
84127,220,261,277,-21,15,282,9,-78,169,103,-22,135,240,-102,218,-27,30,-42,20,-72,-23,22,59,121,104,190,429,-185,140,240,70,249
84128,211,231,291,-23,16,280,-6,-61,157,86,-51,141,230,-129,227,-14,6,-23,19,-73,-24,30,63,134,115,209,451,-124,195,311,143,369
84129,221,236,307,-13,15,294,-16,-24,169,98,-44,148,248,-114,239,-22,54,-10,29,-60,-16,30,81,131,113,218,435,-95,190,313,107,285
84130,231,240,332,12,31,303,9,-6,163,97,-34,169,253,-119,236,-33,67,-16,21,-62,-41,21,53,104,85,146,345,-102,96,186,-10,-4
84131,231,244,307,-7,23,314,4,-44,150,84,-35,152,228,-162,205,-64,20,-48,-42,-123,-113,-18,22,35,3,71,217,-192,13,43,-244,-338
84132,254,274,335,11,53,313,-26,-3,172,109,-22,169,215,-145,201,-61,67,-37,-54,-128,-118,7,17,15,-14,50,199,-276,-65,-53,-357,-404
84133,258,278,336,11,50,310,-20,-1,175,104,-36,160,224,-144,212,-38,54,-64,-49,-133,-101,29,-2,11,0,52,241,-339,-86,-34,-274,-220
84134,245,261,343,12,48,313,-1,14,177,98,-25,203,236,-138,212,-36,55,-24,-36,-108,-81,5,21,24,33,87,276,-296,-28,31,-197,-83
84135,240,258,358,14,52,311,0,25,162,118,-21,200,216,-134,216,-35,71,-11,-43,-123,-73,-1,27,28,24,72,253,-242,-31,20,-220,-119
84136,252,290,362,8,27,304,2,10,158,110,-24,184,226,-139,197,-47,85,1,-33,-130,-103,-21,27,34,5,45,215,-183,-10,-2,-277,-319
84137,253,304,348,-2,40,301,39,21,159,107,-12,209,239,-118,218,-17,80,-2,-20,-88,-79,12,17,47,23,61,254,-252,-2,35,-231,-221
84138,210,268,312,-34,26,296,35,5,129,84,-34,215,220,-126,216,-9,48,0,-14,-110,-85,18,11,48,29,68,250,-329,-14,33,-215,-195
84139,228,287,331,-23,4,290,20,15,135,83,-32,254,236,-131,225,-2,71,23,3,-110,-76,6,62,92,57,85,292,-218,68,109,-149,-116
84140,241,282,354,-14,24,295,34,46,154,101,-1,278,274,-118,216,18,99,33,19,-95,-59,57,74,111,80,97,315,-191,90,131,-125,-75
84141,224,256,380,-10,3,304,45,40,148,118,-10,274,259,-114,208,39,120,49,-9,-87,-41,84,86,93,67,115,358,-234,29,93,-145,69
84142,210,266,335,-31,-14,297,46,27,130,106,-12,237,233,-132,209,24,109,18,-21,-105,-34,70,55,81,42,97,353,-302,-5,72,-138,125
84143,202,268,321,-36,13,314,43,23,127,108,-5,245,249,-108,213,16,132,30,-5,-106,-51,64,76,103,59,104,351,-268,45,113,-83,107
84144,215,259,305,-40,-1,293,31,17,124,125,0,254,227,-104,207,13,140,7,-24,-110,-70,76,84,103,63,94,317,-233,62,141,-85,-24
84145,232,275,330,-35,26,309,50,6,131,124,2,250,247,-107,228,5,113,8,-15,-102,-78,64,111,117,65,88,293,-178,100,154,-83,-106
84146,235,268,325,-31,27,317,66,5,123,102,-1,245,252,-106,210,1,139,15,-8,-104,-69,87,158,152,73,94,327,-68,172,220,-33,4
84147,267,288,349,-36,23,324,75,14,143,112,11,259,246,-109,223,21,172,46,5,-94,-44,120,182,168,108,113,335,2,245,295,13,4
84148,279,323,409,-24,42,338,118,39,145,112,57,289,252,-116,249,61,185,58,19,-79,-29,148,177,159,113,119,338,-103,209,257,-47,-41
84149,293,327,422,-6,39,356,102,51,131,116,63,304,259,-116,252,66,183,66,31,-81,-16,159,168,172,114,132,370,-156,180,253,-17,-8
84150,302,328,426,-8,39,353,99,47,149,124,56,322,284,-108,248,73,200,61,33,-67,-9,173,178,195,129,167,408,-169,152,238,-11,68
84151,290,311,396,-1,33,346,127,48,175,134,78,323,288,-95,254,93,209,80,54,-46,22,218,214,204,144,188,427,-113,198,242,8,87
84152,278,325,373,-6,21,341,125,31,157,125,63,302,282,-113,234,96,197,67,39,-40,24,197,211,195,136,181,414,-50,224,254,6,102
84153,277,340,416,-7,22,349,117,42,149,118,47,307,274,-98,220,82,208,58,18,-54,4,178,185,179,112,183,439,-110,170,195,-18,119
84154,286,330,416,9,38,356,104,63,166,112,40,311,287,-96,232,82,224,74,36,-52,17,182,199,201,124,179,448,-67,183,221,9,134
84155,234,287,332,-20,6,296,60,6,150,104,7,281,271,-102,232,64,216,60,42,-50,1,147,217,202,137,183,438,7,224,272,57,160
84156,193,254,294,-51,5,294,35,5,164,119,8,258,272,-87,236,44,187,41,35,-42,16,145,190,212,157,179,460,-74,175,225,10,180
84157,174,215,274,-29,15,283,-43,3,174,132,-11,256,290,-55,236,18,188,64,55,-15,15,155,192,212,177,240,480,-123,190,247,33,236
84158,123,155,241,-52,2,244,-100,2,158,100,-49,238,305,-75,239,20,190,79,82,-10,19,154,192,212,192,246,472,-71,236,289,59,223
84159,78,116,220,-75,-18,221,-77,-24,145,108,-51,230,287,-65,251,29,189,71,83,-19,23,168,192,200,175,254,500,-45,248,318,115,299
84160,177,221,312,-41,0,262,24,31,177,117,12,252,304,-62,264,65,221,85,83,-11,51,179,196,211,187,261,511,-36,251,312,130,235
84161,243,323,360,-36,-2,320,171,48,182,116,66,248,298,-74,277,107,248,95,69,-18,62,197,179,205,153,262,483,-56,193,286,79,72
84162,275,375,359,-37,-11,342,220,38,156,127,80,251,268,-97,281,115,220,67,53,-18,33,211,171,169,136,238,472,-36,214,254,33,27
84163,274,390,343,-21,-6,361,238,30,163,141,106,228,278,-76,299,138,229,71,53,-1,46,225,173,161,136,233,481,39,225,223,-26,39
84164,227,367,288,-40,-8,349,227,5,144,133,106,187,248,-70,310,123,200,49,51,-7,61,217,150,161,136,207,465,43,178,169,-77,6
84165,232,337,300,-35,15,335,190,10,170,140,92,191,255,-70,316,114,155,38,42,-13,53,218,119,138,135,180,453,-130,80,85,-100,21
84166,186,290,271,-51,16,327,184,-13,163,138,92,175,239,-76,318,139,129,18,15,-16,50,216,78,115,120,185,470,-285,50,120,-59,147
84167,167,241,254,-66,4,329,165,-37,131,130,85,154,214,-88,312,120,109,15,24,-9,47,205,71,113,123,218,498,-254,83,174,33,349
84168,154,256,226,-71,7,322,128,-53,139,145,83,137,232,-61,333,121,106,17,49,7,55,188,111,159,165,255,521,-97,190,278,95,347
84169,163,262,226,-63,17,327,82,-26,157,147,73,177,248,-59,325,116,167,43,40,18,43,175,144,184,167,246,485,-18,237,289,76,174
84170,165,248,255,-75,12,333,120,-6,155,143,88,186,259,-52,324,110,186,70,35,27,68,163,169,197,173,250,504,16,288,363,148,253
84171,178,248,239,-62,3,307,142,-25,150,148,75,159,246,-71,307,100,175,28,34,-2,40,157,165,158,147,201,463,-30,250,358,90,170
84172,187,235,213,-65,5,309,119,-24,144,143,70,151,212,-91,289,78,162,4,9,-36,-6,166,118,106,115,139,375,-142,145,216,-53,-91
84173,139,215,181,-90,0,312,73,-46,138,129,59,148,225,-97,262,46,136,11,-12,-58,-41,141,120,111,84,108,327,-134,108,131,-164,-187
84174,134,207,186,-81,1,322,98,-46,139,146,71,171,248,-88,263,73,149,27,-5,-50,-17,139,116,87,83,92,320,-239,41,59,-178,-145
84175,141,229,201,-96,16,330,105,-44,135,162,83,181,268,-74,267,66,148,28,12,-44,-2,140,110,138,99,139,370,-258,81,144,-63,19
84176,169,240,243,-69,16,329,112,-21,143,143,75,167,266,-83,278,83,162,51,29,-37,-3,149,131,151,101,120,362,-177,112,158,-83,43
84177,204,228,300,-46,26,328,123,11,153,150,57,213,266,-86,258,82,170,46,24,-59,-33,151,135,119,71,72,290,-190,60,56,-276,-219
84178,180,218,301,-53,22,331,130,3,159,150,67,233,267,-70,266,63,192,40,0,-61,-28,141,140,124,44,51,273,-147,51,25,-307,-322
84179,173,224,321,-33,21,345,118,13,183,159,80,259,288,-54,303,95,211,75,57,-47,14,149,181,160,90,103,349,-32,157,158,-133,-78
84180,177,220,315,-25,21,330,135,32,186,157,86,251,302,-44,296,101,231,103,72,-25,32,178,188,183,101,140,410,2,169,191,-73,104
84181,188,222,306,-54,21,325,140,10,171,141,59,223,287,-71,271,94,227,59,30,-45,18,156,137,130,85,123,396,-114,65,102,-117,121
84182,177,212,296,-67,5,309,113,6,149,117,51,222,265,-102,251,84,189,20,4,-64,-2,152,76,90,61,111,384,-280,17,31,-183,73
84183,212,228,378,-22,26,334,135,64,184,130,93,263,297,-52,304,131,211,92,44,-25,37,207,133,148,114,156,419,-168,98,134,-102,138
84184,203,260,400,0,39,355,184,88,199,152,111,282,312,-64,306,150,238,90,40,-45,16,209,127,136,100,132,352,-214,52,73,-198,-122
84185,216,251,387,5,21,347,169,90,178,146,96,275,309,-88,285,129,235,105,25,-50,-14,156,133,142,82,99,305,-189,60,68,-225,-256
84186,226,266,376,1,23,355,191,90,179,141,102,299,307,-69,294,140,224,126,43,-56,-10,171,157,178,101,105,328,-54,138,140,-139,-198
84187,207,253,329,-13,19,337,166,83,166,170,98,308,308,-63,301,116,235,127,57,-48,-3,153,222,196,92,118,351,49,206,239,-52,-50
84188,193,245,324,-17,13,338,142,75,169,178,100,294,308,-52,300,87,237,111,46,-36,-9,130,211,192,119,128,339,-17,204,262,-35,15
84189,183,245,306,-35,4,334,147,50,168,181,103,262,300,-70,316,105,204,64,52,-31,-12,133,123,178,121,109,362,-198,158,247,-4,103
84190,183,229,293,-29,13,350,177,33,175,185,115,260,308,-64,329,104,194,65,54,-15,-4,152,100,163,116,122,369,-195,159,240,-2,124
84191,172,206,247,-45,7,343,158,6,163,166,98,248,292,-73,297,85,189,65,21,-40,-38,130,126,128,93,106,334,-138,137,194,-76,21
84192,205,210,274,-33,7,333,153,0,160,143,83,231,278,-88,284,65,191,41,2,-35,-43,127,105,110,71,106,332,-130,110,186,-70,7
84193,211,215,294,-34,5,328,146,4,153,158,74,248,287,-88,296,64,200,42,7,-40,-18,113,95,104,68,103,305,-152,115,203,-77,-103
84194,213,228,300,-43,25,347,148,7,151,179,79,263,284,-69,316,87,215,30,19,-23,7,125,92,94,90,132,340,-216,113,193,-50,-63
84195,181,205,266,-45,0,321,97,-20,157,158,75,241,259,-69,331,95,223,27,16,-8,24,159,113,101,96,168,380,-128,143,209,0,108
84196,154,192,246,-67,9,309,79,-29,155,152,73,211,247,-78,325,101,213,17,-15,2,26,187,109,83,70,169,425,-146,109,191,4,184
84197,176,210,253,-63,24,336,113,-21,156,162,87,200,259,-64,324,116,188,6,-8,5,38,214,91,67,70,188,432,-159,91,164,-47,115
84198,185,236,253,-72,6,328,131,-33,158,162,98,194,257,-82,327,107,196,-2,-18,-31,4,216,92,58,69,159,384,-114,92,128,-119,-8
84199,171,218,222,-74,-9,324,100,-29,161,164,77,194,254,-86,327,86,190,41,0,-12,3,189,135,122,100,190,411,29,240,284,3,70
84200,130,220,234,-93,3,345,103,-34,145,152,65,209,253,-77,308,70,171,45,-4,-18,14,173,122,105,90,175,408,-13,194,238,-5,101
84201,157,210,236,-82,19,338,76,-30,155,157,52,227,250,-61,305,86,181,39,4,-33,21,208,86,93,74,167,438,-86,114,163,-45,114
84202,128,187,205,-106,-5,320,43,-42,135,149,47,206,246,-84,281,97,169,27,-11,-20,8,209,98,93,71,174,457,-14,143,197,15,148
84203,116,189,194,-106,-4,319,52,-87,118,139,50,159,211,-84,294,86,166,5,-22,-38,18,206,104,81,73,193,452,18,150,221,17,134
84204,140,187,193,-114,3,332,72,-93,118,148,78,136,203,-95,317,89,154,-3,-32,-50,33,218,81,74,81,202,466,-53,181,253,29,155
84205,165,221,214,-101,23,358,92,-71,128,170,89,158,217,-109,318,114,126,-9,-39,-24,42,230,60,79,54,214,479,-172,165,253,64,170
84206,176,254,248,-89,11,342,97,-42,116,158,81,167,199,-135,304,99,111,-3,-60,-49,41,199,70,60,27,184,454,-178,130,204,-1,143
84207,144,231,254,-95,1,335,108,-38,103,143,71,169,191,-136,291,91,118,-8,-76,-71,36,211,83,37,17,180,435,-124,99,180,-51,118
84208,171,244,276,-59,39,362,147,-7,130,159,100,204,230,-133,315,120,139,-9,-68,-73,56,246,87,45,8,159,459,-202,56,153,-64,139
84209,195,281,277,-47,55,362,165,3,150,170,99,208,217,-132,306,141,142,-6,-66,-78,40,238,78,38,5,166,440,-268,44,146,-72,106
84210,193,262,287,-44,28,346,130,20,147,152,73,213,235,-142,290,126,149,0,-64,-97,18,188,78,32,10,141,408,-225,48,125,-93,84
84211,189,241,316,-22,19,337,124,25,149,139,79,234,260,-131,298,128,172,26,-61,-102,3,206,93,22,14,131,419,-267,8,77,-107,124
84212,196,243,301,-30,21,329,110,31,145,128,65,237,250,-120,291,109,172,20,-58,-95,18,157,96,34,14,139,420,-249,42,139,-62,183
84213,164,224,275,-33,13,329,108,24,145,119,70,216,243,-133,298,95,145,11,-54,-78,39,167,107,52,25,165,440,-213,106,208,-27,229
84214,155,227,286,-38,12,321,98,10,156,119,65,198,244,-138,281,101,144,29,-53,-84,46,137,122,75,32,168,457,-147,148,261,30,279
84215,155,213,310,-33,20,314,99,28,156,129,70,211,263,-119,289,97,178,49,-38,-80,40,134,124,63,50,174,458,-171,143,253,26,188
84216,173,227,322,-2,36,338,142,44,162,158,98,236,281,-91,321,120,202,71,-33,-66,47,151,129,73,47,190,439,-184,108,210,-38,115
84217,187,232,320,9,49,345,157,33,162,169,120,260,271,-113,312,138,216,59,-35,-69,43,151,128,63,12,164,408,-226,42,135,-79,100
84218,186,206,306,-12,12,326,116,0,153,140,90,247,254,-123,298,112,210,49,-50,-88,31,150,141,61,7,147,399,-161,80,164,-74,-13
84219,190,200,339,-22,4,305,71,24,159,119,68,267,285,-114,283,79,231,64,-13,-86,6,100,161,90,32,147,355,-132,117,178,-103,-119
84220,191,218,339,-17,29,328,96,17,171,140,72,263,300,-120,263,85,227,82,-2,-77,3,91,122,94,31,145,362,-262,59,158,-98,-85
84221,185,204,318,-27,15,340,86,9,170,151,74,243,291,-98,274,88,210,79,0,-62,24,102,120,113,70,178,409,-230,70,217,-9,34
84222,141,181,283,-39,-18,307,61,-9,155,126,43,216,259,-117,264,77,185,50,-7,-64,7,88,69,86,76,178,399,-243,58,197,-2,42
84223,164,198,280,-33,4,310,75,-23,158,135,48,201,275,-100,281,97,176,55,0,-41,32,103,68,108,100,214,438,-210,101,247,62,92
84224,200,229,286,-29,14,334,91,-20,167,152,82,224,293,-87,305,114,157,58,14,-41,46,132,102,131,103,240,460,-175,155,303,125,139
84225,150,201,260,-17,24,319,72,-22,152,153,74,213,269,-77,289,92,163,65,2,-39,21,138,131,130,112,221,404,-135,169,288,72,-15
84226,139,194,230,-39,6,312,41,-29,157,145,52,215,268,-85,278,85,162,64,16,-32,30,156,160,145,114,232,398,-71,197,284,60,-65
84227,133,172,210,-58,0,304,35,-13,163,145,45,237,278,-84,285,104,157,85,52,-32,52,145,172,166,121,246,434,-3,214,322,79,-23
84228,139,189,246,-50,13,291,56,1,165,128,60,246,289,-89,280,86,175,101,43,-34,22,124,160,166,120,239,430,-14,214,328,85,-4
84229,156,187,292,-41,-1,296,67,29,162,127,70,253,304,-83,289,94,191,104,36,-9,40,141,134,150,126,265,468,-99,196,358,146,124
84230,161,175,299,-36,-15,291,65,31,150,124,56,249,317,-88,275,82,177,107,49,-17,40,152,112,146,127,270,456,-150,150,341,156,160
84231,178,155,315,-39,-12,282,44,48,166,126,63,243,320,-55,286,82,160,115,50,1,41,151,110,146,142,293,477,-203,163,345,177,190
84232,174,155,306,-44,3,283,32,29,171,126,53,231,304,-81,271,101,133,95,42,0,66,161,108,124,130,293,509,-239,133,312,158,177
84233,149,145,276,-53,-15,256,57,24,171,110,43,224,311,-75,272,107,112,93,42,1,61,184,115,148,140,311,518,-127,186,328,152,189
84234,171,172,314,-46,0,280,72,39,169,114,71,245,329,-71,301,130,155,121,68,24,72,205,167,167,175,338,543,-25,252,408,203,256
84235,176,159,312,-27,11,273,55,19,169,111,71,236,304,-81,285,109,150,78,58,8,78,187,151,151,155,313,550,-110,198,397,222,322
84236,168,180,301,-25,7,277,58,20,155,124,47,222,297,-89,277,77,134,58,41,-1,49,189,123,122,126,281,514,-184,171,337,142,272
84237,187,202,288,-42,3,294,81,28,153,129,66,217,297,-88,269,87,159,69,28,-30,3,187,144,103,93,224,435,-197,122,266,35,83
84238,170,183,281,-56,-3,307,84,-11,150,123,76,219,295,-108,258,67,186,94,18,-43,17,152,164,119,91,197,410,-139,150,250,32,-26
84239,166,195,297,-61,-15,321,104,0,152,133,73,230,299,-115,276,90,176,88,37,-29,33,172,157,117,103,212,450,-117,169,275,71,52
84240,164,192,312,-41,0,335,122,14,155,155,103,240,315,-79,319,141,179,85,53,-12,53,197,168,129,136,245,504,-127,161,293,110,191
84241,127,190,269,-59,-14,336,126,-13,148,146,117,226,297,-76,325,147,164,96,46,5,75,198,167,143,140,265,535,-90,211,363,158,331
84242,146,214,295,-50,-11,348,136,21,151,161,143,251,295,-53,340,173,168,128,61,26,101,251,207,164,154,275,547,-10,284,394,132,313
84243,163,221,307,-55,6,350,153,35,150,154,143,278,324,-58,350,189,213,163,96,32,94,248,270,203,168,262,466,127,327,358,80,1
84244,138,217,297,-66,-2,345,146,34,146,153,146,303,324,-35,362,206,226,192,102,42,91,228,299,229,182,262,456,168,301,350,93,-58
84245,113,208,280,-82,-18,348,144,41,135,168,152,295,325,-45,378,194,218,180,83,32,118,227,286,228,174,276,477,124,289,339,83,84
84246,120,215,264,-60,-6,365,149,61,145,168,152,292,336,-51,393,199,255,173,99,30,106,235,251,207,171,277,472,-17,254,316,42,38
84247,155,220,287,-45,14,364,177,70,158,195,175,312,328,-47,393,218,274,158,109,47,122,269,235,185,178,269,486,-116,197,249,4,49
84248,140,198,290,-80,-7,361,173,37,137,171,179,274,290,-57,354,197,219,111,53,21,108,229,190,129,120,223,456,-176,79,126,-82,-12
84249,115,167,278,-123,-17,344,168,15,115,156,161,254,273,-62,375,208,195,109,49,19,117,241,151,137,119,245,480,-176,86,177,-40,109
84250,152,205,299,-97,-12,346,150,43,128,162,175,308,295,-48,358,215,236,151,72,11,102,225,198,162,139,233,466,-92,176,225,-32,42
84251,144,186,315,-82,-19,335,117,60,147,143,143,315,301,-63,348,178,250,154,81,13,94,184,239,186,168,232,465,-12,235,278,-5,39
84252,145,159,345,-85,-18,318,104,71,138,149,122,320,336,-52,350,173,293,176,95,21,107,166,299,230,173,247,460,131,324,365,51,86
84253,143,172,346,-64,-7,322,101,52,161,146,118,296,329,-41,350,166,277,188,118,32,113,169,300,229,202,265,486,174,360,417,109,153
84254,136,186,355,-63,-17,311,107,52,161,157,133,292,299,-55,337,182,265,161,97,42,120,191,252,198,184,269,504,70,294,380,109,251
84255,175,215,383,-45,9,317,118,77,155,182,151,274,292,-56,334,181,238,143,53,18,123,190,192,165,145,252,484,-86,201,274,48,205
84256,194,208,387,-45,8,321,144,72,137,166,158,284,278,-102,325,157,230,126,20,-35,56,138,144,99,81,177,392,-256,59,103,-138,-77
84257,184,203,394,-30,22,349,168,72,145,171,163,313,277,-94,340,163,264,154,20,-46,60,148,181,111,69,164,344,-184,56,52,-217,-226
84258,170,184,372,-25,13,332,137,69,152,174,136,319,298,-83,338,177,218,171,46,-8,104,172,228,170,125,218,413,11,225,249,-19,66
