,Fp1,Fp2,F7,F3,Fz,F4,F8,FC5,FC1,FC2,FC6,T7,C3,Cz,C4,T8,TP9,CP5,CP1,CP2,CP6,TP10,P7,P3,Pz,P4,P8,PO9,O1,Oz,O2,PO10
32697,78,-513,215,95,27,415,146,567,179,-20,194,306,428,229,-76,602,425,391,-155,204,-24,481,493,334,466,443,604,213,426,160,7,230
32698,64,-544,219,77,11,406,158,563,159,-18,195,322,426,226,-57,620,436,379,-185,190,-38,506,464,319,465,436,622,142,363,154,2,215
32699,70,-504,258,60,3,411,184,578,159,-39,194,339,425,235,-49,604,451,400,-164,182,-19,523,498,329,454,428,613,176,409,184,16,211
32700,63,-474,249,63,-2,412,187,571,149,-43,192,310,418,207,-51,615,426,392,-166,188,-23,521,497,332,440,422,589,204,431,180,22,209
32701,44,-483,252,78,20,418,197,567,156,-30,186,322,419,211,-45,594,436,400,-166,193,-18,500,504,327,454,427,614,216,408,171,24,229
32702,65,-486,274,81,13,414,201,576,178,-29,196,320,435,209,-47,587,404,403,-178,200,-33,498,493,327,435,400,623,237,436,178,15,203
32703,79,-500,268,111,24,439,189,584,159,-28,186,331,421,188,-86,575,399,408,-211,167,-58,490,497,319,423,368,538,240,442,155,-34,151
32704,85,-484,246,113,36,427,193,552,174,-42,192,284,418,169,-115,568,347,381,-175,135,-81,470,476,311,411,368,496,195,409,142,-48,179
32705,86,-513,241,95,47,413,173,542,176,-45,164,277,412,151,-131,538,302,367,-207,116,-112,428,467,296,396,334,503,165,387,113,-64,142
32706,79,-523,259,118,44,417,158,551,149,-53,137,293,394,166,-133,508,345,373,-202,113,-121,407,462,285,389,333,514,153,404,115,-64,138
32707,43,-530,225,93,32,404,178,545,164,-72,139,286,397,176,-141,502,340,378,-221,109,-110,420,445,266,390,334,531,94,367,97,-77,140
32708,2,-557,160,45,0,376,152,527,170,-70,134,272,396,166,-151,460,346,357,-238,91,-121,424,416,253,356,316,497,67,306,45,-125,124
32709,4,-556,181,87,14,381,157,544,177,-53,159,291,416,179,-127,368,388,359,-203,107,-107,443,436,273,381,333,481,86,291,52,-105,140
32710,58,-543,239,111,39,399,162,568,170,-58,173,303,427,200,-132,417,372,380,-211,132,-89,461,440,297,401,344,489,88,326,82,-80,146
32711,84,-509,257,102,33,414,171,589,169,-68,198,320,433,194,-111,520,376,378,-224,135,-85,451,464,317,400,352,492,118,349,107,-54,142
32712,56,-520,222,102,27,411,166,604,181,-54,181,333,442,193,-117,567,410,401,-208,139,-82,400,510,318,413,356,527,156,390,137,-36,171
32713,52,-513,242,110,37,423,167,601,197,-37,189,342,451,200,-108,570,400,413,-198,141,-70,439,523,334,446,363,551,193,440,173,-22,169
32714,46,-529,246,108,44,420,160,593,189,-38,187,360,439,216,-103,553,406,427,-213,151,-74,456,526,331,437,367,573,208,484,185,-15,167
32715,59,-507,239,126,50,444,190,591,196,-18,208,351,449,217,-61,511,403,410,-226,162,-46,460,508,320,417,397,578,196,411,173,16,221
32716,67,-508,255,122,47,440,195,604,200,-21,224,337,443,201,-63,429,385,391,-244,157,-34,453,481,304,411,389,565,176,348,163,36,239
32717,65,-519,262,86,38,424,153,607,185,-43,209,337,443,197,-86,294,387,390,-211,128,-63,446,482,309,407,368,510,190,409,159,22,220
32718,55,-529,257,98,27,411,144,591,187,-53,183,339,440,200,-97,319,383,381,-197,122,-85,419,502,303,390,352,518,211,411,152,0,191
32719,66,-539,254,115,15,406,133,601,196,-57,163,342,425,187,-112,380,396,391,-210,107,-131,389,506,280,391,320,497,207,385,122,-51,172
32720,89,-513,279,105,41,391,111,604,181,-83,137,339,428,177,-142,426,383,363,-240,85,-169,379,473,249,354,279,450,158,345,79,-91,128
32721,55,-498,243,85,30,367,132,571,173,-75,118,294,423,167,-169,491,330,339,-250,83,-172,356,418,216,327,277,416,99,277,62,-126,100
32722,35,-525,216,85,17,359,94,557,163,-59,85,294,420,180,-167,432,341,335,-212,94,-184,336,420,237,361,299,408,128,281,51,-135,60
32723,0,-531,198,77,42,375,90,554,164,-76,93,308,435,191,-145,322,355,340,-194,109,-145,352,460,272,382,331,444,163,318,77,-134,77
32724,-8,-548,208,79,28,365,72,541,182,-83,108,289,424,179,-155,324,336,332,-219,92,-140,355,455,259,382,331,452,136,319,95,-86,139
32725,46,-522,243,109,49,367,79,567,196,-55,129,298,439,210,-133,357,336,358,-206,115,-141,385,459,269,406,347,478,137,339,116,-58,181
32726,39,-507,242,99,38,368,101,574,191,-72,127,325,443,204,-138,449,341,346,-193,98,-135,390,455,258,392,327,494,134,332,104,-49,176
32727,35,-512,238,94,21,365,102,597,200,-72,129,330,449,203,-157,526,378,351,-187,98,-134,392,477,275,405,325,489,162,335,106,-44,187
32728,8,-551,217,78,-11,335,101,563,166,-94,90,272,430,186,-177,550,330,337,-203,84,-157,381,433,254,389,310,496,134,304,64,-93,138
32729,4,-555,203,58,6,349,101,549,176,-80,92,267,422,198,-158,550,309,337,-179,82,-127,383,428,245,405,317,488,120,310,66,-103,139
32730,7,-526,194,63,0,355,118,560,185,-50,112,273,422,205,-152,530,292,332,-173,104,-128,378,407,262,409,320,500,123,313,69,-80,155
32731,10,-536,213,74,4,362,118,550,180,-65,92,247,417,195,-152,526,217,320,-205,88,-151,387,385,248,397,310,487,88,278,11,-96,110
32732,38,-536,231,82,26,368,105,543,173,-70,87,241,406,200,-151,519,253,318,-197,75,-151,373,387,236,393,285,449,76,252,-6,-112,75
32733,15,-514,235,90,31,386,105,546,196,-54,112,244,420,212,-146,477,303,321,-189,89,-166,330,375,241,382,294,417,58,282,28,-139,29
32734,-20,-547,202,69,20,382,82,521,183,-61,95,221,411,190,-155,429,259,308,-197,86,-189,309,382,240,384,299,418,96,345,63,-129,43
32735,-29,-560,162,45,26,360,59,517,181,-77,73,241,392,217,-175,384,285,293,-212,69,-194,320,376,240,386,285,414,121,281,13,-133,58
32736,-9,-551,153,47,29,356,61,513,185,-94,80,251,401,229,-161,288,265,293,-213,80,-172,342,378,237,373,291,406,116,185,-8,-116,59
32737,-3,-570,171,38,4,334,58,507,180,-100,77,236,400,204,-173,243,252,284,-222,71,-196,313,385,235,382,269,410,101,234,6,-140,34
32738,-10,-589,193,48,-26,316,44,521,168,-120,71,254,409,189,-185,299,288,293,-250,51,-208,295,376,237,380,270,374,73,243,-7,-165,12
32739,-5,-571,206,72,5,336,62,556,183,-77,97,285,450,217,-172,387,288,339,-195,85,-156,331,409,263,402,301,423,105,290,19,-111,39
32740,-20,-539,188,83,10,336,69,557,202,-76,110,323,469,215,-162,460,323,364,-168,108,-143,377,449,311,421,327,445,138,336,83,-94,84
32741,-52,-542,176,67,-9,355,51,559,200,-109,75,290,465,211,-190,469,322,352,-188,103,-175,349,449,313,421,336,415,157,329,100,-74,100
32742,-10,-560,178,71,5,364,49,560,209,-95,85,295,463,226,-167,359,307,369,-175,104,-174,334,451,315,432,346,430,162,351,99,-86,98
32743,-17,-536,205,98,12,356,72,577,225,-48,108,304,473,246,-138,317,317,370,-169,119,-165,333,471,333,445,349,437,152,350,84,-99,87
32744,-13,-509,201,52,22,361,85,575,206,-64,90,298,463,218,-150,383,322,353,-175,105,-211,266,449,348,415,311,371,152,342,90,-108,55
32745,-36,-540,178,52,-5,338,64,528,176,-90,66,305,456,215,-172,404,296,331,-178,96,-233,261,443,342,406,289,371,144,358,92,-118,56
32746,-7,-544,188,56,-6,348,55,537,190,-69,62,283,453,242,-172,440,305,364,-145,127,-195,324,472,366,435,316,385,173,361,108,-87,86
32747,16,-557,189,40,19,351,55,568,214,-51,73,298,463,244,-161,431,344,402,-142,137,-188,309,512,388,468,335,399,212,392,149,-67,138
32748,-14,-543,175,47,2,338,69,564,199,-67,65,295,453,240,-158,389,337,381,-167,146,-200,304,496,361,437,319,377,187,384,138,-107,107
32749,-11,-542,211,70,-28,333,73,563,207,-79,83,280,459,224,-159,359,308,366,-187,128,-194,318,476,355,408,304,385,169,351,103,-115,87
32750,-8,-556,230,65,-11,339,54,566,205,-78,99,299,463,240,-160,366,334,363,-164,114,-172,302,501,356,402,309,417,157,368,106,-92,99
32751,-16,-555,207,84,4,339,61,580,207,-73,96,296,462,262,-136,392,372,382,-143,137,-152,345,522,357,438,343,419,190,395,134,-49,100
32752,20,-549,224,92,4,343,72,560,198,-92,105,272,444,242,-125,432,339,359,-162,155,-148,340,495,328,443,351,404,185,377,110,-80,103
32753,71,-532,277,87,26,363,95,564,205,-84,118,293,443,237,-112,465,343,359,-160,148,-143,354,485,316,426,326,422,167,370,88,-84,138
32754,24,-564,238,67,16,347,80,533,197,-90,81,275,430,226,-138,452,336,335,-166,110,-166,333,493,300,398,307,411,145,356,100,-88,117
32755,5,-572,196,66,7,317,47,523,175,-115,60,267,396,209,-168,405,327,327,-214,96,-209,292,473,288,376,303,409,157,354,78,-95,77
32756,-9,-572,213,79,21,347,59,524,201,-82,81,271,411,229,-153,423,333,350,-208,107,-199,303,492,327,409,314,400,222,399,105,-85,100
32757,-24,-556,203,57,7,334,59,525,190,-73,81,283,416,216,-157,383,332,356,-203,109,-181,297,509,343,435,309,366,240,442,143,-60,110
32758,-2,-557,186,45,12,333,42,531,193,-80,71,297,416,199,-177,288,363,348,-182,100,-196,291,513,331,427,315,397,252,414,113,-56,87
32759,-14,-568,185,58,11,334,55,545,195,-84,85,279,418,214,-182,217,333,351,-190,107,-192,265,485,352,412,305,360,221,391,84,-50,74
32760,-18,-573,172,41,-10,321,39,536,178,-72,90,263,425,208,-183,235,298,348,-172,100,-184,261,477,333,413,289,331,150,342,68,-73,69
32761,-17,-575,171,20,-4,325,16,509,184,-95,70,245,404,209,-175,316,276,324,-169,103,-209,249,453,310,417,295,347,62,319,51,-93,42
32762,-31,-592,156,28,-12,314,-5,513,188,-112,40,251,437,206,-170,355,288,340,-182,117,-210,270,461,341,432,325,366,126,382,88,-72,58
32763,-2,-564,203,66,6,327,0,534,203,-124,40,274,447,213,-165,411,274,346,-171,111,-194,272,453,333,414,326,367,102,350,83,-103,50
32764,0,-572,201,54,8,306,-9,507,191,-132,13,269,417,209,-192,398,271,350,-151,84,-220,253,434,339,388,309,344,99,346,83,-105,43
32765,-7,-562,186,85,29,311,-6,516,221,-87,26,259,443,251,-174,398,296,366,-113,105,-200,266,460,371,435,312,352,119,381,113,-51,51
32766,-20,-598,170,71,2,302,-30,515,211,-97,11,257,431,237,-203,369,273,341,-137,91,-201,239,465,359,421,313,318,109,370,98,-67,24
32767,-28,-626,140,48,-27,286,-63,524,198,-107,7,282,436,211,-205,354,295,363,-161,91,-213,227,467,361,432,301,335,144,385,89,-61,36
32768,-41,-611,138,35,-34,283,-55,520,183,-110,-3,282,443,208,-220,345,300,369,-162,96,-236,237,494,378,427,306,368,174,433,141,-26,68
32769,-43,-632,140,52,-13,288,-27,524,194,-100,22,264,444,201,-181,351,287,358,-154,83,-217,250,491,403,437,325,385,149,456,179,13,119
32770,-11,-609,166,52,0,305,8,513,210,-84,58,284,475,235,-153,363,289,392,-134,121,-167,268,506,406,442,355,419,159,461,193,31,171
32771,-64,-631,133,45,-17,305,-34,499,198,-94,34,261,455,228,-143,361,253,374,-116,137,-185,239,483,398,440,343,411,144,425,174,-20,146
32772,-85,-630,139,80,-6,313,-51,499,206,-103,25,233,435,227,-150,347,281,356,-120,124,-176,253,458,386,444,333,400,124,358,140,-47,91
32773,-69,-596,125,42,-13,309,-14,500,191,-94,44,189,416,212,-149,371,285,326,-142,136,-165,277,425,353,425,347,405,93,331,113,-30,54
32774,-23,-576,142,50,-8,304,11,502,183,-88,50,209,428,244,-155,406,266,324,-141,135,-151,281,415,335,424,362,385,106,347,110,-17,62
32775,-15,-559,153,62,22,328,-1,510,192,-83,77,242,444,260,-151,381,276,341,-104,140,-142,324,446,364,454,367,402,151,386,145,4,116
32776,-23,-517,169,58,25,328,25,511,196,-59,86,269,456,259,-126,266,325,365,-99,159,-121,314,457,375,459,376,451,167,389,154,10,134
32777,-24,-541,151,54,14,315,3,501,195,-62,73,275,485,252,-125,276,332,377,-105,151,-125,237,457,389,457,378,413,164,387,157,20,107
32778,-52,-589,114,23,-29,305,-28,484,189,-75,67,252,445,237,-139,360,300,362,-123,148,-129,267,459,388,430,375,434,149,371,146,0,122
32779,-26,-592,155,40,-38,274,-25,504,189,-110,60,264,440,232,-160,303,295,344,-115,146,-124,308,459,379,443,365,459,156,371,138,-20,119
32780,17,-540,201,53,-2,302,2,519,197,-109,70,286,455,241,-131,163,305,353,-99,159,-122,305,465,384,439,368,451,159,364,134,-8,141
32781,1,-503,217,53,-13,315,26,522,198,-88,103,270,459,232,-89,190,292,364,-99,170,-103,304,486,396,432,379,502,180,411,168,38,167
32782,30,-483,220,58,-4,335,65,525,208,-76,123,245,456,236,-88,270,270,350,-107,176,-90,313,472,408,446,378,508,187,406,157,49,150
32783,74,-475,255,76,23,342,74,535,223,-54,133,254,479,267,-68,428,285,368,-84,197,-70,347,496,449,506,423,502,229,465,204,34,123
32784,31,-488,231,53,25,343,54,526,204,-79,96,256,475,257,-107,464,279,374,-67,186,-106,323,520,443,502,408,489,236,519,225,41,105
32785,40,-469,218,48,1,313,47,520,193,-58,76,266,452,239,-133,485,285,363,-101,174,-130,333,509,421,472,385,493,169,440,164,36,129
32786,81,-455,227,81,27,338,58,547,225,-34,100,299,482,270,-101,524,330,390,-111,189,-99,354,508,437,474,402,495,177,389,173,62,172
32787,32,-485,206,67,13,336,29,560,223,-54,87,294,483,260,-118,487,344,406,-102,168,-94,327,519,445,484,405,491,188,413,196,67,141
32788,0,-553,145,37,-7,319,-29,513,217,-78,51,271,464,254,-131,437,315,390,-97,159,-131,296,524,448,482,382,456,188,434,181,50,128
32789,-17,-558,147,47,-7,320,-15,519,218,-58,58,288,466,260,-103,442,333,400,-78,177,-141,294,545,461,493,417,488,198,458,205,72,162
32790,-36,-548,129,21,-2,312,-7,509,207,-74,76,263,448,252,-103,427,285,354,-98,167,-140,290,504,425,505,416,484,213,455,196,36,145
32791,-59,-570,93,-2,-18,280,-15,469,190,-80,46,234,437,232,-132,407,238,332,-118,164,-150,288,509,409,485,394,438,184,435,167,0,108
32792,-50,-573,88,13,-7,314,6,486,198,-61,53,227,448,262,-104,416,273,348,-125,185,-123,290,510,432,531,413,472,196,442,193,33,121
32793,-23,-544,124,29,10,349,15,501,205,-43,100,233,452,274,-71,360,284,355,-107,231,-106,332,522,448,533,433,522,196,451,188,34,142
32794,-9,-529,154,8,-17,336,20,491,199,-53,109,235,443,269,-58,264,274,340,-108,243,-69,310,521,432,550,443,560,173,436,181,4,128
32795,-12,-492,131,21,-3,362,58,488,197,-44,140,219,440,279,-40,295,264,328,-104,263,-32,323,491,427,537,465,547,167,425,160,5,102
32796,-55,-530,99,-6,-22,365,48,459,190,-42,137,212,416,267,-58,341,241,306,-129,229,-62,314,473,404,503,422,438,144,354,135,-25,77
32797,-56,-500,116,7,-28,364,56,492,180,-35,156,215,436,278,-36,469,240,306,-116,251,-32,321,489,407,506,449,483,172,392,172,30,117
32798,-115,-537,99,-20,-52,325,24,457,150,-61,121,216,424,259,-55,550,242,314,-136,230,-37,355,477,411,505,467,507,161,403,169,26,147
32799,-108,-549,110,-13,-42,338,38,479,169,-45,122,231,419,267,-34,557,310,336,-115,241,-28,372,472,411,514,453,542,189,425,176,41,176
32800,-125,-542,108,-18,-33,351,48,481,176,-40,130,229,430,277,-33,544,318,357,-88,229,-36,367,499,413,526,441,546,229,423,200,65,192
32801,-84,-513,104,-27,-29,349,32,474,172,-65,114,244,414,246,-46,499,248,360,-93,211,-46,375,500,410,513,466,557,218,436,203,52,210
32802,-67,-507,105,-37,-18,342,46,487,193,-53,100,258,424,232,-70,476,323,363,-101,208,-31,395,511,422,492,459,554,242,460,223,53,220
32803,-70,-534,111,-44,-21,338,45,470,179,-72,87,253,410,236,-95,379,357,340,-135,164,-67,361,478,384,439,410,550,248,433,204,51,192
32804,-69,-546,121,-40,-24,345,22,479,177,-79,87,239,406,243,-91,298,310,320,-141,166,-57,362,480,367,439,396,545,244,439,204,50,188
32805,-113,-569,78,-51,-30,316,22,451,156,-82,88,208,396,226,-106,267,267,294,-183,169,-81,332,461,357,421,384,457,182,401,159,-8,157
32806,-113,-566,69,-53,-16,303,6,436,163,-74,99,192,397,227,-111,286,257,306,-174,171,-72,313,474,332,408,356,452,178,393,131,-32,120
32807,-86,-546,104,-42,-25,315,6,449,163,-70,84,199,390,241,-112,330,293,308,-159,155,-105,312,464,334,398,342,439,177,358,113,-45,95
32808,-100,-559,102,-42,-59,294,5,442,153,-101,36,193,407,220,-146,384,287,321,-149,137,-142,321,453,341,387,344,450,172,357,106,-44,94
32809,-98,-581,112,-41,-40,263,-1,462,174,-93,37,217,411,216,-156,454,309,325,-158,139,-130,346,485,363,400,353,484,208,399,136,-33,110
32810,-85,-557,121,-36,-46,300,-9,455,175,-91,60,228,410,220,-155,452,321,329,-165,141,-131,355,486,358,408,340,482,197,411,132,-22,111
32811,-144,-578,74,-56,-62,293,-10,433,166,-96,47,204,400,224,-166,313,321,315,-183,134,-149,289,465,349,394,307,416,192,414,132,-40,124
32812,-128,-587,66,-66,-32,303,30,460,175,-93,82,224,403,230,-117,278,306,315,-165,140,-147,256,456,364,406,331,426,165,379,142,-48,125
32813,-127,-577,76,-26,-6,317,16,483,184,-109,75,232,406,235,-102,393,287,302,-162,167,-124,310,444,340,409,337,490,87,355,118,-23,129
32814,-141,-589,87,-58,-44,285,-10,486,151,-103,54,242,408,215,-116,426,294,312,-183,162,-138,313,465,339,394,330,486,108,369,135,11,158
32815,-104,-588,103,-52,-37,312,23,517,170,-84,65,282,453,229,-125,455,345,348,-147,173,-122,306,483,388,426,364,472,186,422,185,40,171
32816,-96,-566,112,-33,-25,326,35,528,204,-75,83,276,467,230,-103,476,296,359,-129,184,-115,316,470,391,439,367,472,204,431,197,11,145
32817,-113,-560,116,-58,-45,318,29,497,195,-54,86,224,452,225,-115,476,264,330,-159,180,-111,327,481,378,436,364,469,185,415,203,34,131
32818,-133,-563,64,-56,-61,300,23,477,175,-78,85,220,429,218,-113,474,246,312,-167,179,-110,315,471,384,411,373,460,160,435,189,10,113
32819,-91,-535,101,-18,-38,334,55,521,219,-62,94,248,457,254,-108,496,282,344,-144,201,-83,327,495,409,458,380,478,187,514,221,5,119
32820,-89,-521,94,-35,-37,334,63,501,208,-79,97,219,429,256,-96,484,273,314,-134,188,-78,331,450,391,432,371,462,166,422,160,6,134
32821,-92,-518,92,-64,-52,319,61,487,181,-94,76,205,408,222,-113,462,222,292,-155,165,-105,298,405,350,415,367,447,100,295,110,-42,94
32822,-84,-502,76,-53,-48,336,36,490,204,-82,74,186,418,229,-115,457,233,310,-175,179,-112,295,405,363,449,362,446,73,324,116,-49,89
32823,-98,-508,69,-50,-40,331,36,490,193,-59,93,187,427,248,-94,449,244,294,-165,182,-107,265,378,357,432,356,445,76,312,113,-27,82
32824,-136,-564,48,-53,-54,317,-15,457,183,-92,91,176,410,216,-122,408,217,263,-193,159,-119,272,370,326,395,339,411,60,285,68,-57,45
32825,-159,-560,47,-73,-63,301,-3,450,165,-122,78,147,400,204,-145,380,209,239,-221,137,-119,260,370,305,368,315,388,14,259,19,-99,31
32826,-140,-561,82,-58,-39,326,31,470,177,-92,81,185,407,233,-109,322,242,279,-189,153,-108,271,403,317,375,322,380,54,304,42,-91,47
32827,-158,-611,43,-75,-59,302,12,465,190,-101,69,178,416,223,-97,212,263,296,-185,145,-134,256,395,311,377,314,334,58,292,61,-120,28
32828,-150,-624,60,-81,-85,283,5,447,180,-114,57,193,422,224,-117,202,283,297,-181,152,-130,251,421,329,377,318,388,61,296,74,-106,43
32829,-138,-598,66,-83,-74,289,11,462,180,-110,91,184,420,227,-126,305,283,289,-192,153,-111,273,442,327,394,315,451,105,320,107,-71,58
32830,-164,-618,38,-101,-89,238,-18,441,155,-144,70,183,399,206,-146,326,272,277,-214,131,-137,252,421,318,373,299,415,93,307,91,-107,46
32831,-132,-565,24,-109,-70,236,-18,453,165,-146,49,201,412,232,-131,381,276,307,-191,138,-124,263,439,337,376,325,394,102,355,126,-61,74
32832,-161,-582,47,-83,-60,221,-42,457,199,-113,45,219,428,237,-138,410,291,325,-145,157,-131,241,490,350,396,354,386,101,352,126,-64,49
32833,-145,-598,52,-48,-59,229,-54,480,212,-126,44,234,443,240,-147,397,307,336,-141,164,-132,235,507,362,406,360,354,141,379,156,-64,40
32834,-130,-569,50,-48,-41,239,-48,486,190,-139,38,222,448,232,-149,404,302,310,-147,156,-139,248,454,369,423,355,376,191,420,167,-21,64
32835,-132,-552,29,-67,-48,262,-18,478,177,-130,54,193,431,210,-141,420,237,287,-177,141,-114,279,418,331,410,340,410,119,356,146,-20,91
32836,-106,-535,64,-50,-42,259,9,485,181,-123,75,209,431,233,-128,427,275,290,-183,166,-106,277,445,339,424,357,425,127,378,163,-4,105
32837,-117,-547,93,-39,-47,268,-1,492,179,-105,80,232,439,233,-108,418,318,291,-142,168,-125,278,468,361,444,361,423,136,386,161,-32,96
32838,-141,-574,87,-40,-59,249,-26,499,193,-116,53,244,439,220,-123,405,312,299,-157,161,-117,300,462,374,437,364,420,119,375,157,-43,109
32839,-111,-542,106,-25,-38,274,-2,508,211,-90,100,233,467,259,-95,445,287,316,-149,197,-97,316,470,393,447,379,445,145,404,181,-10,141
32840,-108,-541,115,-23,-38,310,51,518,215,-78,133,264,465,276,-68,481,298,341,-120,213,-52,339,498,424,476,406,494,182,422,202,8,151
32841,-106,-543,87,-40,-58,292,27,505,194,-92,105,269,455,260,-84,424,317,373,-87,195,-68,299,502,427,450,387,452,156,434,189,9,146
32842,-134,-554,91,-34,-60,274,17,532,200,-93,92,266,476,257,-75,415,354,370,-100,190,-74,322,510,436,483,403,468,178,436,186,31,137
32843,-140,-584,114,-35,-44,289,14,552,223,-75,126,283,499,282,-66,352,353,388,-78,229,-56,357,533,459,516,438,502,215,483,210,36,131
32844,-147,-581,99,-32,-67,278,7,539,205,-106,111,286,512,261,-85,187,334,396,-44,230,-79,364,534,464,514,401,462,205,484,193,-2,121
32845,-166,-542,112,-37,-65,280,20,552,206,-102,109,280,508,267,-81,262,333,407,-55,211,-89,326,536,464,521,395,468,188,444,167,-28,114
32846,-123,-558,155,-28,-61,303,29,547,217,-98,129,280,523,287,-56,357,308,419,-78,223,-71,285,557,480,519,414,497,168,442,189,14,128
