,Fp1,Fp2,F7,F3,Fz,F4,F8,FC5,FC1,FC2,FC6,T7,C3,Cz,C4,T8,TP9,CP5,CP1,CP2,CP6,TP10,P7,P3,Pz,P4,P8,PO9,O1,Oz,O2,PO10
22325,-38,-254,334,-181,-263,-339,-120,248,231,-19,-151,-599,312,130,118,-48,-861,-253,223,-71,-206,452,410,44,347,310,96,43,143,17,-252,104
22326,-153,-231,158,-148,-253,-263,-227,-19,193,-15,-143,-1287,224,124,149,-28,-496,-299,216,-44,-182,436,451,8,356,320,171,189,164,47,-186,94
22327,-241,-170,63,-219,-243,-246,-262,-53,188,-13,-112,-876,147,110,193,-106,-373,-463,142,-55,-189,414,261,-118,320,293,161,168,41,-52,-301,55
22328,-398,-175,67,-204,-246,-182,-223,-45,191,22,-63,-88,93,117,231,-192,-343,-508,154,-62,-139,270,338,-107,329,336,261,46,25,-25,-210,265
22329,-301,-85,99,-151,-246,-117,-188,-132,154,39,15,246,44,111,246,-95,-276,-428,176,-39,-88,203,381,-71,341,347,337,106,48,-51,-266,69
22330,-70,-102,145,-196,-215,-80,-182,-180,160,50,71,66,56,117,275,-11,-362,-476,183,-33,-73,222,448,-56,348,375,256,257,143,6,-271,3
22331,82,-123,214,-278,-249,-46,-195,-178,152,46,71,1,94,121,237,-53,-452,-457,205,-4,-70,489,551,-43,385,425,296,161,160,58,-156,117
22332,175,-158,312,-322,-266,-63,-213,-176,153,43,21,48,104,127,212,-9,-338,-359,201,-20,-74,520,646,-35,390,405,262,213,151,24,-219,28
22333,188,-184,358,-351,-259,-108,-223,-159,157,36,-74,36,147,142,198,-16,-266,-336,208,-7,-83,544,622,-20,394,412,356,176,147,55,-130,294
22334,195,-218,379,-341,-271,-114,-145,-101,158,34,-35,12,185,117,165,-61,-292,-325,174,-25,-150,501,540,-48,351,287,216,54,50,-79,-268,42
22335,121,-183,315,-282,-261,-134,-103,-112,145,19,14,-11,159,106,182,-81,-314,-323,158,-32,-169,520,503,-43,346,273,113,12,59,-61,-312,-144
22336,112,-106,295,-253,-232,-90,-77,-113,171,32,-3,113,163,139,201,-112,-261,-288,189,4,-121,453,658,15,410,332,95,191,166,65,-178,127
22337,109,-84,295,-249,-243,-65,-81,-103,165,42,-10,196,160,151,198,-108,-349,-287,195,6,-124,443,629,-9,384,317,133,196,151,32,-195,159
22338,-8,-130,252,-281,-266,-47,-100,-27,166,41,-11,-278,193,121,202,-122,-482,-298,196,5,-138,519,479,-44,353,305,137,47,112,11,-214,162
22339,-36,-166,303,-283,-268,-28,-97,36,174,36,3,-648,216,101,205,-72,-685,-250,205,-25,-154,423,385,-87,334,285,125,-71,36,-31,-215,199
22340,67,-146,491,-322,-257,-12,-112,30,175,40,23,-157,226,122,243,-51,-731,-261,202,-48,-110,371,456,-124,321,279,191,-109,-16,-63,-218,226
22341,23,-190,410,-323,-255,-26,-134,49,164,31,-24,-25,201,121,245,137,-506,-344,186,-16,-18,252,478,-131,345,320,282,-56,40,-5,-198,235
22342,-101,-242,337,-269,-268,-4,-159,44,166,44,-43,-382,194,114,223,-15,-489,-380,185,-39,-55,184,456,-121,320,262,171,-69,33,-56,-294,-9
22343,-60,-202,274,-335,-265,-85,-145,-53,154,62,27,-687,135,123,226,-357,-467,-428,164,-59,-102,246,335,-164,298,235,124,38,4,-101,-397,-144
22344,-21,-115,245,-345,-278,-91,-72,-110,135,45,77,-674,107,115,248,-348,-427,-470,152,-47,-113,243,234,-180,298,264,123,93,-5,-104,-342,-40
22345,-42,-75,210,-293,-290,-86,-73,-144,123,56,103,-385,59,104,270,-387,-520,-527,124,-73,-143,349,178,-192,278,244,95,92,-16,-79,-284,108
22346,-84,-95,183,-255,-310,-85,-97,-117,138,58,107,-218,79,101,264,-325,-485,-554,129,-54,-100,201,192,-208,266,254,105,230,-3,-82,-299,74
22347,-39,-143,231,-207,-322,-119,-122,-106,146,54,66,-543,107,111,253,16,-333,-498,133,-44,-78,173,230,-189,289,288,199,179,8,-62,-289,74
22348,22,-172,289,-240,-287,-142,-166,18,171,40,-32,-783,143,118,204,112,-435,-373,175,-44,-58,332,184,-166,291,313,397,0,-6,-51,-253,227
22349,33,-171,285,-333,-296,-127,-230,-34,156,31,-51,-538,136,130,217,117,-442,-380,186,-20,-15,378,291,-119,323,393,570,70,52,29,-152,343
22350,50,-235,269,-371,-298,-79,-332,-113,146,50,-30,-320,70,139,265,138,-320,-546,158,13,22,384,421,-117,353,414,589,145,90,52,-118,225
22351,86,-271,209,-351,-290,-48,-361,-160,162,53,-107,6,71,123,223,49,-293,-501,141,-7,-63,408,488,-103,342,348,358,279,142,84,-119,117
22352,100,-227,124,-378,-289,9,-373,-206,148,49,-124,229,102,107,165,-71,-341,-453,148,-35,-180,413,594,-80,306,253,102,343,160,74,-163,99
22353,33,-223,170,-336,-282,-200,-180,-169,147,28,-111,77,138,122,183,-131,-346,-397,198,-31,-167,428,533,-56,331,280,172,281,224,140,-24,554
22354,-33,-260,302,-302,-272,-159,-67,-52,167,43,-182,31,142,138,196,-163,-560,-347,208,-31,-100,341,427,-27,335,311,302,245,242,171,69,643
22355,-24,-190,356,-195,-248,-36,-148,2,159,48,-92,81,90,128,198,-742,-600,-372,174,-22,-130,233,488,-43,292,211,180,174,105,-49,-287,-46
22356,25,-97,268,-238,-251,-64,-132,-96,156,54,51,104,104,122,222,-550,-287,-220,196,-34,-141,380,542,-18,309,224,153,174,82,-64,-329,-176
22357,48,-11,215,-275,-269,-84,-175,-131,134,44,57,71,87,126,225,-93,-171,-303,190,-9,-130,410,629,-35,317,268,226,232,121,-66,-291,10
22358,36,-15,235,-275,-266,15,-216,-52,135,50,64,-87,129,130,204,19,-304,-276,224,-2,-120,412,646,-46,334,266,255,214,158,15,-208,58
22359,98,-59,289,-307,-280,77,-168,-12,133,43,94,-159,154,92,202,-6,-495,-251,165,-68,-168,445,548,-113,237,137,90,-13,-12,-228,-515,-357
22360,131,-150,408,-296,-272,0,-153,57,175,61,88,-169,199,131,202,13,-449,-252,202,-46,-175,416,619,-102,266,169,110,18,-5,-205,-447,-199
22361,126,-230,417,-234,-302,-131,-172,47,182,29,-62,-424,179,126,146,2,-344,-317,204,-67,-175,353,624,-92,281,189,75,120,71,-99,-357,-23
22362,40,-127,277,-253,-303,-118,-143,-47,147,27,-18,-809,115,110,155,-94,-228,-415,182,-69,-135,393,526,-93,263,180,101,117,78,-71,-331,24
22363,39,-126,314,-245,-270,-108,-174,-19,153,63,27,-645,98,134,203,-44,-177,-481,160,-53,-113,356,424,-76,275,236,174,151,108,-25,-244,177
22364,39,-104,220,-262,-263,-118,-145,-58,151,67,78,-329,66,138,257,111,-349,-487,144,-59,-42,200,340,-104,289,262,261,31,118,-7,-203,285
22365,-16,-80,154,-301,-277,-71,-193,-86,140,69,147,-74,50,109,271,109,-465,-485,115,-31,0,-12,306,-139,270,271,303,113,95,-14,-186,302
22366,63,-16,276,-284,-246,-19,-179,-74,140,64,139,-2,34,93,257,-53,-256,-499,93,-41,-46,120,262,-185,243,234,243,218,36,-107,-369,-74
22367,46,-52,256,-332,-261,-29,-149,-168,132,48,97,-141,37,95,246,-143,-267,-498,128,-19,-84,344,297,-159,253,244,217,163,34,-81,-419,-229
22368,60,-132,277,-332,-269,-4,-164,-202,134,75,89,-123,39,109,259,-100,-384,-434,160,6,-41,252,345,-100,287,272,221,193,109,-39,-315,-67
22369,161,-103,330,-344,-247,-13,-108,-157,150,58,91,7,64,124,265,-57,-352,-435,144,-31,-67,254,275,-141,279,248,170,229,101,-56,-312,-72
22370,158,-94,386,-347,-233,-39,-111,-70,165,47,72,-22,124,129,232,-52,-246,-414,156,-33,-79,399,318,-110,299,246,212,353,118,-10,-270,58
22371,89,-127,334,-356,-273,-94,-207,-59,160,24,5,-553,150,110,202,-68,-433,-336,144,-39,-115,433,371,-77,327,248,281,214,144,43,-186,276
22372,104,-101,244,-293,-288,-70,-191,-3,157,43,-43,-971,140,111,200,-34,-592,-363,131,-37,-100,355,329,-86,327,298,327,157,172,101,-72,495
22373,126,-91,201,-240,-266,-32,-148,-41,158,45,-23,-626,90,111,219,-71,-476,-431,147,-16,-82,397,338,-63,324,313,313,135,128,61,-158,223
22374,162,-76,196,-252,-235,5,-197,-102,169,49,-23,-132,113,141,206,-107,-521,-399,173,-26,-151,429,518,-40,315,252,140,-18,65,-57,-355,-121
22375,81,-192,215,-310,-258,-13,-283,-63,186,14,-81,-91,122,106,132,-117,-660,-253,159,-52,-204,282,659,-43,287,207,96,-20,69,-73,-340,-52
22376,-17,-156,220,-420,-257,-52,-334,-20,198,15,-91,-32,129,89,121,-104,-644,-142,154,-35,-220,186,542,-88,262,208,207,2,-8,-173,-440,-145
22377,-15,-76,200,-561,-241,-124,-332,-143,168,14,-61,198,67,83,110,-42,-471,-386,100,-48,-185,243,515,-154,270,246,340,-113,-13,-145,-370,-161
22378,-50,-103,151,-329,-249,-95,-208,-159,169,30,-61,-241,57,66,112,-26,-503,-528,84,-48,-172,274,347,-161,259,216,270,11,13,-78,-324,-103
22379,-5,-126,142,-306,-272,-144,-235,-130,150,-7,-165,-682,105,61,98,-10,-472,-470,91,-88,-184,222,194,-182,252,211,147,99,45,-27,-235,59
22380,114,-123,200,-361,-267,-119,-213,-188,154,8,-159,-633,87,71,125,-41,-402,-500,99,-43,-138,316,156,-200,279,263,161,82,78,39,-112,231
22381,110,-133,255,-359,-254,-152,-124,-228,155,14,-60,-401,78,101,159,-93,-424,-487,136,-43,-146,180,279,-178,293,264,151,139,126,57,-98,322
22382,144,-101,354,-341,-248,-179,-209,-240,142,18,-52,-83,100,99,144,-95,-444,-450,131,-82,-156,105,419,-157,256,189,98,125,74,-73,-330,27
22383,129,-115,356,-320,-225,-66,-316,-162,154,26,-85,0,112,76,117,-452,-488,-411,111,-115,-225,187,411,-168,247,135,-2,5,27,-114,-373,-169
22384,66,-80,234,-372,-241,29,-362,-195,148,37,-8,-311,73,51,150,-588,-433,-475,82,-148,-239,132,434,-193,211,120,3,36,-19,-195,-496,-251
22385,126,-83,200,-387,-260,-167,-64,-272,128,40,132,-152,23,97,228,-299,-420,-509,95,-99,-135,171,451,-157,250,205,130,269,95,-94,-361,-97
22386,175,-103,198,-329,-278,-176,-65,-131,129,44,144,104,-39,96,254,-128,-541,-536,99,-77,-84,58,243,-194,262,253,185,138,128,12,-240,54
22387,151,-115,83,-315,-255,-149,-168,-69,146,32,104,-12,-17,74,199,-35,-461,-560,90,-87,-100,82,191,-234,239,180,213,59,68,-45,-284,-22
22388,141,-95,128,-280,-242,-182,-169,47,170,39,-14,23,73,86,155,9,-582,-463,110,-101,-137,234,240,-229,236,157,191,70,-5,-196,-450,-217
22389,102,-19,237,-203,-247,-170,-123,58,179,6,-42,-469,99,99,127,-53,-559,-370,135,-90,-186,310,219,-182,253,173,189,49,8,-159,-403,-108
22390,167,35,326,-178,-241,-108,-113,77,204,15,2,-752,149,108,172,-80,-423,-283,164,-56,-156,310,303,-112,285,186,167,75,101,-94,-368,12
22391,145,4,401,-157,-276,-137,-156,66,172,20,-33,-663,103,66,143,-257,-476,-347,127,-70,-180,287,315,-116,250,189,215,30,91,-85,-321,25
22392,135,-10,355,-209,-267,-88,-169,-10,177,62,-5,-118,51,70,188,-231,-386,-460,143,-31,-98,343,352,-138,289,282,384,72,109,16,-232,176
22393,161,-25,231,-250,-241,-54,-165,-86,157,46,0,241,46,77,168,-176,-314,-452,133,-24,-38,457,460,-118,313,320,389,99,141,88,-90,403
22394,233,-1,259,-272,-207,51,-157,-103,179,41,40,311,61,97,225,-72,-364,-452,158,-17,-33,464,481,-91,323,315,339,70,159,149,13,486
22395,264,54,327,-277,-199,70,-140,-62,186,15,51,251,81,93,173,0,-347,-398,167,-42,-97,377,421,-82,299,237,265,114,159,90,-113,231
22396,202,92,386,-275,-211,-15,-150,-17,171,30,42,155,102,85,154,83,-383,-338,163,-37,-18,273,407,-63,300,225,350,173,144,88,-77,224
22397,160,62,369,-255,-218,-38,-105,106,183,41,49,-495,179,88,176,99,-455,-301,147,-57,-4,283,365,-128,263,197,331,90,36,-110,-351,-54
22398,180,-20,366,-161,-207,-45,-153,184,200,28,58,-878,237,85,146,-55,-490,-237,163,-118,-150,446,425,-79,252,143,203,164,47,-184,-502,-349
22399,180,-77,439,-158,-231,-20,-206,50,191,48,35,-704,174,86,130,-688,-383,-263,176,-120,-206,456,459,-31,300,167,160,401,190,-15,-261,-12
22400,93,-17,379,-150,-219,94,-110,4,210,117,188,-389,152,106,236,-886,-257,-282,185,-59,-132,389,485,-9,325,250,243,275,235,119,-130,221
22401,-34,37,306,-154,-224,78,-112,-48,199,106,205,178,74,100,272,-276,-250,-162,183,-40,-100,344,541,20,327,279,340,349,260,171,-93,296
22402,-74,10,236,-243,-229,72,-125,-134,157,83,144,585,-4,98,260,217,-241,-272,156,-11,-35,192,617,17,349,328,513,349,313,210,-54,417
22403,103,-17,299,-248,-232,60,-177,-50,160,53,89,401,3,92,207,266,-245,-450,120,-16,-33,226,557,-17,312,298,493,197,209,105,-103,350
22404,235,-39,306,-226,-255,2,-134,65,157,30,58,207,28,68,187,185,-262,-440,109,-50,-118,387,540,-33,265,237,354,177,149,22,-195,199
22405,257,-92,242,-267,-276,-16,-144,-15,139,16,53,174,8,66,198,183,-298,-431,120,-67,-113,327,474,-58,272,274,364,-5,99,62,-56,396
22406,244,-147,255,-323,-271,-91,-284,-38,125,1,-13,327,34,56,175,130,-344,-429,82,-82,-119,316,375,-86,238,256,351,-94,33,-11,-106,308
22407,265,-223,339,-298,-261,18,-325,-16,144,14,16,278,91,35,145,-34,-312,-402,81,-120,-196,340,390,-88,192,129,78,86,-15,-236,-533,-370
22408,248,-179,450,-298,-232,227,-314,26,155,55,-16,-406,121,54,149,-37,-425,-344,120,-106,-154,226,375,-72,224,127,152,52,12,-182,-502,-237
22409,305,-44,558,-301,-257,7,-239,78,161,28,-74,-1295,156,64,145,-119,-549,-344,130,-100,-151,295,395,-58,239,170,219,138,62,-69,-316,155
22410,402,63,650,-261,-252,-239,-21,101,182,-1,13,-1078,163,90,168,-167,-482,-284,167,-64,-135,435,495,-15,296,232,232,175,143,55,-99,383
22411,394,20,645,-243,-265,-140,-122,109,171,7,31,-342,138,88,165,-288,-410,-282,150,-107,-219,365,583,-65,273,150,103,61,87,-43,-272,-94
22412,353,86,542,-244,-241,-91,-22,7,169,60,93,122,85,101,236,-215,-254,-356,133,-28,-116,435,541,-52,328,219,214,250,156,-12,-289,-213
22413,383,160,536,-247,-233,-98,24,-53,169,50,119,218,41,133,244,-8,-235,-378,138,10,-12,499,434,-44,356,302,375,163,140,28,-208,5
22414,389,165,477,-290,-265,-103,-16,-103,154,52,83,330,12,120,248,64,-179,-419,139,0,-4,456,448,-30,345,280,410,157,148,64,-156,215
22415,290,178,411,-274,-265,-113,7,-88,180,28,97,251,45,112,247,167,-164,-424,184,17,-14,434,475,-8,352,263,402,194,192,91,-93,309
22416,134,28,379,-182,-268,-112,-24,-61,182,47,55,139,120,110,188,224,-210,-372,200,-13,-35,426,486,22,359,285,377,247,203,85,-150,220
22417,164,-11,429,-177,-278,-74,-65,3,203,37,30,91,154,123,164,132,-180,-327,231,-13,-81,521,509,28,369,278,295,415,247,100,-192,-67
22418,263,0,497,-176,-277,-108,-53,61,203,47,53,40,134,119,169,131,-270,-282,256,1,-85,436,540,11,386,282,301,368,292,135,-155,70
22419,260,-20,487,-173,-272,-98,-112,137,179,30,2,6,125,109,158,139,-281,-304,240,-20,-76,320,561,11,376,255,380,339,325,140,-129,122
22420,175,12,459,-193,-261,-16,-110,81,206,52,-1,-228,149,143,234,126,-281,-330,235,21,8,319,577,36,398,315,501,383,342,214,-29,220
22421,30,20,403,-247,-270,15,-62,13,180,46,46,-269,103,142,237,71,-517,-375,203,17,21,402,452,8,404,355,550,199,273,260,101,449
22422,-111,28,312,-202,-314,0,-78,79,156,37,41,-389,104,96,191,-68,-529,-390,185,-15,-78,437,404,-60,356,251,384,21,163,138,-5,368
22423,-16,18,315,-134,-317,24,-137,14,158,35,-8,-411,113,92,174,-164,-464,-365,149,-57,-152,462,499,-97,310,189,231,-12,55,-86,-289,8
22424,59,3,320,-183,-293,116,-180,-1,172,73,73,-206,120,114,229,-244,-507,-278,171,-19,-117,541,602,-16,364,247,333,52,168,21,-199,72
22425,152,-77,342,-258,-277,222,-242,-51,168,91,85,-287,76,103,217,-69,-585,-285,207,7,-100,529,530,6,381,275,321,131,208,104,-162,30
22426,269,-174,386,-303,-289,124,-284,-63,157,89,101,-207,86,116,235,54,-662,-324,233,33,-89,480,523,30,404,331,370,207,257,138,-128,-34
22427,324,-81,396,-337,-289,-11,-205,-99,151,72,96,136,80,124,221,118,-544,-245,201,10,-94,440,449,-1,400,329,460,254,246,108,-131,-12
22428,388,45,422,-311,-278,-107,-153,-57,163,55,62,25,61,104,199,58,-456,-318,168,-16,-60,406,423,-38,368,321,469,222,240,99,-151,69
22429,394,73,464,-329,-284,-104,-142,-68,151,56,118,-236,33,112,215,-99,-393,-483,160,-10,-15,381,476,-13,371,315,549,222,270,143,-75,241
22430,401,105,492,-341,-300,-96,-81,-21,163,30,149,-462,47,116,233,-30,-596,-466,165,-29,-4,229,411,-53,360,323,538,36,165,87,-69,285
22431,399,114,545,-235,-270,-41,-138,47,194,80,98,-111,113,147,245,11,-601,-383,187,-26,-39,272,463,-51,352,288,414,101,184,111,-74,115
22432,332,129,506,-233,-282,-8,-168,59,196,39,48,-22,145,124,181,-61,-564,-339,175,-59,-146,408,410,-48,313,195,252,261,160,37,-184,-64
22433,291,78,506,-188,-299,9,-199,98,186,36,3,-468,135,103,146,-89,-753,-361,139,-112,-192,287,288,-89,251,124,166,26,88,-7,-220,67
22434,321,62,455,-180,-269,118,-225,77,191,73,3,-844,119,119,190,-136,-623,-357,142,-102,-169,209,331,-76,270,159,176,0,70,-6,-183,134
22435,322,21,422,-217,-262,203,-314,8,173,50,37,-904,70,91,247,-117,-401,-484,113,-52,-146,239,354,-105,269,200,284,-18,36,3,-86,186
22436,271,-4,362,-199,-299,56,-256,-102,144,52,68,-360,3,61,190,-185,-333,-551,67,-102,-211,315,368,-153,228,138,154,94,12,-66,-245,95
22437,283,38,304,-169,-288,-88,-56,-134,152,77,107,220,-16,82,179,-331,-288,-527,80,-107,-219,369,445,-120,239,108,129,162,30,-86,-315,72
22438,200,66,192,-152,-298,-18,-95,-155,146,76,98,420,-58,74,181,-880,-448,-534,103,-110,-213,407,353,-140,227,87,183,113,41,-87,-297,104
22439,98,76,149,-137,-287,-67,-133,-69,168,27,32,247,-25,80,156,-526,-538,-518,93,-143,-251,386,300,-162,202,65,161,101,23,-95,-334,65
22440,170,93,211,-213,-270,-52,-157,-81,170,27,3,252,12,96,156,-56,-539,-479,96,-147,-246,353,294,-154,213,74,166,32,-5,-146,-372,-11
22441,359,78,275,-265,-256,-46,-114,-46,177,64,-15,-166,34,97,153,74,-486,-445,106,-121,-228,312,319,-110,239,97,215,20,-9,-178,-401,0
22442,454,102,390,-272,-251,-135,-90,-44,169,52,-38,-557,68,89,149,7,-558,-447,115,-139,-209,255,322,-92,262,131,288,4,42,-114,-345,69
22443,362,128,453,-314,-266,-116,-124,-98,135,35,12,-429,67,81,151,-55,-490,-483,92,-144,-219,201,297,-101,255,141,282,293,88,-85,-326,14
22444,215,126,364,-302,-282,-111,-229,-164,121,47,23,-301,-2,73,161,-59,-386,-531,61,-144,-209,140,252,-126,239,109,155,258,100,-57,-323,-34
22445,163,44,320,-316,-270,-158,-423,-60,138,28,-51,-309,55,101,131,-51,-560,-456,86,-152,-221,214,337,-65,263,128,88,321,135,15,-333,-41
22446,214,-2,324,-264,-278,-117,-460,19,160,30,-49,-337,117,93,112,-70,-709,-351,125,-173,-223,133,374,-60,236,90,28,7,78,-74,-440,-225
22447,260,38,295,-249,-258,-69,-325,-17,182,69,-23,-312,129,107,165,-52,-660,-362,134,-136,-172,151,428,-33,262,120,180,-206,26,-67,-323,-22
22448,157,20,254,-213,-302,-93,-328,-81,171,22,-42,-202,128,72,100,-135,-654,-443,97,-180,-227,247,323,-97,234,95,179,-187,-51,-118,-309,25
22449,77,28,238,-274,-312,-78,-282,-65,149,-10,-108,-266,88,41,73,-148,-879,-542,45,-234,-325,241,85,-228,162,47,85,-301,-182,-294,-519,-244
22450,145,3,336,-265,-293,-77,-284,-70,169,31,-88,-613,68,75,80,-21,-878,-393,76,-187,-244,145,147,-199,221,95,247,-298,-138,-185,-380,-36
22451,176,-124,318,-266,-284,-92,-366,16,157,29,-79,-767,29,61,70,-91,-719,-349,99,-169,-177,186,128,-177,218,127,333,-240,-97,-99,-260,171
22452,174,-197,317,-278,-260,-100,-348,-7,141,28,-64,-568,-17,52,64,-222,-609,-384,56,-177,-202,288,35,-220,188,91,246,-132,-115,-171,-429,-89
22453,150,-203,355,-319,-274,16,-244,-174,101,36,-27,-119,-62,53,100,-189,-569,-562,44,-177,-232,288,166,-191,197,68,155,-48,-73,-136,-392,-195
22454,110,-200,330,-333,-283,67,-201,-146,130,35,-10,-78,-22,69,143,-295,-592,-568,68,-157,-242,228,211,-161,214,58,123,27,-5,-59,-342,-84
22455,73,-93,318,-343,-267,20,-255,-115,134,58,-8,-309,7,76,175,-563,-487,-511,95,-151,-265,273,299,-147,237,83,133,59,8,-84,-352,-51
22456,128,20,258,-394,-282,8,-303,-110,126,27,-38,-241,-29,68,116,-592,-366,-537,81,-141,-263,370,371,-137,245,106,219,156,74,1,-226,12
22457,183,-60,261,-392,-259,26,-323,-79,116,22,16,-123,-10,67,110,-500,-429,-511,87,-117,-228,290,373,-83,255,120,249,114,91,40,-125,165
22458,150,-73,261,-298,-250,-17,-356,-33,143,30,6,-387,1,70,119,-515,-472,-513,67,-125,-273,268,315,-106,251,143,235,3,64,47,-103,320
22459,159,-31,244,-284,-249,-27,-359,-24,154,25,-62,-481,6,75,137,-332,-452,-496,64,-124,-281,292,283,-128,232,104,219,-34,32,-16,-266,-32
22460,245,32,191,-324,-243,-127,-351,-12,174,38,-84,-16,24,65,140,-35,-479,-408,107,-117,-190,267,362,-76,255,150,305,58,20,-81,-293,-61
22461,212,73,236,-222,-273,-143,-342,-53,142,22,-152,-205,9,54,81,50,-414,-428,81,-159,-260,136,364,-112,205,48,169,103,-56,-160,-426,-90
22462,272,150,347,-202,-241,-149,-279,-22,169,20,-133,-389,30,89,77,139,-538,-443,100,-158,-245,125,382,-100,212,33,149,43,-51,-164,-507,-248
22463,291,123,360,-188,-219,-130,-291,-59,188,47,-99,-102,63,116,159,181,-667,-358,136,-89,-70,121,535,-32,280,162,515,-8,11,-75,-319,-108
22464,274,44,341,-226,-254,-84,-246,-113,175,57,-47,33,59,117,237,167,-544,-325,149,-47,31,187,526,-11,304,220,639,126,82,-12,-185,1
22465,230,28,307,-282,-273,-103,-253,-106,161,47,-86,20,24,107,143,5,-449,-340,145,-92,-121,144,396,-60,284,140,224,226,110,10,-171,49
22466,301,22,346,-250,-289,-71,-282,-41,157,46,-102,72,44,79,91,-55,-456,-396,101,-141,-250,116,293,-132,237,70,5,154,4,-100,-344,-43
22467,369,-55,315,-164,-265,21,-390,1,181,68,-113,349,51,73,89,-45,-596,-375,98,-163,-264,85,321,-115,214,20,-66,-25,-57,-175,-410,-155
22468,323,-154,151,-223,-282,21,-402,53,148,49,-49,-179,83,55,85,-140,-626,-395,61,-163,-316,163,187,-175,186,-24,-87,-67,-110,-244,-496,-275
22469,208,-190,237,-189,-299,-196,-228,161,178,11,-86,-1041,178,90,72,-221,-475,-378,106,-135,-302,282,243,-132,228,1,1,72,-45,-189,-409,-87
22470,161,-101,264,-176,-278,-83,-308,201,236,23,-107,-982,155,128,134,-263,-479,-409,149,-103,-250,294,267,-133,269,66,108,56,-26,-110,-299,72
22471,90,-89,242,-214,-303,57,-295,40,201,39,-187,-477,88,111,130,23,-447,-450,126,-82,-174,247,229,-139,272,134,210,-34,-17,-64,-292,48
22472,47,-135,262,-287,-304,29,-441,-107,160,37,-196,-76,6,118,132,134,-327,-512,120,-74,-185,260,305,-108,311,170,214,74,80,75,-133,203
22473,62,-153,242,-330,-291,-2,-374,-178,140,60,-91,70,2,116,159,-18,-352,-448,133,-48,-186,418,311,-46,325,185,264,160,142,152,43,433
22474,166,-63,231,-310,-230,17,-268,-184,157,50,-34,85,50,141,183,-91,-274,-436,137,-48,-213,435,366,-59,301,112,150,124,35,-80,-317,45
