,Fp1,Fp2,F7,F3,Fz,F4,F8,FC5,FC1,FC2,FC6,T7,C3,Cz,C4,T8,TP9,CP5,CP1,CP2,CP6,TP10,P7,P3,Pz,P4,P8,PO9,O1,Oz,O2,PO10
138414,-478,-852,-255,-574,-392,-367,-194,-314,-154,-314,-235,-152,-158,-420,67,-177,-509,-742,-210,-4,-438,-124,-142,-216,22,-152,-139,-453,-124,-713,-255,-609
138415,-460,-804,-277,-593,-386,-335,-154,-276,-146,-308,-225,-147,-162,-423,72,-315,-479,-725,-187,9,-429,-180,-185,-231,8,-157,-154,-532,-135,-761,-305,-642
138416,-448,-778,-302,-626,-408,-316,-115,-278,-166,-314,-253,-231,-187,-420,57,-415,-518,-753,-212,-10,-447,-269,-239,-263,0,-165,-133,-481,-136,-747,-303,-637
138417,-465,-866,-313,-647,-407,-329,-102,-323,-180,-315,-277,-253,-207,-421,47,-236,-541,-776,-215,0,-437,-234,-266,-277,5,-145,-53,-392,-115,-729,-286,-637
138418,-474,-913,-406,-670,-426,-370,-188,-310,-184,-340,-248,-279,-186,-437,55,-226,-510,-751,-209,16,-394,-138,-273,-269,14,-123,61,-399,-109,-730,-289,-688
138419,-510,-931,-468,-700,-428,-357,-188,-352,-178,-346,-227,-253,-184,-437,59,-242,-505,-792,-219,-11,-366,-158,-312,-285,4,-119,83,-432,-116,-714,-263,-689
138420,-536,-946,-428,-717,-436,-367,-190,-410,-181,-355,-227,-285,-242,-456,79,-213,-502,-877,-234,-13,-352,-165,-353,-341,-2,-121,6,-461,-168,-767,-257,-710
138421,-538,-934,-432,-756,-452,-378,-228,-440,-192,-339,-262,-304,-247,-463,52,-224,-589,-881,-268,-13,-384,-138,-375,-336,-23,-134,-110,-467,-168,-765,-254,-613
138422,-533,-908,-440,-776,-458,-375,-224,-462,-196,-328,-272,-341,-266,-455,32,-213,-691,-880,-275,-32,-426,-163,-384,-334,-17,-146,-156,-498,-155,-753,-259,-610
138423,-529,-927,-386,-738,-447,-381,-217,-451,-190,-337,-255,-372,-276,-456,31,-217,-690,-913,-283,-47,-429,-194,-410,-362,-34,-151,-150,-566,-208,-805,-286,-565
138424,-525,-908,-341,-747,-443,-376,-218,-471,-182,-338,-290,-395,-293,-462,26,-212,-679,-945,-296,-63,-445,-172,-436,-406,-49,-172,-162,-507,-202,-789,-268,-529
138425,-533,-899,-309,-707,-429,-393,-186,-474,-178,-334,-267,-400,-298,-454,23,-211,-665,-959,-316,-74,-462,-113,-415,-422,-79,-211,-204,-461,-187,-783,-285,-571
138426,-609,-929,-345,-688,-434,-423,-210,-495,-172,-347,-252,-423,-294,-460,4,-191,-697,-968,-329,-96,-491,-124,-375,-408,-96,-222,-187,-510,-196,-783,-307,-628
138427,-621,-954,-340,-697,-442,-428,-209,-504,-171,-360,-274,-434,-303,-477,-19,-143,-754,-974,-333,-108,-512,-146,-383,-438,-107,-228,-180,-500,-180,-790,-293,-633
138428,-598,-983,-367,-693,-447,-437,-205,-505,-165,-358,-258,-460,-321,-477,-32,-143,-675,-1002,-341,-120,-524,-168,-395,-444,-110,-236,-181,-415,-157,-772,-293,-576
138429,-546,-1008,-367,-714,-431,-430,-192,-502,-163,-367,-233,-499,-341,-479,-37,-192,-661,-1018,-349,-136,-522,-133,-439,-460,-111,-229,-129,-398,-136,-757,-262,-533
138430,-473,-1065,-305,-631,-423,-400,-188,-451,-168,-387,-261,-498,-322,-501,-55,-367,-668,-1036,-362,-154,-558,-32,-472,-485,-145,-259,-99,-442,-180,-741,-244,-531
138431,-481,-1150,-312,-620,-410,-392,-173,-449,-166,-394,-293,-509,-333,-527,-79,-315,-622,-1041,-378,-181,-561,9,-451,-515,-161,-250,-39,-386,-179,-714,-191,-431
138432,-514,-1079,-366,-604,-400,-394,-202,-401,-156,-373,-287,-521,-314,-524,-68,-212,-671,-996,-367,-174,-537,47,-375,-510,-133,-230,16,-375,-154,-690,-151,-327
138433,-497,-991,-392,-593,-392,-407,-228,-418,-149,-403,-300,-479,-300,-519,-65,-232,-643,-995,-370,-157,-540,70,-340,-484,-120,-216,67,-338,-145,-631,-96,-192
138434,-487,-925,-380,-575,-373,-407,-219,-567,-153,-389,-271,-456,-327,-525,-78,-228,-544,-1004,-365,-152,-539,67,-377,-490,-128,-203,99,-340,-140,-645,-118,-291
138435,-471,-925,-352,-536,-375,-399,-242,-319,-144,-391,-258,-467,-293,-532,-80,-278,-561,-998,-353,-168,-571,25,-431,-505,-147,-239,59,-329,-161,-680,-177,-486
138436,-425,-913,-294,-523,-392,-388,-241,-259,-147,-387,-226,-412,-281,-538,-62,-244,-597,-972,-379,-183,-568,-22,-442,-521,-156,-237,47,-326,-138,-685,-161,-420
138437,-402,-906,-257,-538,-390,-371,-238,-369,-152,-369,-243,-363,-306,-551,-61,-157,-572,-966,-387,-174,-554,28,-414,-516,-161,-230,35,-305,-123,-648,-142,-394
138438,-394,-884,-239,-539,-390,-355,-172,-383,-161,-363,-238,-336,-323,-543,-29,-115,-476,-1014,-377,-155,-525,-3,-351,-503,-138,-215,62,-274,-129,-659,-206,-490
138439,-414,-886,-278,-587,-388,-351,-119,-388,-174,-365,-208,-295,-322,-526,3,-86,-463,-1004,-366,-127,-473,-137,-321,-510,-115,-171,139,-272,-120,-652,-200,-522
138440,-447,-866,-273,-581,-379,-332,-91,-403,-154,-344,-172,-294,-327,-507,19,-214,-456,-985,-362,-93,-464,-24,-311,-487,-94,-157,143,-258,-120,-623,-88,-399
138441,-459,-859,-233,-601,-391,-347,-66,-415,-157,-346,-187,-264,-311,-494,9,-303,-434,-949,-327,-73,-459,158,-249,-448,-34,-135,169,-167,-56,-540,-4,-261
138442,-456,-852,-199,-596,-387,-342,-15,-372,-165,-327,-178,-235,-292,-456,33,-128,-382,-922,-309,-45,-432,184,-234,-424,0,-102,177,-140,-34,-532,-17,-260
138443,-486,-846,-200,-593,-391,-315,-27,-329,-162,-299,-137,-245,-285,-451,88,-42,-355,-916,-287,-6,-337,161,-235,-428,21,-54,215,-109,11,-493,20,-169
138444,-414,-846,-158,-574,-392,-287,-18,-343,-165,-289,-93,-207,-269,-440,106,-19,-339,-885,-281,11,-318,96,-195,-416,26,-54,219,-105,38,-461,43,-149
138445,-380,-860,-181,-593,-401,-276,29,-442,-166,-278,-73,-182,-269,-463,138,17,-318,-875,-277,27,-304,-19,-175,-381,43,-33,215,-107,51,-455,61,-154
138446,-350,-897,-204,-638,-392,-269,44,-437,-188,-272,-46,-183,-302,-460,154,20,-295,-885,-290,42,-263,140,-164,-390,53,-3,284,-57,52,-447,64,-161
138447,-359,-891,-219,-662,-407,-241,4,-397,-197,-294,-42,-217,-317,-490,154,-10,-254,-899,-302,27,-247,346,-158,-391,53,10,307,-33,55,-428,88,-107
138448,-354,-856,-226,-660,-407,-246,15,-357,-189,-285,-74,-212,-293,-487,162,-28,-203,-880,-266,29,-265,376,-146,-366,58,12,282,-35,67,-440,98,-93
138449,-355,-812,-279,-639,-398,-249,7,-324,-166,-277,-81,-226,-268,-469,157,-14,-181,-845,-246,60,-236,328,-110,-341,88,27,240,-21,92,-429,74,-203
138450,-399,-835,-360,-658,-428,-262,5,-359,-169,-285,-95,-232,-268,-466,149,-58,-181,-850,-241,47,-252,323,-97,-325,83,27,236,-52,98,-417,78,-226
138451,-389,-888,-308,-659,-420,-287,-30,-361,-167,-287,-159,-244,-252,-461,126,-100,-183,-829,-225,43,-289,345,-81,-304,100,40,284,-46,114,-386,112,-169
138452,-347,-818,-196,-638,-387,-286,-31,-322,-130,-280,-124,-143,-200,-443,143,-86,-140,-788,-207,66,-269,371,-19,-287,116,56,296,41,139,-375,130,-92
138453,-366,-774,-161,-632,-393,-284,-62,-352,-135,-290,-99,-170,-200,-443,126,-86,-120,-785,-211,60,-272,391,-20,-270,102,70,314,86,143,-381,150,-56
138454,-368,-780,-154,-637,-393,-314,-84,-339,-145,-292,-140,-158,-213,-455,130,-113,-145,-789,-201,56,-287,375,-70,-253,116,63,329,46,112,-383,143,-82
138455,-341,-786,-166,-601,-395,-328,-82,-307,-137,-305,-169,-170,-207,-434,122,-123,-143,-799,-191,73,-270,367,-97,-259,118,70,327,37,92,-376,148,-83
138456,-361,-791,-211,-575,-395,-338,-106,-342,-139,-297,-191,-197,-216,-442,102,-119,-224,-811,-195,70,-306,315,-117,-286,93,41,299,24,86,-445,104,-112
138457,-395,-827,-254,-597,-393,-366,-122,-321,-136,-318,-204,-218,-204,-444,113,-133,-234,-814,-195,61,-300,297,-142,-284,83,58,308,-4,69,-454,67,-207
138458,-468,-874,-254,-541,-401,-394,-155,-308,-138,-336,-256,-267,-207,-458,84,-131,-172,-823,-221,31,-276,233,-140,-275,85,59,348,17,89,-440,75,-160
138459,-473,-943,-286,-543,-420,-426,-177,-335,-133,-354,-243,-277,-230,-477,59,-140,-185,-826,-246,26,-273,86,-143,-286,80,25,373,-40,40,-491,27,-126
138460,-455,-956,-279,-565,-417,-409,-158,-395,-126,-348,-218,-249,-227,-463,73,-108,-254,-818,-246,31,-242,33,-121,-296,73,27,456,-236,7,-544,-32,-285
138461,-491,-934,-385,-648,-420,-426,-160,-595,-143,-347,-213,-207,-245,-447,105,-82,-267,-803,-225,66,-209,76,-52,-274,91,60,446,-199,14,-527,22,-307
138462,-530,-978,-496,-675,-435,-455,-220,-515,-143,-345,-264,-233,-253,-439,73,-114,-327,-829,-237,49,-272,78,-95,-304,85,28,244,-102,7,-521,11,-250
138463,-517,-1069,-452,-658,-423,-449,-235,-379,-141,-350,-287,-312,-255,-423,62,-147,-360,-858,-263,18,-311,53,-166,-355,60,-13,96,-200,-27,-556,-34,-352
138464,-497,-1059,-343,-631,-423,-443,-237,-421,-168,-352,-276,-283,-275,-453,47,-190,-364,-873,-285,-20,-373,41,-140,-383,40,-58,8,-233,-46,-567,-72,-363
138465,-454,-991,-219,-598,-407,-416,-198,-394,-162,-356,-266,-255,-276,-468,49,-199,-343,-873,-293,-22,-392,53,-103,-387,11,-86,-10,-260,-59,-603,-91,-344
138466,-379,-902,-127,-605,-399,-380,-158,-370,-153,-340,-228,-263,-284,-477,37,-123,-342,-881,-304,-36,-395,30,-144,-399,-14,-93,-36,-246,-82,-634,-130,-418
138467,-364,-871,-122,-635,-373,-353,-148,-377,-157,-324,-212,-283,-292,-480,38,-86,-358,-896,-318,-61,-417,34,-226,-407,-20,-114,-4,-211,-68,-639,-133,-444
138468,-433,-909,-187,-649,-386,-329,-172,-401,-168,-312,-212,-307,-301,-468,53,-134,-415,-922,-328,-53,-422,38,-256,-411,-9,-116,-3,-192,-49,-654,-138,-437
138469,-489,-952,-261,-673,-420,-336,-204,-452,-196,-332,-224,-368,-319,-478,49,-254,-450,-957,-325,-34,-410,44,-317,-423,-24,-107,4,-186,-73,-642,-132,-418
138470,-480,-981,-261,-677,-431,-362,-195,-439,-188,-319,-222,-374,-322,-465,45,-390,-467,-971,-339,-47,-427,60,-354,-464,-33,-108,26,-209,-107,-623,-118,-401
138471,-509,-986,-256,-681,-424,-359,-193,-422,-188,-319,-224,-355,-342,-484,32,-266,-483,-1009,-366,-52,-434,2,-374,-473,-57,-127,29,-268,-139,-622,-132,-361
138472,-516,-978,-246,-680,-413,-343,-183,-437,-177,-314,-203,-351,-337,-499,54,-73,-505,-989,-349,-47,-413,-109,-363,-469,-63,-117,32,-342,-138,-669,-152,-332
138473,-500,-951,-252,-647,-386,-320,-134,-426,-179,-309,-163,-342,-314,-478,100,-35,-484,-974,-329,-38,-343,-147,-327,-464,-40,-76,172,-345,-136,-668,-174,-332
138474,-548,-987,-287,-684,-399,-307,-150,-438,-181,-315,-153,-359,-327,-484,86,-81,-606,-983,-349,-31,-298,-56,-348,-433,-56,-61,256,-338,-164,-699,-212,-539
138475,-617,-1035,-324,-690,-419,-319,-159,-443,-204,-327,-197,-419,-337,-501,58,-235,-677,-994,-359,-54,-342,-34,-366,-449,-55,-98,137,-374,-181,-738,-241,-735
138476,-669,-1036,-365,-676,-416,-362,-182,-447,-188,-335,-248,-472,-341,-502,39,-359,-653,-1012,-338,-73,-393,-26,-372,-452,-52,-133,-33,-365,-192,-748,-256,-642
138477,-628,-1030,-421,-685,-408,-378,-261,-494,-183,-349,-274,-479,-353,-504,10,-208,-604,-1022,-350,-96,-390,96,-370,-457,-61,-155,-95,-329,-157,-709,-230,-527
138478,-648,-1020,-493,-666,-393,-345,-270,-494,-178,-327,-257,-549,-332,-514,-12,-187,-547,-1002,-352,-99,-470,49,-358,-469,-90,-210,-196,-363,-177,-728,-268,-530
138479,-659,-1076,-470,-683,-409,-365,-290,-514,-197,-337,-292,-583,-361,-528,-28,-280,-575,-1055,-375,-123,-509,-3,-392,-475,-127,-262,-231,-431,-226,-794,-306,-561
138480,-618,-1099,-489,-720,-407,-376,-344,-542,-198,-354,-301,-605,-382,-546,-51,-293,-673,-1105,-396,-164,-527,-47,-426,-537,-167,-286,-256,-482,-293,-856,-351,-614
138481,-636,-1149,-519,-728,-389,-385,-369,-549,-181,-344,-314,-609,-382,-542,-74,-319,-722,-1117,-418,-163,-558,-92,-520,-548,-189,-319,-275,-510,-336,-923,-432,-719
138482,-686,-1212,-503,-722,-397,-451,-377,-573,-177,-338,-331,-584,-367,-539,-73,-315,-786,-1087,-395,-160,-539,-234,-539,-549,-179,-328,-303,-525,-332,-957,-479,-744
138483,-692,-1195,-527,-706,-399,-491,-372,-582,-192,-380,-352,-585,-356,-556,-77,-305,-792,-1083,-408,-178,-535,-316,-530,-544,-188,-324,-331,-543,-346,-964,-497,-775
138484,-660,-1138,-497,-684,-366,-504,-388,-560,-167,-415,-382,-511,-367,-549,-103,-351,-682,-1086,-408,-205,-592,-234,-504,-536,-188,-364,-361,-563,-346,-951,-498,-800
138485,-667,-1114,-482,-705,-348,-510,-423,-579,-171,-428,-406,-509,-390,-564,-120,-407,-686,-1068,-410,-225,-629,-266,-473,-548,-209,-384,-361,-617,-365,-961,-493,-783
138486,-687,-1149,-554,-711,-379,-536,-432,-583,-185,-431,-449,-529,-397,-568,-148,-439,-755,-1073,-410,-214,-636,-284,-479,-552,-217,-391,-365,-659,-391,-958,-493,-768
138487,-664,-1178,-655,-687,-364,-526,-447,-501,-137,-424,-494,-523,-373,-557,-140,-472,-754,-1066,-400,-210,-644,-308,-497,-537,-189,-400,-379,-662,-418,-967,-506,-823
138488,-624,-1141,-647,-648,-336,-507,-444,-409,-112,-438,-472,-502,-352,-538,-134,-482,-752,-1071,-390,-209,-663,-284,-513,-549,-197,-381,-382,-628,-426,-1005,-525,-890
138489,-655,-1151,-646,-641,-350,-519,-448,-452,-134,-424,-428,-499,-358,-545,-141,-477,-711,-1058,-403,-193,-656,-292,-516,-562,-205,-389,-347,-630,-433,-1006,-526,-841
138490,-662,-1212,-587,-619,-363,-509,-437,-472,-126,-421,-426,-522,-360,-552,-131,-437,-727,-1045,-397,-187,-619,-298,-524,-553,-199,-376,-320,-638,-409,-973,-497,-760
138491,-658,-1162,-518,-611,-349,-483,-427,-465,-123,-422,-416,-492,-337,-544,-86,-418,-663,-1024,-379,-181,-588,-269,-455,-509,-169,-337,-274,-593,-352,-934,-442,-664
138492,-573,-1106,-422,-581,-327,-451,-395,-457,-128,-413,-415,-430,-302,-526,-75,-374,-614,-960,-361,-167,-558,-302,-360,-452,-162,-326,-246,-610,-286,-884,-401,-600
138493,-516,-1066,-381,-567,-330,-443,-323,-446,-136,-398,-363,-405,-282,-528,-69,-344,-637,-941,-347,-168,-563,-313,-328,-446,-149,-306,-249,-582,-289,-884,-392,-631
138494,-515,-1081,-366,-576,-344,-455,-334,-606,-137,-414,-349,-330,-294,-528,-96,-354,-600,-899,-342,-184,-602,-179,-318,-466,-147,-323,-229,-456,-274,-865,-411,-702
138495,-509,-1074,-330,-539,-327,-443,-323,-451,-108,-405,-362,-332,-269,-514,-98,-357,-551,-890,-351,-173,-589,-188,-336,-471,-148,-317,-176,-425,-272,-862,-443,-755
138496,-539,-1034,-316,-547,-337,-458,-325,-346,-128,-393,-376,-379,-297,-527,-92,-398,-609,-981,-383,-179,-587,-294,-420,-516,-182,-327,-144,-440,-290,-880,-449,-711
138497,-503,-996,-342,-578,-329,-435,-343,-407,-122,-391,-366,-370,-304,-519,-106,-368,-649,-943,-384,-192,-585,-258,-418,-519,-186,-332,-119,-480,-266,-831,-393,-610
138498,-498,-984,-283,-556,-341,-448,-359,-448,-130,-402,-382,-372,-326,-538,-111,-296,-634,-958,-392,-215,-563,-217,-400,-522,-192,-340,1,-544,-267,-831,-398,-698
138499,-454,-946,-252,-569,-321,-434,-310,-455,-137,-385,-352,-392,-348,-545,-70,-238,-627,-994,-411,-194,-513,-124,-414,-532,-186,-295,81,-524,-231,-790,-308,-623
138500,-391,-952,-217,-580,-308,-414,-309,-407,-124,-346,-303,-357,-325,-538,-51,-253,-578,-963,-400,-182,-541,-74,-348,-514,-197,-293,-31,-513,-243,-815,-302,-498
138501,-415,-1012,-210,-585,-303,-408,-308,-393,-130,-355,-280,-336,-324,-551,-57,-359,-555,-968,-407,-207,-548,-131,-314,-521,-221,-307,-112,-420,-255,-816,-313,-440
138502,-411,-976,-201,-576,-295,-377,-251,-388,-120,-354,-272,-335,-309,-550,-52,-441,-539,-977,-391,-170,-533,-260,-358,-526,-194,-293,-28,-351,-243,-794,-338,-611
138503,-385,-932,-194,-558,-290,-386,-245,-365,-117,-352,-300,-361,-315,-537,-54,-300,-512,-979,-391,-166,-521,-200,-374,-517,-178,-271,0,-339,-252,-822,-342,-753
138504,-429,-964,-263,-575,-293,-428,-303,-384,-134,-358,-343,-394,-320,-554,-71,-237,-514,-1000,-413,-175,-515,-144,-385,-526,-178,-257,-14,-309,-222,-779,-293,-498
138505,-432,-1039,-272,-589,-324,-414,-289,-397,-147,-366,-328,-423,-325,-543,-58,-279,-539,-1034,-401,-155,-493,-65,-364,-532,-165,-246,-36,-365,-200,-753,-239,-393
138506,-423,-1045,-264,-572,-329,-407,-293,-417,-139,-355,-316,-409,-327,-512,-41,-297,-547,-1031,-390,-148,-479,-36,-274,-506,-179,-224,-35,-440,-173,-758,-218,-453
138507,-441,-1011,-313,-543,-333,-411,-308,-398,-129,-347,-301,-389,-312,-501,-29,-326,-540,-987,-363,-117,-466,0,-227,-467,-122,-221,-55,-332,-147,-764,-236,-569
138508,-490,-987,-367,-535,-336,-406,-332,-354,-119,-346,-264,-387,-282,-498,1,-291,-525,-971,-321,-65,-443,59,-213,-414,-70,-178,-42,-218,-64,-664,-149,-459
138509,-502,-985,-328,-515,-333,-402,-335,-316,-96,-329,-249,-375,-258,-462,14,-250,-544,-964,-290,-46,-437,115,-260,-391,-33,-141,-35,-189,-54,-605,-125,-397
138510,-473,-1012,-295,-513,-347,-400,-383,-303,-101,-341,-278,-423,-262,-462,28,-192,-598,-966,-293,-48,-415,86,-332,-421,-33,-134,-70,-170,-58,-602,-151,-441
138511,-425,-1075,-257,-526,-356,-419,-343,-304,-104,-333,-312,-447,-259,-471,22,-199,-579,-990,-288,-41,-409,121,-314,-395,-27,-128,-26,-161,-17,-575,-105,-385
138512,-409,-1094,-223,-521,-358,-432,-314,-305,-102,-320,-278,-476,-264,-467,25,-215,-469,-977,-292,-44,-395,187,-290,-378,-14,-127,87,-154,14,-541,-88,-373
138513,-462,-1056,-317,-530,-368,-412,-345,-297,-103,-318,-265,-426,-243,-444,32,-200,-467,-959,-285,-35,-370,214,-294,-380,-7,-100,174,-150,6,-540,-39,-343
138514,-473,-1046,-358,-566,-369,-418,-311,-325,-111,-335,-263,-371,-245,-460,30,-204,-430,-965,-288,-47,-379,198,-277,-383,-16,-95,129,-152,-6,-529,-41,-288
138515,-432,-977,-288,-543,-369,-419,-270,-244,-99,-322,-237,-371,-254,-465,47,-186,-342,-928,-285,-36,-389,175,-263,-366,-12,-79,95,-138,15,-495,-23,-249
138516,-428,-911,-255,-558,-379,-402,-256,-265,-112,-320,-234,-351,-247,-445,40,-182,-280,-916,-291,-34,-376,146,-240,-368,-24,-72,88,-133,5,-495,-42,-313
138517,-430,-920,-230,-597,-391,-405,-235,-333,-122,-333,-231,-368,-246,-446,32,-162,-326,-932,-298,-41,-383,132,-272,-372,-27,-82,84,-142,0,-494,-21,-331
138518,-459,-1053,-229,-603,-415,-442,-262,-374,-141,-334,-242,-327,-262,-470,35,-93,-359,-921,-300,-37,-403,68,-243,-388,-42,-113,41,-173,0,-530,-38,-331
138519,-480,-1091,-249,-610,-417,-432,-238,-368,-136,-339,-246,-278,-246,-467,46,-80,-443,-888,-286,-30,-407,63,-193,-359,-33,-128,36,-225,-14,-556,-50,-363
138520,-473,-1029,-230,-640,-421,-413,-212,-357,-136,-296,-214,-250,-224,-435,85,-91,-376,-876,-260,-12,-362,104,-186,-330,6,-108,94,-193,12,-544,-38,-341
138521,-469,-967,-211,-655,-422,-430,-215,-357,-142,-294,-204,-288,-207,-445,90,-236,-338,-869,-227,14,-360,120,-169,-318,35,-71,156,-160,55,-502,-7,-337
138522,-455,-970,-201,-649,-429,-431,-214,-378,-150,-311,-220,-284,-211,-481,78,-204,-327,-843,-245,6,-365,89,-129,-309,29,-73,142,-231,62,-475,-13,-330
138523,-420,-957,-132,-613,-435,-417,-192,-344,-145,-317,-203,-264,-198,-455,72,-107,-319,-802,-232,-4,-369,77,-66,-290,20,-73,107,-239,79,-458,0,-328
138524,-407,-967,-121,-578,-440,-379,-187,-406,-122,-305,-188,-198,-175,-449,73,-140,-308,-760,-197,9,-374,168,-29,-267,48,-57,94,-139,108,-427,53,-234
138525,-371,-963,-129,-577,-417,-383,-187,-471,-112,-294,-185,-96,-168,-465,68,-123,-269,-726,-205,18,-383,133,-54,-245,69,-58,78,-101,135,-402,53,-230
138526,-358,-967,-106,-526,-392,-382,-198,-160,-76,-289,-197,-103,-115,-436,67,-138,-239,-715,-184,15,-400,100,-78,-241,81,-52,51,-130,127,-398,43,-297
138527,-350,-984,-118,-533,-404,-369,-183,-157,-79,-275,-189,-68,-102,-427,64,-158,-199,-677,-164,28,-422,83,-16,-218,98,-30,39,-87,129,-380,72,-318
138528,-382,-1022,-120,-570,-425,-385,-227,-190,-93,-294,-233,-53,-131,-445,49,-200,-239,-690,-181,20,-434,78,29,-242,82,-44,64,-83,96,-445,23,-303
138529,-413,-1032,-102,-565,-413,-385,-220,-125,-86,-298,-254,-47,-108,-432,39,-190,-185,-651,-184,20,-457,22,91,-238,82,-59,36,-104,92,-464,1,-290
138530,-415,-1037,-157,-589,-417,-367,-203,-148,-89,-279,-215,-185,-104,-436,45,-183,-200,-626,-171,9,-449,-74,78,-207,99,-80,18,-133,105,-473,-5,-333
138531,-436,-1039,-187,-571,-420,-361,-191,-164,-90,-298,-207,-283,-130,-441,47,-154,-222,-677,-173,23,-449,27,5,-226,102,-89,24,-118,110,-467,-11,-350
138532,-467,-1042,-224,-604,-443,-417,-191,-159,-106,-316,-230,-26,-133,-445,41,-99,-266,-709,-197,4,-459,19,-49,-241,72,-98,2,-37,121,-457,-11,-368
138533,-465,-1035,-199,-594,-458,-436,-229,-136,-121,-307,-234,13,-115,-445,41,-81,-194,-673,-186,-7,-456,-93,-28,-234,61,-115,-21,-22,91,-517,-83,-472
138534,-520,-1008,-150,-559,-450,-387,-258,-156,-105,-289,-213,-39,-116,-421,70,-117,-215,-681,-180,30,-413,-42,-60,-234,72,-82,61,-57,74,-515,-57,-475
138535,-530,-994,-128,-573,-458,-384,-281,-211,-122,-308,-207,-46,-133,-445,73,-219,-282,-701,-192,27,-403,-53,-104,-256,68,-70,106,-82,65,-534,-41,-427
138536,-524,-1045,-152,-609,-484,-393,-261,-253,-126,-332,-231,-61,-154,-456,63,-346,-337,-720,-205,10,-394,-28,-119,-282,50,-102,93,-130,40,-557,-67,-345
138537,-528,-1061,-159,-624,-460,-395,-211,-276,-125,-313,-230,-66,-148,-440,50,-219,-316,-742,-192,1,-398,-85,-107,-264,53,-95,71,-110,19,-568,-56,-374
138538,-512,-1048,-158,-607,-429,-412,-185,-268,-110,-297,-207,-78,-149,-439,54,-189,-259,-741,-181,14,-406,9,-89,-241,67,-79,66,-57,58,-543,-38,-320
138539,-489,-1090,-150,-617,-441,-435,-212,-250,-123,-315,-221,-114,-153,-433,45,-264,-253,-747,-202,2,-436,38,-89,-234,72,-86,33,-57,50,-576,-69,-336
138540,-499,-1108,-170,-630,-441,-421,-257,-246,-136,-317,-257,-141,-152,-456,14,-286,-281,-771,-210,-7,-436,91,-118,-249,50,-96,66,-86,44,-603,-86,-379
138541,-517,-1118,-188,-614,-415,-429,-282,-258,-114,-310,-270,-165,-159,-459,17,-214,-249,-764,-229,-15,-419,43,-139,-248,49,-76,140,-78,23,-577,-78,-367
138542,-501,-1065,-221,-636,-416,-393,-239,-268,-125,-324,-235,-234,-174,-471,34,-178,-207,-763,-226,-9,-375,50,-155,-250,53,-66,148,-49,42,-547,-84,-367
138543,-491,-1090,-298,-671,-440,-351,-275,-295,-151,-328,-318,-289,-192,-472,46,-210,-175,-842,-230,7,-366,76,-161,-259,57,-57,166,-13,86,-502,-51,-300
138544,-498,-1105,-292,-658,-436,-389,-296,-305,-144,-314,-327,-308,-203,-460,43,-213,-281,-811,-222,6,-356,32,-123,-263,68,-58,173,-60,94,-544,-66,-254
138545,-514,-1145,-267,-636,-420,-414,-287,-266,-133,-320,-264,-245,-203,-457,38,-208,-369,-801,-223,5,-337,6,-117,-254,68,-55,212,-72,76,-569,-113,-403
138546,-522,-1147,-298,-642,-421,-422,-289,-268,-131,-308,-236,-237,-188,-474,42,-196,-322,-823,-224,7,-338,-2,-127,-257,53,-33,207,-36,85,-559,-94,-374
138547,-535,-1114,-311,-638,-427,-421,-348,-303,-130,-337,-270,-272,-224,-512,34,-241,-298,-818,-260,-18,-386,-85,-116,-274,4,-82,76,-127,44,-647,-149,-435
138548,-533,-1074,-339,-684,-415,-407,-328,-356,-135,-325,-276,-273,-227,-498,33,-301,-329,-831,-283,-50,-414,-37,-107,-288,-9,-115,-3,-171,-4,-661,-179,-452
138549,-526,-1050,-317,-656,-419,-395,-312,-354,-141,-299,-285,-297,-235,-495,17,-337,-363,-842,-292,-51,-425,47,-136,-326,-20,-124,-35,-219,-42,-647,-163,-404
138550,-524,-1077,-291,-646,-425,-390,-318,-376,-137,-314,-286,-289,-279,-515,-1,-324,-397,-875,-311,-71,-457,17,-152,-368,-44,-162,-38,-286,-67,-681,-193,-407
138551,-544,-1139,-292,-634,-415,-403,-325,-396,-141,-312,-297,-289,-280,-506,13,-312,-418,-888,-313,-75,-446,-7,-115,-363,-52,-157,-53,-364,-72,-716,-203,-453
138552,-555,-1168,-277,-658,-413,-418,-350,-410,-155,-307,-319,-323,-306,-521,-2,-317,-426,-892,-338,-75,-440,-47,-144,-382,-55,-158,-77,-339,-87,-734,-237,-497
138553,-585,-1112,-355,-666,-405,-415,-320,-398,-159,-320,-334,-378,-312,-527,-13,-300,-455,-939,-353,-82,-464,-175,-201,-403,-75,-162,-99,-305,-85,-740,-259,-531
138554,-563,-1096,-459,-667,-388,-415,-348,-368,-153,-312,-346,-415,-308,-511,2,-285,-465,-946,-360,-81,-481,-311,-256,-429,-72,-171,-63,-324,-118,-742,-233,-502
138555,-574,-1110,-493,-665,-391,-464,-402,-363,-172,-317,-370,-456,-339,-517,-18,-311,-478,-962,-382,-87,-472,-174,-283,-455,-75,-149,27,-360,-173,-784,-280,-575
138556,-577,-1107,-504,-644,-396,-439,-400,-382,-177,-321,-365,-493,-359,-521,-26,-325,-466,-956,-391,-68,-442,-128,-272,-468,-65,-130,33,-391,-198,-812,-324,-680
138557,-584,-1134,-484,-661,-404,-424,-418,-595,-163,-307,-378,-382,-353,-536,-26,-318,-478,-934,-366,-64,-443,-150,-238,-436,-46,-145,-1,-393,-165,-778,-271,-587
138558,-580,-1143,-462,-675,-397,-415,-418,-668,-172,-304,-359,-352,-338,-515,-13,-260,-509,-939,-362,-68,-462,-178,-219,-408,-42,-138,-15,-472,-138,-751,-237,-566
138559,-597,-1105,-424,-638,-389,-391,-406,-368,-161,-303,-360,-349,-326,-508,-20,-194,-483,-985,-360,-60,-448,-146,-205,-412,-44,-152,-77,-539,-124,-740,-230,-568
138560,-622,-1112,-439,-666,-397,-388,-468,-384,-152,-307,-354,-355,-308,-504,-16,-245,-482,-942,-337,-42,-422,-72,-176,-394,-13,-140,-80,-451,-95,-707,-160,-434
138561,-668,-1151,-440,-691,-430,-418,-551,-463,-172,-333,-359,-372,-300,-472,-7,-342,-507,-921,-317,-47,-441,-90,-162,-385,-6,-113,-46,-364,-99,-685,-162,-401
138562,-672,-1169,-429,-700,-427,-426,-535,-480,-159,-360,-386,-361,-324,-471,-38,-519,-515,-907,-312,-61,-488,-167,-121,-386,-20,-141,-84,-383,-107,-700,-196,-477
138563,-605,-1135,-337,-684,-415,-426,-475,-457,-159,-356,-401,-347,-312,-488,-77,-549,-522,-888,-320,-93,-536,-149,-127,-395,-34,-182,-137,-373,-139,-747,-245,-500
