,Fp1,Fp2,F7,F3,Fz,F4,F8,FC5,FC1,FC2,FC6,T7,C3,Cz,C4,T8,TP9,CP5,CP1,CP2,CP6,TP10,P7,P3,Pz,P4,P8,PO9,O1,Oz,O2,PO10
60422,-105,-72,149,-135,-145,307,-18,22,-86,-89,-168,117,211,-272,123,42,336,101,-16,144,-382,216,238,-87,-198,124,83,-75,73,-101,65,-414
60423,-122,-16,137,-148,-164,246,-18,5,-94,-115,-210,106,223,-297,102,18,297,140,-11,128,-400,204,279,-55,-187,139,79,-57,97,-73,99,-393
60424,-165,-21,129,-102,-167,197,-11,43,-80,-118,-212,114,228,-308,99,14,307,145,-6,123,-389,193,270,-36,-155,136,63,-43,116,-66,102,-422
60425,-181,-28,216,-136,-173,229,-1,46,-82,-126,-177,110,221,-300,101,31,315,98,-11,113,-390,211,228,-39,-171,115,58,-49,115,-65,109,-388
60426,-229,-42,93,-146,-167,283,59,48,-97,-114,-139,147,238,-282,133,52,244,171,9,146,-385,217,303,-1,-144,162,101,20,175,-21,159,-314
60427,-261,-19,-26,-129,-162,305,91,73,-82,-115,-115,138,253,-295,138,79,259,177,30,169,-355,239,319,29,-123,197,168,29,195,32,208,-314
60428,-232,-57,-33,-106,-158,312,102,3,-68,-86,-110,138,273,-280,146,132,302,171,42,184,-330,239,319,46,-98,211,196,28,196,44,239,-262
60429,-216,-64,7,-166,-162,285,106,-207,-98,-93,-136,115,247,-274,160,187,269,193,48,195,-327,250,310,58,-90,223,188,29,231,39,219,-260
60430,-214,-28,-16,-142,-161,240,101,16,-79,-113,-128,41,247,-297,137,194,188,161,38,168,-333,278,284,36,-93,215,208,16,238,32,220,-218
60431,-135,-37,4,-151,-146,217,100,103,-72,-94,-116,-18,252,-305,131,167,205,146,33,160,-341,265,307,29,-90,225,229,-38,190,8,204,-246
60432,-153,6,28,-199,-155,243,53,64,-92,-77,-117,24,232,-313,148,77,199,166,45,180,-294,241,332,25,-90,225,265,-54,172,-9,179,-278
60433,-218,74,-18,-240,-169,287,51,-34,-90,-89,-141,-29,209,-323,142,-88,158,100,11,174,-308,170,220,-27,-108,220,277,-61,129,-57,128,-315
60434,-219,-3,-49,-209,-166,277,-3,-89,-91,-82,-143,21,217,-279,153,-7,146,58,-4,165,-291,221,175,-40,-123,251,353,-32,94,-68,115,-384
60435,-216,-2,-49,-197,-181,307,-3,-70,-100,-82,-140,-54,203,-297,154,82,144,24,-24,162,-287,268,136,-83,-143,242,369,-43,86,-50,145,-363
60436,-182,-24,-53,-231,-197,289,41,-126,-110,-108,-146,-33,161,-301,124,11,154,-10,-43,135,-343,236,132,-123,-165,202,164,-60,61,-74,130,-284
60437,-135,-1,13,-250,-173,229,115,-128,-99,-114,-164,-28,186,-285,110,54,176,21,-15,149,-362,246,154,-89,-138,201,77,-37,40,-99,121,-364
60438,-142,30,53,-229,-156,266,121,-108,-91,-84,-165,12,204,-283,125,79,173,45,1,178,-344,266,162,-98,-138,221,144,-57,42,-88,110,-377
60439,-174,35,94,-212,-145,288,135,-137,-91,-62,-187,16,202,-290,125,92,175,29,-16,164,-341,264,156,-121,-144,211,148,-84,19,-129,71,-340
60440,-173,41,74,-220,-154,265,154,-135,-99,-87,-154,20,184,-311,122,62,174,4,-28,163,-352,260,150,-135,-174,201,129,-124,-5,-144,41,-331
60441,-187,40,41,-224,-155,241,178,-98,-83,-91,-140,20,220,-296,142,82,196,3,-5,168,-323,251,177,-127,-170,206,157,-116,11,-128,40,-348
60442,-159,16,26,-235,-151,222,128,-115,-87,-114,-149,10,194,-282,143,73,219,5,-14,171,-291,269,190,-130,-162,204,169,-95,1,-140,51,-357
60443,-122,21,21,-218,-180,221,110,-101,-88,-124,-140,-12,177,-288,121,91,257,20,-33,166,-310,261,172,-157,-164,211,166,-111,-46,-198,26,-349
60444,-119,-9,-27,-209,-171,223,74,-93,-74,-134,-138,-16,176,-291,127,71,261,40,-36,162,-330,212,143,-165,-188,203,159,-101,-63,-234,7,-362
60445,-213,-43,-82,-171,-170,223,43,-66,-76,-135,-175,-32,177,-315,124,47,207,-19,-50,144,-347,158,124,-182,-209,145,107,-125,-61,-237,-16,-397
60446,-242,-49,-111,-158,-159,270,51,-8,-95,-108,-192,-54,160,-319,114,49,176,-62,-37,124,-344,91,100,-204,-211,146,92,-175,-81,-266,-30,-422
60447,-279,-83,-198,-117,-155,286,56,60,-79,-125,-173,-57,185,-317,110,45,190,-8,-48,128,-340,137,169,-167,-204,154,113,-124,-63,-234,7,-404
60448,-224,-68,-99,-117,-132,259,65,37,-75,-114,-152,-21,213,-313,121,68,302,31,-29,144,-316,180,216,-159,-195,167,146,-110,-46,-215,26,-340
60449,-201,-86,21,-123,-127,349,89,11,-80,-95,-117,20,226,-299,122,90,301,56,-18,147,-307,175,227,-145,-198,152,158,-80,-28,-195,11,-348
60450,-159,-47,124,-117,-124,370,77,-113,-69,-99,-109,100,242,-310,142,129,276,119,-15,146,-276,210,277,-118,-200,171,188,-78,-28,-217,22,-381
60451,-79,57,206,-143,-128,335,106,-209,-74,-96,-114,142,232,-313,135,114,321,103,-9,146,-302,249,285,-128,-202,183,194,-85,-41,-220,52,-314
60452,-17,100,230,-173,-127,306,108,49,-79,-100,-128,122,239,-315,116,85,309,113,-10,116,-315,259,269,-131,-219,152,183,-79,-55,-220,52,-296
60453,-19,73,226,-185,-140,272,106,31,-79,-124,-126,123,245,-318,115,81,292,129,-10,118,-316,281,300,-105,-209,154,197,-48,-53,-212,44,-274
60454,-68,31,227,-166,-159,257,115,-45,-103,-116,-119,123,243,-302,116,77,311,121,-30,130,-336,264,256,-114,-220,170,198,-111,-58,-245,8,-335
60455,-115,9,140,-202,-148,267,164,-15,-94,-104,-120,78,242,-301,119,92,271,109,-16,129,-285,264,243,-113,-213,191,257,-54,-26,-205,40,-338
60456,-140,21,30,-244,-157,295,125,-19,-97,-115,-151,42,217,-321,131,134,220,81,-30,121,-289,220,184,-130,-202,187,247,-93,-61,-220,38,-370
60457,-102,36,6,-221,-152,305,35,-45,-103,-116,-156,26,211,-317,131,207,217,73,-40,132,-287,221,177,-128,-216,171,238,-107,-58,-229,22,-386
60458,-77,-26,65,-163,-158,306,-2,34,-90,-108,-126,-27,240,-320,123,196,202,97,-45,125,-282,242,207,-124,-219,161,240,-117,-56,-228,13,-324
60459,-69,-46,62,-99,-139,287,65,110,-66,-100,-81,-67,253,-313,148,150,187,74,-46,136,-253,245,188,-127,-226,176,228,-196,-90,-266,11,-290
60460,-116,16,-42,-115,-135,311,96,83,-79,-105,-68,-38,218,-313,169,14,207,30,-53,121,-261,230,168,-118,-231,169,165,-192,-88,-245,39,-255
60461,-173,53,-57,-117,-141,305,119,15,-89,-111,-101,-47,220,-287,154,11,178,68,-28,111,-280,232,172,-103,-207,153,138,-178,-76,-237,15,-307
60462,-201,113,6,-119,-152,266,113,-61,-67,-99,-121,-55,226,-292,157,137,179,65,-28,138,-286,273,156,-92,-192,162,178,-139,-35,-222,-11,-344
60463,-181,132,59,-188,-171,293,52,-88,-109,-117,-171,-3,198,-313,132,98,160,27,-33,120,-324,284,111,-113,-226,129,169,-191,-58,-258,-4,-376
60464,-141,102,64,-238,-174,301,50,-62,-120,-115,-160,33,201,-298,129,89,145,55,-35,124,-327,276,93,-111,-224,128,152,-201,-60,-260,-31,-352
60465,-154,26,-21,-174,-189,311,59,-20,-96,-108,-134,66,208,-297,120,84,175,52,-20,119,-348,275,117,-95,-225,159,138,-172,-43,-244,-42,-344
60466,-128,-48,-69,-137,-178,263,94,35,-92,-113,-120,88,230,-286,131,102,238,86,-13,151,-307,309,187,-54,-186,188,231,-142,15,-202,33,-300
60467,-63,-14,-51,-150,-163,245,76,74,-93,-98,-153,90,229,-276,110,39,200,99,-7,140,-334,283,217,-51,-194,173,218,-189,-18,-215,19,-331
60468,-89,5,92,-213,-184,277,63,-34,-106,-95,-155,40,205,-274,134,27,235,60,-31,135,-334,279,199,-93,-198,155,184,-185,-33,-239,1,-396
60469,-222,-15,80,-183,-159,286,23,-67,-97,-90,-184,23,191,-275,138,31,242,52,-51,135,-326,253,191,-94,-223,156,190,-161,-37,-227,10,-372
60470,-268,0,6,-160,-146,283,17,-29,-94,-100,-208,41,190,-274,114,40,237,23,-52,136,-337,215,196,-96,-204,185,178,-143,-31,-247,-19,-418
60471,-271,21,21,-151,-153,301,60,-25,-94,-89,-210,52,203,-269,134,91,215,52,-23,160,-298,229,182,-82,-179,220,207,-121,-31,-256,-32,-436
60472,-193,100,98,-190,-141,324,91,-19,-103,-87,-155,61,197,-263,136,84,219,88,-27,177,-317,233,216,-87,-173,216,157,-108,-8,-245,-10,-416
60473,-117,123,125,-190,-168,305,83,-56,-126,-88,-132,45,177,-273,147,72,244,55,-18,183,-306,211,254,-65,-150,209,125,-96,8,-236,-15,-484
60474,-99,116,170,-182,-151,342,82,-114,-127,-82,-127,48,183,-273,156,95,260,70,-20,187,-291,118,289,-54,-163,212,120,-70,29,-198,7,-425
60475,-82,1,180,-197,-154,318,72,-267,-121,-88,-139,101,189,-294,157,64,295,90,-12,171,-295,146,307,-77,-167,214,110,-95,27,-204,16,-409
60476,-28,-55,113,-220,-153,318,52,-198,-118,-73,-137,98,196,-289,153,75,303,90,-7,178,-277,191,277,-71,-161,215,138,-88,2,-226,13,-434
60477,-64,-41,96,-194,-131,375,39,45,-120,-68,-140,18,215,-287,141,71,282,64,6,155,-301,95,212,-81,-164,204,140,-112,-16,-249,-4,-439
60478,-128,-1,99,-184,-152,335,46,-3,-97,-70,-154,-129,221,-280,139,34,234,29,-5,156,-328,135,149,-97,-179,188,133,-146,-36,-244,-24,-443
60479,-148,48,77,-214,-151,333,30,-117,-98,-65,-176,-142,179,-289,146,15,249,37,-21,152,-345,171,136,-109,-196,157,126,-141,-40,-247,-23,-423
60480,-114,59,79,-226,-144,323,19,-66,-92,-48,-191,-127,201,-266,155,8,287,24,-4,169,-330,165,145,-95,-178,173,178,-104,-27,-231,-35,-376
60481,-95,-47,95,-245,-148,284,-7,-38,-82,-67,-227,-31,209,-271,123,-10,182,-3,-10,163,-326,169,162,-127,-195,175,224,-140,-45,-227,-19,-408
60482,-153,-121,119,-186,-166,263,-47,-54,-95,-74,-247,4,182,-291,105,-55,137,6,-10,138,-357,183,135,-156,-231,136,182,-221,-108,-284,-62,-505
60483,-191,-50,45,-165,-168,256,-80,-88,-97,-90,-257,-12,170,-275,90,-39,214,-35,-23,132,-388,131,85,-158,-240,138,51,-252,-90,-290,-49,-448
60484,-171,4,-67,-175,-170,235,-30,-58,-99,-110,-252,-14,171,-286,82,-33,246,-60,-40,129,-399,105,72,-157,-231,125,-16,-232,-114,-308,-66,-469
60485,-174,-8,-39,-159,-172,220,-2,-39,-83,-118,-241,2,183,-291,100,-11,198,-19,-42,124,-393,103,113,-149,-224,126,24,-157,-107,-301,-83,-482
60486,-142,-28,-10,-125,-143,237,4,-7,-54,-100,-221,5,218,-281,131,72,159,12,-29,118,-354,160,149,-154,-241,133,70,-190,-129,-328,-91,-495
60487,-116,-71,-67,-141,-144,257,20,49,-43,-90,-233,-45,218,-270,124,102,165,-9,-35,114,-371,147,115,-188,-267,126,36,-246,-157,-333,-99,-420
60488,-172,-110,-117,-155,-155,263,-4,81,-56,-107,-263,-70,199,-276,91,19,159,-36,-65,93,-399,160,77,-207,-287,79,28,-201,-153,-330,-89,-409
60489,-182,-108,-78,-147,-162,240,-35,11,-77,-115,-213,-63,203,-285,92,-74,172,-6,-46,111,-388,173,101,-198,-288,78,39,-189,-149,-312,-49,-396
60490,-182,-53,-64,-210,-157,247,-8,-55,-96,-114,-210,-84,199,-289,100,-198,176,-14,-26,118,-397,219,91,-206,-294,72,35,-211,-159,-326,-74,-356
60491,-260,16,-82,-187,-182,278,-19,-109,-106,-127,-244,-74,181,-293,85,-96,173,-24,-68,86,-435,204,81,-207,-297,63,27,-213,-159,-331,-74,-388
60492,-250,40,23,-157,-155,278,-46,-107,-76,-105,-288,-76,182,-296,69,-36,221,-68,-77,90,-455,164,54,-225,-293,42,-5,-215,-148,-343,-109,-521
60493,-194,11,24,-196,-143,289,-35,-84,-93,-127,-296,-92,181,-304,66,-51,180,-42,-75,78,-448,115,48,-240,-319,40,10,-215,-156,-352,-159,-584
60494,-159,-27,88,-208,-162,289,-16,-201,-111,-132,-229,-60,152,-293,83,-53,106,-27,-80,67,-443,90,62,-238,-321,45,47,-264,-189,-365,-133,-589
60495,-133,-60,114,-328,-174,264,-19,-416,-125,-114,-215,-25,128,-287,77,-58,114,-57,-102,67,-442,111,34,-242,-316,40,25,-281,-211,-379,-123,-574
60496,-211,-76,38,-256,-178,244,-68,-96,-112,-129,-240,-85,146,-291,57,-84,87,-73,-96,57,-471,95,16,-259,-327,31,-7,-314,-243,-431,-160,-584
60497,-270,-66,-36,-238,-192,240,-35,-90,-129,-147,-271,-191,114,-315,38,-105,35,-110,-128,33,-487,62,-29,-293,-358,3,-33,-378,-271,-478,-196,-658
60498,-242,-76,-12,-267,-206,232,9,-199,-151,-139,-272,-195,95,-339,25,-86,14,-135,-157,26,-498,49,-24,-304,-357,7,-43,-412,-269,-447,-177,-635
60499,-242,-59,15,-251,-196,149,-59,-193,-144,-156,-258,-232,101,-310,54,-69,2,-122,-124,67,-465,75,-20,-281,-336,70,5,-394,-225,-384,-120,-606
60500,-281,-55,-61,-226,-172,189,-55,-150,-117,-160,-246,-196,119,-314,48,-77,-2,-115,-113,72,-469,53,-20,-278,-313,49,-95,-383,-220,-401,-140,-654
60501,-274,-96,-79,-187,-187,272,-34,-143,-124,-141,-240,-171,120,-333,28,-90,-18,-124,-129,46,-505,15,-7,-284,-337,11,-150,-415,-239,-424,-156,-657
60502,-231,-44,-52,-194,-183,249,-27,-72,-124,-141,-235,-154,123,-317,18,-87,-16,-101,-125,34,-492,5,-8,-268,-314,12,-101,-455,-255,-436,-156,-633
60503,-201,-45,-70,-195,-170,225,0,-54,-122,-149,-232,-198,141,-316,22,-58,37,-72,-94,35,-483,-51,-14,-253,-302,33,-87,-407,-245,-402,-137,-601
60504,-254,-114,-179,-185,-175,226,-20,-100,-123,-152,-218,-271,141,-313,22,-34,68,-117,-88,49,-476,4,-90,-271,-288,44,-48,-386,-253,-390,-122,-577
60505,-246,-123,-201,-155,-182,243,-104,-40,-97,-140,-216,-250,137,-291,52,-43,163,-166,-80,70,-430,6,-68,-245,-269,71,-24,-314,-210,-339,-78,-532
60506,-236,-89,-179,-173,-174,236,-99,-69,-92,-144,-220,-140,154,-286,44,-45,32,-93,-80,66,-412,12,33,-210,-252,82,-8,-315,-173,-317,-79,-562
60507,-216,-112,-162,-209,-179,231,-54,-104,-83,-140,-234,-108,162,-291,43,-49,-56,-48,-77,72,-431,66,95,-203,-255,77,-3,-301,-161,-307,-73,-537
60508,-160,-127,-78,-225,-180,220,-65,-134,-97,-147,-265,-112,141,-290,28,-44,26,-106,-86,64,-433,85,59,-215,-263,71,-3,-294,-166,-317,-77,-531
60509,-149,-33,20,-252,-166,249,-28,-155,-105,-149,-249,-79,153,-262,35,-12,94,-82,-59,96,-421,122,73,-193,-229,92,18,-290,-154,-318,-82,-501
60510,-127,4,36,-247,-157,246,-12,-125,-80,-134,-247,-55,163,-284,24,-18,149,-31,-43,101,-424,155,115,-192,-230,100,37,-228,-144,-304,-44,-441
60511,-130,-30,72,-216,-157,223,23,-113,-96,-141,-251,-65,155,-293,28,-27,163,-45,-56,82,-432,160,71,-196,-244,103,55,-234,-161,-299,-17,-446
60512,-144,-54,31,-239,-171,204,45,-94,-100,-139,-241,-72,131,-291,34,-27,208,-73,-55,78,-427,137,70,-205,-239,106,49,-211,-139,-292,-25,-499
60513,-171,-52,-60,-218,-172,216,25,-42,-98,-148,-234,-89,136,-310,17,-31,214,-99,-87,71,-427,153,75,-235,-262,70,58,-231,-172,-316,-46,-501
60514,-217,18,-36,-249,-176,210,61,-76,-106,-142,-242,-59,144,-311,26,-6,160,-59,-99,40,-427,206,107,-222,-278,63,93,-269,-188,-336,-71,-492
60515,-265,63,-24,-235,-164,239,76,-123,-104,-107,-213,-43,160,-289,66,82,178,-21,-65,74,-392,203,138,-196,-248,119,97,-238,-130,-274,-18,-518
60516,-280,55,20,-219,-163,255,52,-147,-114,-105,-215,-50,137,-293,96,123,183,-54,-71,94,-379,197,127,-205,-242,117,114,-239,-138,-285,-22,-415
60517,-291,38,55,-251,-167,248,53,-161,-127,-107,-227,-91,119,-312,84,67,179,-69,-105,87,-378,132,154,-222,-253,84,102,-276,-158,-322,-56,-437
60518,-227,56,91,-244,-151,267,43,-112,-120,-98,-169,-95,137,-313,108,-44,182,-37,-87,111,-355,115,167,-222,-240,97,99,-248,-154,-295,-30,-476
60519,-238,55,106,-230,-181,249,44,-146,-136,-120,-170,-159,119,-304,83,-171,180,-60,-93,83,-372,136,167,-213,-262,91,136,-202,-145,-301,-41,-437
60520,-242,29,84,-266,-177,216,38,-201,-141,-119,-200,-152,91,-311,66,-55,183,-71,-98,95,-370,135,127,-221,-254,112,115,-181,-131,-290,-51,-451
60521,-203,-34,14,-336,-201,194,10,-218,-147,-116,-223,-193,85,-289,71,0,182,-55,-79,98,-375,150,80,-216,-238,115,121,-193,-129,-296,-33,-465
60522,-191,-88,5,-326,-195,231,19,-201,-141,-117,-210,-142,105,-285,81,-2,190,-54,-80,109,-370,100,118,-210,-247,108,140,-192,-123,-284,-6,-427
60523,-167,-129,23,-291,-182,239,50,-179,-144,-118,-207,-96,123,-290,75,-17,215,-38,-84,100,-391,134,152,-201,-263,96,119,-161,-100,-267,-31,-428
60524,-199,-164,-12,-288,-181,214,20,-179,-138,-118,-214,-43,131,-284,69,-29,218,-3,-69,84,-421,179,178,-193,-248,78,76,-168,-89,-276,-58,-473
60525,-226,-156,-11,-280,-180,220,-1,-160,-111,-81,-228,-26,135,-285,87,-33,199,23,-56,83,-409,161,189,-168,-256,82,49,-183,-82,-274,-42,-477
60526,-135,-15,63,-227,-147,259,43,-96,-97,-83,-226,1,186,-269,82,-30,215,35,-44,99,-401,155,173,-150,-253,80,61,-118,-62,-254,-46,-428
60527,-47,83,143,-198,-147,293,83,-60,-106,-103,-212,12,189,-278,68,-2,254,31,-49,71,-403,95,170,-142,-260,67,67,-119,-59,-271,-34,-425
60528,-1,133,163,-155,-155,285,101,-40,-105,-113,-159,15,174,-313,47,22,286,28,-59,65,-387,122,154,-145,-261,72,101,-106,-47,-252,0,-410
60529,12,144,168,-130,-124,282,108,-13,-77,-113,-153,43,196,-313,73,42,264,52,-43,81,-363,200,216,-130,-250,109,118,-92,-26,-208,21,-423
60530,-30,127,128,-131,-101,272,86,19,-58,-80,-144,14,208,-300,87,46,227,59,-39,85,-342,203,242,-124,-230,146,143,-64,7,-169,43,-406
60531,-55,105,141,-179,-134,241,93,-3,-94,-109,-149,-60,180,-325,91,50,216,19,-61,89,-344,189,208,-144,-240,136,137,-74,5,-170,46,-376
60532,-56,124,91,-146,-124,215,97,-56,-97,-108,-143,-84,186,-337,119,71,238,38,-55,119,-326,157,196,-145,-216,166,143,-93,-2,-170,50,-361
60533,-177,19,-33,-156,-135,279,56,-236,-100,-92,-164,-69,163,-325,98,33,238,17,-63,99,-346,141,157,-173,-229,143,110,-166,-61,-236,9,-403
60534,-175,26,-68,-153,-144,289,27,-41,-111,-95,-172,-86,133,-335,87,29,240,-63,-104,89,-356,116,128,-215,-237,121,135,-191,-95,-245,2,-384
60535,-115,21,-44,-122,-134,315,61,10,-98,-83,-160,34,148,-326,97,44,192,-41,-80,112,-318,38,153,-203,-216,138,185,-199,-100,-249,9,-384
60536,-117,-34,5,-133,-137,315,37,-20,-108,-75,-167,21,133,-323,98,25,173,-16,-85,102,-342,118,142,-214,-216,139,148,-212,-122,-285,-34,-444
60537,-185,-156,18,-136,-156,300,-68,-22,-118,-83,-196,-29,130,-347,84,-25,152,-43,-102,78,-402,104,116,-263,-260,81,63,-250,-148,-338,-90,-531
60538,-198,-265,2,-140,-146,329,-141,1,-107,-80,-221,-58,146,-313,84,-57,180,-85,-80,101,-418,126,84,-251,-251,100,17,-225,-130,-321,-71,-508
60539,-243,-250,-194,-162,-170,410,-113,34,-117,-92,-260,-70,121,-325,70,-78,146,-77,-87,94,-403,61,108,-254,-251,94,27,-254,-164,-320,-89,-544
60540,-239,-139,-109,-198,-153,433,-85,-54,-130,-81,-250,-90,111,-334,72,-81,95,-51,-80,83,-422,34,97,-255,-259,82,5,-280,-157,-333,-101,-551
60541,-209,-27,30,-198,-159,407,-81,-126,-127,-76,-251,-125,105,-323,67,-74,132,-106,-103,81,-430,75,38,-266,-272,68,-10,-298,-169,-331,-102,-542
60542,-209,39,72,-224,-172,290,-42,-141,-130,-89,-250,-157,85,-336,80,-61,110,-132,-102,84,-422,91,30,-266,-266,68,56,-290,-173,-318,-95,-526
60543,-210,154,68,-236,-145,273,-11,-143,-131,-88,-249,-175,88,-307,95,25,70,-91,-102,92,-387,29,58,-263,-251,90,145,-253,-145,-314,-114,-468
60544,-177,166,64,-199,-138,240,3,-170,-140,-84,-217,-116,98,-299,102,75,124,-77,-93,98,-376,67,78,-253,-251,90,179,-232,-130,-301,-62,-484
60545,-127,124,84,-235,-143,202,39,-176,-141,-93,-181,-115,99,-302,97,1,150,-91,-91,95,-403,108,114,-261,-262,71,77,-208,-128,-289,-61,-478
60546,-68,44,128,-275,-149,202,60,-163,-122,-103,-170,-81,103,-305,88,-105,110,-39,-81,89,-422,49,148,-239,-306,48,-6,-234,-147,-317,-121,-472
60547,-78,28,179,-288,-134,227,65,-150,-119,-99,-172,-59,128,-297,89,-215,103,-26,-69,98,-411,82,112,-245,-302,34,10,-308,-171,-352,-136,-483
60548,-83,40,159,-228,-130,226,70,-125,-109,-111,-216,-60,127,-297,72,-117,121,-50,-93,76,-445,127,88,-244,-286,22,-3,-289,-168,-342,-123,-505
60549,-81,74,79,-205,-122,263,83,-59,-118,-88,-193,-88,133,-295,91,0,146,-55,-100,93,-447,157,97,-243,-288,31,-32,-257,-158,-353,-138,-503
60550,-119,103,3,-203,-132,271,86,-54,-117,-108,-176,-120,122,-305,91,-50,144,-80,-87,98,-431,127,94,-266,-298,20,-60,-241,-170,-362,-140,-501
60551,-109,118,80,-185,-108,309,114,-99,-102,-77,-133,-78,154,-284,120,-9,174,-62,-62,109,-423,112,96,-237,-291,35,-63,-177,-164,-357,-141,-474
60552,-77,88,116,-200,-118,329,97,-107,-123,-77,-134,-93,133,-277,107,-11,175,-69,-83,100,-418,80,37,-241,-303,32,-86,-172,-172,-376,-156,-547
60553,-110,-6,76,-200,-138,316,94,-103,-121,-90,-156,-126,113,-300,81,-22,138,-93,-100,71,-464,77,27,-270,-332,0,-104,-223,-201,-396,-196,-597
60554,-116,-36,-35,-198,-121,344,91,-79,-117,-95,-170,-171,111,-297,65,-36,121,-107,-118,57,-472,87,7,-300,-337,-1,-118,-274,-230,-416,-198,-570
60555,-79,26,-59,-220,-112,333,62,-83,-114,-84,-185,-177,100,-285,67,-44,104,-117,-115,69,-473,91,-5,-298,-347,-17,-109,-298,-237,-435,-201,-577
60556,-116,67,-9,-217,-120,346,36,-108,-110,-95,-197,-205,114,-298,64,-55,125,-124,-117,60,-484,60,21,-289,-351,-14,-105,-288,-211,-424,-221,-570
60557,-122,28,-5,-182,-108,336,21,-126,-108,-104,-205,-197,123,-312,64,-75,133,-91,-107,64,-476,29,31,-274,-347,-9,-91,-266,-180,-411,-227,-558
60558,-123,21,-22,-195,-105,301,10,-123,-116,-115,-213,-132,106,-317,50,-90,58,-62,-104,63,-484,1,41,-253,-350,-15,-118,-245,-167,-404,-214,-594
60559,-96,110,18,-196,-102,246,18,-87,-101,-118,-218,-96,120,-331,67,-77,33,-82,-103,49,-449,27,56,-249,-338,2,-83,-243,-164,-395,-199,-603
60560,-108,125,36,-210,-94,311,66,-119,-111,-111,-220,-137,99,-345,58,-76,97,-123,-122,34,-456,29,2,-285,-347,-8,-98,-276,-211,-438,-235,-588
60561,-102,181,26,-190,-69,377,135,-302,-113,-89,-229,-128,93,-349,83,-55,99,-92,-125,54,-427,58,32,-272,-340,12,-47,-262,-196,-412,-191,-535
60562,-79,142,46,-161,-84,380,83,-285,-119,-86,-206,-167,88,-360,74,-34,89,-122,-158,45,-405,41,25,-274,-354,33,-14,-281,-174,-397,-176,-520
60563,-91,114,75,-149,-90,378,59,-66,-133,-102,-136,-159,71,-358,103,16,124,-89,-151,49,-383,76,76,-256,-352,44,11,-287,-184,-387,-142,-528
60564,-63,-6,116,-138,-85,375,43,-27,-121,-78,-122,-167,99,-360,117,55,171,-76,-131,63,-335,104,81,-247,-338,86,62,-262,-150,-333,-93,-520
60565,-113,-131,16,-109,-97,375,61,5,-108,-81,-127,-112,116,-336,123,53,154,-58,-127,94,-308,101,109,-224,-304,126,80,-205,-93,-288,-29,-449
60566,-166,-53,-33,-108,-74,398,88,-27,-90,-63,-126,-18,124,-332,120,65,189,-44,-104,103,-309,142,116,-206,-276,156,116,-166,-66,-249,9,-385
60567,-100,94,-1,-166,-82,422,118,-28,-118,-63,-117,-14,124,-353,133,74,232,-77,-92,86,-296,123,118,-210,-284,141,122,-143,-51,-232,12,-384
60568,2,207,91,-119,-94,396,136,5,-101,-79,-126,21,138,-354,115,81,141,-16,-89,99,-312,113,195,-175,-267,145,146,-131,-11,-216,33,-389
60569,40,267,137,-132,-109,378,130,6,-99,-81,-101,8,137,-340,123,161,146,14,-79,115,-311,165,233,-140,-258,159,188,-122,3,-160,92,-412
60570,12,196,170,-183,-114,358,114,-23,-125,-109,-115,-32,127,-347,119,136,168,-26,-83,94,-313,133,195,-147,-266,155,145,-122,-6,-155,87,-434
60571,7,198,189,-159,-118,367,91,-45,-111,-83,-125,-33,111,-321,136,42,165,-31,-81,107,-322,103,178,-155,-277,159,117,-106,20,-143,89,-408
