,Fp1,Fp2,F7,F3,Fz,F4,F8,FC5,FC1,FC2,FC6,T7,C3,Cz,C4,T8,TP9,CP5,CP1,CP2,CP6,TP10,P7,P3,Pz,P4,P8,PO9,O1,Oz,O2,PO10
193149,-130,-80,506,41,-3,293,-716,280,-108,114,96,-15,351,114,126,13,97,29,76,-128,-222,-4,68,131,237,126,479,69,198,55,43,180
193150,-126,-44,511,57,6,182,-688,310,-101,128,123,25,380,132,160,75,131,105,90,-107,-195,-7,262,167,253,150,493,81,231,58,65,165
193151,-87,-4,498,116,23,209,-689,350,-103,116,28,12,402,113,126,-242,119,129,95,-145,-223,47,300,181,239,127,489,29,200,-5,-17,22
193152,-112,-66,475,127,22,322,-649,296,-93,115,32,-27,394,115,103,-340,106,115,104,-137,-258,98,177,204,259,146,519,35,224,-23,-65,-76
193153,-173,-157,421,111,5,325,-674,248,-112,148,109,-29,363,121,131,-129,55,61,93,-133,-218,-22,144,197,256,133,543,-79,218,-46,-74,-107
193154,-201,-141,413,52,3,350,-761,219,-134,158,157,-5,333,98,141,-231,2,22,67,-168,-211,-156,122,150,225,119,510,-227,141,-87,-114,-142
193155,-243,-149,432,50,28,389,-839,209,-125,163,194,-12,311,103,141,-180,-4,-61,21,-156,-238,-175,2,85,209,102,438,-15,63,-97,-106,-118
193156,-267,-106,377,-42,-6,373,-919,128,-157,144,216,-123,270,75,134,33,-5,-113,17,-140,-237,-164,-68,51,181,81,379,-2,37,-105,-124,-133
193157,-238,-26,289,-91,1,394,-844,86,-155,152,209,-127,285,97,144,109,-13,-82,19,-126,-193,-119,-5,74,196,110,410,-20,69,-100,-108,-100
193158,-257,-74,193,-25,-9,420,-766,175,-144,146,125,-111,309,64,129,106,-22,-20,33,-159,-215,-127,187,101,206,104,392,-10,93,-93,-122,-110
193159,-223,-87,267,60,12,356,-716,185,-119,129,127,-48,318,57,106,104,20,45,41,-164,-247,-116,387,131,180,78,385,-107,110,-104,-108,-115
193160,-225,-122,334,81,19,318,-689,166,-113,139,141,-73,308,74,100,73,-30,-26,10,-155,-244,-95,128,83,174,79,407,-144,70,-119,-106,-61
193161,-379,-211,351,71,36,328,-654,230,-102,154,160,-65,285,86,139,108,-46,-133,3,-143,-179,-65,-67,14,199,119,508,-3,39,-128,-86,18
193162,-479,-167,367,100,30,316,-699,253,-112,155,149,-38,304,80,133,148,-43,-132,8,-138,-126,-128,-4,21,200,123,541,-40,49,-129,-84,-41
193163,-565,-86,415,106,22,297,-753,279,-126,141,130,-28,301,85,116,17,7,-109,4,-143,-181,-163,-5,18,177,93,444,-78,9,-172,-134,-179
193164,-390,-54,406,67,27,284,-789,271,-135,143,84,2,288,77,110,-29,-6,-67,24,-162,-229,-165,51,19,171,76,356,-76,-11,-192,-183,-256
193165,-165,-76,414,120,44,286,-760,253,-93,133,79,-3,316,119,130,-192,-50,-70,41,-146,-202,-135,41,22,185,97,374,-155,14,-156,-139,-109
193166,1,-138,459,103,27,154,-767,271,-94,141,59,-83,320,117,133,-398,-15,-71,40,-138,-129,-153,-15,42,186,118,410,-261,6,-153,-147,-104
193167,54,-199,521,37,15,17,-776,307,-95,132,42,-62,329,120,121,118,-53,-45,69,-133,-142,-161,85,58,200,106,443,-168,32,-131,-122,-86
193168,62,-205,617,40,3,291,-771,363,-108,92,46,43,350,98,76,297,9,72,52,-178,-331,-204,507,55,159,14,345,-178,-18,-204,-196,-175
193169,25,-151,611,71,9,344,-755,384,-96,110,71,32,351,99,95,97,25,61,41,-175,-332,-202,377,50,153,22,333,-207,-39,-175,-184,-168
193170,-24,-113,556,26,1,390,-757,313,-110,111,124,-44,330,107,115,9,6,-56,30,-155,-231,-130,-24,38,173,86,424,-127,14,-121,-103,-59
193171,-61,-67,554,33,-6,366,-758,310,-106,123,111,-5,359,120,154,47,82,-51,50,-150,-202,-86,0,106,206,127,499,-174,138,-44,-30,5
193172,-82,-65,571,59,-10,311,-784,319,-108,122,65,2,341,117,140,90,88,-54,43,-153,-209,-84,-12,56,208,118,502,30,119,-33,14,21
193173,-96,-97,582,51,-18,271,-741,337,-113,117,73,48,340,127,122,12,99,-37,37,-136,-171,-57,14,57,208,143,508,72,62,-69,3,26
193174,-79,-148,611,78,2,324,-725,409,-101,150,107,85,390,137,176,-294,117,12,63,-120,-56,-35,54,100,234,162,530,43,116,-78,-48,-50
193175,-46,-210,610,108,18,326,-705,386,-91,160,80,104,409,140,201,-436,145,50,99,-86,31,0,126,132,275,223,612,102,183,-1,25,-9
193176,-31,-168,577,21,23,328,-643,338,-103,170,130,124,396,124,209,-129,176,93,124,-71,-124,60,257,175,290,228,648,148,218,57,90,64
193177,-12,-100,588,20,12,266,-586,328,-107,174,201,114,418,129,219,-209,175,108,127,-69,-219,83,264,185,296,220,638,115,224,90,140,61
193178,-23,-28,551,70,8,213,-576,301,-111,186,187,104,419,128,228,-195,170,84,136,-44,-62,85,204,187,317,266,693,126,241,130,198,157
193179,-59,46,540,44,-19,348,-637,310,-126,174,209,96,391,117,193,73,187,83,106,-93,-122,-3,135,162,278,221,618,153,243,113,143,290
193180,-117,73,536,52,-7,338,-658,284,-141,177,273,125,395,127,193,351,207,140,123,-68,-115,75,148,200,304,226,694,126,252,119,174,323
193181,-266,40,390,77,-13,346,-721,320,-118,179,295,-20,415,126,201,404,102,169,144,-68,-86,65,280,236,311,246,712,-135,269,145,224,458
193182,-403,-46,296,80,-41,362,-802,404,-127,136,290,-63,395,98,177,299,-4,109,90,-89,-101,-29,301,176,257,193,637,-34,230,101,159,469
193183,-426,-48,294,82,-4,388,-812,385,-109,139,276,72,376,105,169,126,70,64,67,-125,-146,-71,268,132,222,108,487,223,205,-29,-88,-157
193184,-442,50,358,101,7,343,-704,340,-96,159,194,101,359,119,158,84,113,9,74,-115,-158,25,214,123,248,99,452,206,253,13,-68,-347
193185,-314,9,499,26,5,272,-718,322,-116,151,185,74,333,118,154,161,103,-33,54,-122,-183,34,120,130,237,125,461,171,237,24,8,-134
193186,-198,-154,560,11,-10,303,-805,277,-125,121,115,40,302,99,105,81,71,-48,20,-161,-228,-8,78,122,210,96,455,101,205,-4,-23,-81
193187,-78,-152,675,67,12,295,-773,338,-96,139,108,7,343,99,123,147,163,-12,48,-142,-180,-20,191,140,229,115,519,184,230,19,2,-12
193188,59,-127,691,49,4,257,-761,342,-96,120,57,6,347,117,134,165,162,42,78,-113,-153,-10,288,193,261,141,562,195,366,129,85,26
193189,36,-169,635,28,-15,239,-755,326,-86,113,41,52,333,105,117,128,164,38,80,-120,-179,-9,331,183,248,134,522,294,324,116,33,-36
193190,-100,-170,562,-16,-31,249,-766,278,-99,102,82,49,317,92,121,93,184,71,41,-134,-196,22,382,169,230,107,530,124,216,-3,-55,-102
193191,-275,-51,549,7,-7,298,-743,292,-93,125,112,37,324,104,148,-146,203,80,31,-117,-137,84,301,146,228,136,565,27,161,-32,-39,-31
193192,-178,-41,552,-9,-6,294,-739,230,-122,148,88,-6,280,102,147,-210,135,-50,10,-113,-38,116,1,68,215,159,602,-45,60,-82,-28,48
193193,-53,-81,532,-12,-14,297,-740,225,-118,141,114,15,289,88,164,336,145,-52,29,-114,-26,135,-5,106,223,187,627,60,143,17,33,46
193194,-54,-29,573,13,0,336,-620,261,-109,166,102,98,322,100,161,395,223,19,59,-110,-144,81,195,165,260,173,637,141,201,22,62,-23
193195,-96,-11,567,52,15,348,-576,282,-104,171,176,154,342,118,184,143,263,96,71,-108,-140,-48,415,186,247,178,592,110,202,7,35,-33
193196,-141,-78,527,33,-2,337,-603,274,-124,154,156,115,300,83,148,52,196,38,50,-111,-126,4,254,146,232,143,581,90,183,18,16,24
193197,-89,-134,539,30,5,354,-661,300,-114,149,145,116,316,76,136,-122,196,37,54,-109,-172,95,279,184,239,156,551,85,234,48,51,110
193198,-68,-163,538,49,17,238,-723,300,-115,151,172,58,311,80,134,-297,129,50,62,-118,-198,155,249,195,244,156,547,112,243,87,78,198
193199,-99,-246,505,24,-7,354,-786,305,-121,142,70,36,312,74,123,-410,87,22,48,-109,-195,69,149,186,241,144,531,152,202,53,79,173
193200,-50,-251,453,-65,0,293,-791,252,-110,148,37,25,309,105,146,-82,75,0,64,-103,-124,-15,99,171,244,162,557,245,250,75,76,104
193201,-72,-88,427,-4,-9,217,-766,258,-100,130,98,49,322,122,153,168,75,15,71,-109,-120,25,105,174,257,182,620,206,212,3,-1,16
193202,-159,0,321,-3,-28,330,-774,329,-86,141,149,44,364,119,153,182,95,62,69,-103,-132,55,188,209,265,169,622,-91,186,-29,-13,50
193203,-189,-44,301,-24,-6,336,-749,317,-115,140,154,30,358,117,160,164,87,112,78,-101,-124,23,253,201,259,173,575,-191,164,3,56,93
193204,-152,-161,430,-23,3,336,-782,319,-122,156,193,8,348,114,166,52,78,62,46,-113,-151,116,186,88,217,174,558,63,99,-13,29,119
193205,-184,-94,469,79,9,257,-802,337,-102,136,161,-61,349,112,154,-97,25,27,40,-117,-118,108,38,68,223,165,513,-66,49,-110,-49,61
193206,-291,-119,385,91,-5,300,-771,290,-113,132,133,-62,315,99,137,-248,-12,-45,36,-101,-46,34,-61,72,220,178,516,-133,59,-92,-44,63
193207,-275,-102,387,41,-4,201,-713,309,-117,152,133,-38,315,113,181,-44,-40,-90,48,-89,28,-18,-82,72,227,217,586,-60,72,-51,-5,64
193208,-323,-95,396,33,-20,261,-757,307,-107,145,146,-7,328,119,194,530,-65,-43,67,-83,-174,-13,11,89,244,207,580,-51,68,-59,-4,-31
193209,-426,-42,420,81,-26,333,-860,315,-92,145,137,10,339,122,165,368,5,0,72,-81,-224,-33,125,132,247,170,526,-124,88,-29,10,143
193210,-353,-50,443,76,-42,292,-896,323,-85,132,109,38,353,144,177,226,-6,17,99,-64,-136,-129,148,164,261,167,477,-308,97,-54,1,164
193211,-186,-48,465,71,-29,310,-808,265,-96,156,156,73,321,158,191,125,-13,-33,98,-48,-144,-182,37,114,289,214,543,-68,88,-34,50,242
193212,-55,31,518,49,-16,215,-692,246,-122,148,132,114,319,137,182,104,29,-73,69,-29,-143,-129,-35,57,286,206,540,103,63,-28,-4,88
193213,26,2,551,15,-14,236,-645,314,-117,138,129,56,362,143,169,162,-1,-48,82,-59,-154,-65,4,90,257,163,422,-80,45,-122,-148,-378
193214,-12,-43,587,-6,-3,316,-644,300,-107,167,148,4,368,146,197,116,-9,-35,105,-54,-151,-45,28,113,262,152,423,-109,77,-94,-123,-360
193215,-76,-78,569,-33,-25,309,-651,280,-127,168,124,-25,343,140,190,-292,-7,-19,114,-68,-102,-50,74,139,269,191,469,-186,90,-43,-23,-101
193216,-106,-133,549,-59,-39,314,-698,242,-151,154,97,-23,357,140,204,-200,-26,-24,123,-61,-23,-53,80,142,285,222,566,-108,131,42,99,90
193217,-106,-167,538,-34,-13,311,-763,255,-119,153,113,-37,358,146,189,303,-53,-54,140,-45,-51,-51,27,127,314,256,633,74,196,196,277,346
193218,-198,-177,496,16,-18,309,-761,272,-131,130,148,-36,330,118,147,246,-83,-63,112,-92,-192,-83,-20,107,287,200,562,-59,151,162,283,434
193219,-234,-162,499,18,-18,330,-789,294,-101,153,149,-29,335,131,165,213,-43,-44,107,-91,-192,-107,18,108,263,160,482,-99,81,-9,78,305
193220,-175,-96,567,6,-4,315,-806,349,-73,151,20,14,360,128,91,134,46,21,99,-163,-290,-294,161,94,190,38,264,-58,-18,-299,-382,-416
193221,-85,-135,601,96,-1,316,-775,416,-43,136,-28,53,418,131,89,30,107,147,134,-151,-283,-310,412,146,198,37,228,-67,37,-236,-348,-745
193222,-122,-280,580,94,0,333,-737,351,-82,123,40,-23,407,130,126,-100,4,99,110,-143,-221,-254,203,129,225,81,298,-9,100,-110,-190,-472
193223,-158,-334,491,77,-7,309,-814,304,-91,113,-7,-44,389,127,111,-167,0,46,105,-126,-200,-177,104,149,228,97,327,135,160,-96,-168,-320
193224,-115,-286,483,144,11,311,-825,405,-63,124,-7,23,417,145,118,-367,88,84,143,-107,-225,-143,160,195,261,95,331,277,218,-96,-189,-367
193225,-97,-231,446,114,-9,283,-853,405,-67,138,-45,25,408,142,128,-500,103,117,153,-117,-193,-154,275,197,264,112,337,291,219,-47,-109,-250
193226,-197,-205,476,69,-30,222,-825,329,-85,132,10,18,362,135,135,-414,37,45,106,-124,-181,-126,164,111,248,117,399,241,149,-32,-104,-175
193227,-291,-112,477,87,-30,221,-764,326,-90,117,92,19,363,137,145,-244,60,33,92,-119,-162,-116,75,114,238,121,538,-278,13,-147,-161,-196
193228,-239,-82,455,101,-25,230,-708,351,-104,117,98,0,390,124,141,-123,119,97,94,-120,-158,-72,146,119,227,116,600,-466,-38,-211,-171,-179
193229,-188,-79,483,132,-19,263,-669,351,-82,126,101,-32,385,105,136,56,123,96,99,-124,-186,-112,88,102,229,124,489,-125,69,-73,-42,20
193230,-94,-69,520,198,10,234,-705,417,-43,125,91,-18,398,121,149,224,112,86,119,-101,-168,-107,106,141,259,140,430,16,149,-15,-4,73
193231,-90,-44,524,176,7,307,-684,423,-56,134,137,88,393,132,179,267,134,80,115,-103,-166,-8,164,182,264,134,391,33,178,-33,-78,-120
193232,-116,-7,530,134,8,250,-553,354,-53,148,172,219,386,137,217,150,156,151,131,-64,-71,49,323,251,303,212,490,-30,278,50,20,26
193233,-122,2,528,63,5,242,-558,395,-82,148,176,239,371,129,246,-19,201,168,139,-36,47,37,399,251,326,256,590,-85,266,120,108,264
193234,-89,-116,568,79,3,433,-659,422,-92,165,201,215,386,119,246,54,232,160,139,-35,58,-47,326,267,319,228,553,90,291,90,60,115
193235,-9,-102,633,76,5,475,-646,316,-109,165,260,197,348,98,214,511,269,103,103,-71,-130,-15,250,258,306,181,519,156,346,108,24,-140
193236,13,17,639,80,21,491,-652,295,-109,148,270,160,332,95,200,383,255,62,87,-83,-214,61,204,239,321,186,586,460,459,237,141,7
193237,-7,21,658,37,30,364,-695,314,-85,134,241,136,327,84,202,149,223,86,92,-59,-115,17,197,261,330,241,636,590,561,306,201,179
193238,-82,55,658,28,20,215,-728,335,-77,129,212,104,335,82,208,-159,190,116,101,-45,-14,-11,242,291,346,267,652,512,528,279,199,201
193239,-23,21,667,37,16,277,-674,361,-101,156,198,110,332,115,238,246,190,118,109,-12,66,29,219,282,358,303,703,467,455,284,257,341
193240,40,23,694,4,4,279,-553,353,-139,148,216,146,318,100,215,546,217,72,66,-43,-83,148,113,193,307,249,652,133,233,110,155,428
193241,105,134,724,34,42,250,-516,376,-122,158,227,184,323,106,201,412,257,44,54,-90,-183,199,81,140,259,168,517,-127,120,-67,-71,-52
193242,27,83,704,26,36,381,-562,337,-122,167,241,171,307,92,225,289,208,30,46,-91,-140,156,74,136,227,150,509,-163,131,-107,-185,-533
193243,-128,21,663,2,10,315,-595,312,-141,147,135,141,299,107,182,250,191,30,34,-98,-130,111,120,141,218,170,561,-82,157,-92,-117,-462
193244,-105,48,700,29,36,315,-601,373,-121,160,133,181,319,123,204,314,238,46,77,-81,-91,186,144,145,266,200,602,132,199,7,-23,-61
193245,-42,8,642,-6,6,350,-609,364,-133,158,169,140,288,109,197,315,211,28,52,-75,-84,216,143,143,245,200,610,49,175,-16,-5,-48
193246,-47,-6,544,-19,-11,321,-671,345,-167,143,152,101,248,78,185,255,176,-2,5,-99,-109,215,129,120,217,190,611,32,153,-43,-45,-123
193247,-68,-52,486,22,3,334,-673,373,-154,145,156,91,252,85,195,237,156,0,13,-106,-118,217,92,122,220,171,631,73,191,6,-2,174
193248,-73,-130,459,58,16,354,-731,359,-133,177,192,45,275,102,210,177,114,-1,6,-106,-96,154,134,114,219,177,641,-55,166,58,125,369
193249,-153,-240,446,53,0,437,-785,328,-145,167,139,-5,299,81,183,118,90,30,10,-117,-126,131,153,128,201,161,606,-128,140,26,74,218
193250,-302,-156,438,36,4,410,-670,280,-140,154,157,-36,285,78,159,51,54,34,-1,-140,-179,162,72,113,168,97,487,-96,81,-125,-129,-172
193251,-308,12,443,78,15,385,-622,281,-137,143,132,-2,275,80,166,-77,27,5,-7,-134,-159,104,76,59,178,113,475,102,141,-75,-87,-174
193252,-214,-25,504,30,0,339,-665,289,-116,152,114,132,315,87,166,-262,115,108,29,-131,-181,1,440,121,196,129,493,46,219,6,0,-18
193253,-141,-154,469,21,-9,274,-719,288,-121,134,79,128,313,74,155,-204,122,82,35,-138,-190,-120,346,136,214,139,518,-5,197,25,61,121
193254,-140,-206,476,66,0,258,-757,315,-141,131,85,-36,293,95,139,-124,0,-73,22,-122,-174,-87,-74,86,201,148,558,-92,164,30,84,218
193255,-164,-130,530,72,-19,294,-783,318,-154,127,60,-63,286,88,116,-128,-57,-90,17,-168,-220,-90,-80,50,157,95,466,-97,82,-69,-38,59
193256,-95,-80,526,46,-2,273,-790,269,-114,118,70,-2,302,89,139,63,-54,-32,32,-154,-219,-154,66,84,158,104,437,-121,94,-110,-75,-45
193257,-94,-107,485,55,0,276,-862,293,-92,127,102,-9,317,114,160,28,-19,-29,48,-138,-176,-154,53,60,183,144,568,3,57,-46,9,55
193258,-181,-156,439,52,-13,294,-929,337,-87,127,56,-62,323,105,136,-156,-30,-28,40,-148,-219,-117,-37,37,169,108,561,-108,-6,-131,-81,-94
193259,-220,-206,375,54,-32,246,-934,356,-92,106,24,-31,342,100,118,-296,-53,6,58,-151,-243,-73,-41,60,184,106,485,-149,7,-132,-65,-84
193260,-186,-225,355,17,-26,252,-870,458,-72,115,46,104,398,123,136,-172,57,80,109,-137,-236,-104,191,119,208,95,391,-131,56,-123,-129,-239
193261,-247,-206,341,62,-16,251,-722,450,-80,126,81,137,417,146,148,-2,91,86,138,-100,-228,-150,207,143,245,122,371,17,131,-46,-119,-220
193262,-328,-172,382,39,-35,229,-801,355,-92,106,74,49,359,125,158,-167,38,-24,107,-80,-170,-185,-24,122,263,158,442,142,224,29,13,-19
193263,-305,-103,437,-37,-49,112,-884,302,-122,73,51,20,342,120,180,-537,30,-73,96,-79,-42,-201,-101,106,259,179,481,149,214,38,4,-67
193264,-283,-163,502,0,-34,190,-953,287,-124,98,24,22,356,132,185,-172,20,-32,104,-91,17,-177,-52,112,244,197,482,127,189,5,-47,-140
193265,-229,-232,506,21,-31,290,-914,310,-103,98,23,-3,372,130,133,227,80,20,108,-113,-207,-181,43,146,241,142,398,202,219,-3,-47,-91
193266,-246,-330,532,-1,-25,274,-834,363,-97,115,88,-25,369,118,125,432,56,35,111,-119,-382,-233,96,130,242,91,369,237,196,-18,-35,-92
193267,-325,-295,538,3,-34,72,-778,368,-83,95,53,26,391,123,125,72,50,55,122,-125,-287,-239,115,179,254,127,381,203,198,-10,-34,-87
193268,-319,-128,602,10,-45,47,-757,336,-95,66,-14,52,402,110,105,-25,73,68,133,-118,-261,-167,76,170,269,145,410,92,148,-51,-61,-68
193269,-379,-159,633,16,-45,284,-769,277,-112,74,14,50,367,97,130,-30,33,47,112,-122,-217,-155,132,147,246,164,532,-277,69,-96,-58,-9
193270,-261,-203,598,71,-31,245,-787,261,-122,108,88,42,356,119,186,10,97,5,103,-82,-95,-150,69,109,266,212,660,-95,69,-12,26,129
193271,-74,-199,575,57,-24,293,-812,268,-111,130,125,7,392,114,211,168,107,6,119,-55,-51,-146,82,133,299,238,657,-80,91,0,42,183
193272,2,-286,479,35,-26,391,-799,279,-113,121,133,-51,363,101,164,232,98,33,115,-97,-118,-111,109,161,269,180,556,-160,122,-28,-16,30
193273,-27,-243,459,53,-15,357,-720,273,-100,108,127,-24,364,100,151,190,145,60,99,-118,-164,-71,161,136,241,155,466,-82,174,-44,-92,-168
193274,-118,-57,476,87,-3,294,-675,252,-96,117,120,59,355,99,180,212,143,43,86,-92,-118,-37,186,127,276,198,532,169,181,-11,-40,-29
193275,-141,20,489,55,5,195,-585,277,-102,103,156,61,332,91,192,156,123,7,70,-92,-87,-29,105,105,266,212,561,247,205,37,17,2
193276,-123,-50,491,50,-2,234,-594,251,-139,88,94,0,284,67,167,19,63,-85,40,-103,-65,-47,-50,84,226,223,579,97,163,39,39,3
193277,-93,-32,509,59,3,255,-608,273,-105,104,111,39,289,89,177,-22,85,-52,64,-98,-68,8,79,117,241,234,636,-107,173,77,100,339
193278,-104,-19,514,45,3,218,-647,230,-122,109,111,52,315,80,164,3,128,41,64,-107,-74,0,327,118,245,224,624,-90,195,118,161,559
193279,-115,-11,503,102,18,224,-694,294,-136,102,97,44,318,87,153,-121,132,102,61,-105,-91,0,426,180,243,174,488,7,214,32,-11,220
193280,-130,-34,454,154,3,262,-688,343,-140,81,76,-40,293,62,107,-294,48,19,21,-174,-221,17,226,147,180,47,293,3,154,-130,-263,-399
193281,-55,-6,446,73,28,311,-687,380,-153,123,114,-44,271,67,119,-62,25,-103,-5,-158,-191,72,-71,50,169,52,419,41,107,-94,-181,-327
193282,-107,-40,417,-28,28,344,-673,286,-177,128,146,-86,230,60,129,108,41,-155,-46,-144,-183,36,-224,6,155,83,489,54,52,-113,-111,-117
193283,-187,-142,380,-85,15,371,-661,237,-163,130,133,-31,229,66,117,213,82,-58,-31,-171,-187,-18,-55,66,161,87,460,123,138,-61,-108,-59
193284,-222,-281,327,-12,37,388,-652,247,-147,133,117,12,238,62,121,237,53,-76,-22,-185,-172,-22,-31,48,155,68,454,62,129,-55,-98,-37
193285,-258,-225,360,104,23,352,-687,269,-141,128,125,15,239,50,127,-248,48,-115,-35,-182,-141,-38,-30,13,123,65,475,-156,5,-161,-138,-64
193286,-198,-69,415,84,20,262,-730,275,-154,113,170,1,233,40,138,-112,52,-107,-30,-176,-106,-75,-6,21,111,51,474,-303,-70,-239,-210,-241
193287,-90,-99,506,46,27,280,-700,239,-158,124,212,46,236,51,134,389,78,-45,-24,-168,-180,-44,71,45,121,38,435,-319,-34,-229,-224,-274
193288,-54,-219,545,56,7,372,-728,211,-171,135,175,74,255,50,128,386,96,-26,-30,-166,-274,-6,86,60,146,32,400,-273,15,-188,-166,-140
193289,-23,-127,572,66,25,304,-810,224,-169,131,124,72,257,70,128,258,107,-35,-28,-169,-167,-19,18,77,143,64,453,-73,104,-106,-100,-60
193290,24,-4,553,87,35,332,-788,190,-159,118,123,129,215,60,121,-70,107,-25,-17,-177,-164,48,46,90,155,67,436,91,173,-67,-96,-53
193291,-8,-31,574,30,29,371,-697,257,-133,125,144,78,269,51,107,-194,98,17,-10,-164,-245,120,147,97,162,30,424,205,184,-84,-127,-99
193292,-5,-63,578,5,28,289,-742,299,-144,129,116,22,271,46,139,-112,70,54,-2,-171,-198,61,190,118,163,59,502,127,185,-75,-56,-15
193293,-12,-220,588,18,10,206,-740,311,-147,108,98,-53,265,45,141,-38,49,-5,-15,-179,-133,1,-16,72,131,90,528,-182,45,-137,-77,7
193294,-102,-254,522,0,3,213,-710,268,-148,104,84,-79,263,37,132,-86,27,-73,-25,-152,-44,28,-146,34,142,119,598,-211,30,-100,-46,71
193295,-279,-272,491,43,6,282,-754,238,-124,102,34,-27,271,53,118,102,8,-50,-4,-179,-42,-5,-58,69,136,110,606,-142,73,-99,-45,65
193296,-524,-212,486,79,2,276,-849,254,-105,91,36,14,289,53,80,569,33,-43,-5,-224,-318,8,-13,57,121,29,550,-95,66,-141,-90,-7
193297,-479,-111,504,65,4,345,-904,295,-117,103,30,5,300,54,80,396,30,-44,-3,-207,-291,54,-46,42,131,53,577,7,48,-123,-60,90
193298,-303,-62,504,93,-7,291,-885,352,-107,92,-47,53,329,64,84,263,26,15,28,-186,-215,26,29,109,164,95,586,-166,110,-67,-1,144
