,Fp1,Fp2,F7,F3,Fz,F4,F8,FC5,FC1,FC2,FC6,T7,C3,Cz,C4,T8,TP9,CP5,CP1,CP2,CP6,TP10,P7,P3,Pz,P4,P8,PO9,O1,Oz,O2,PO10
24617,-51,-99,260,139,115,516,161,28,250,-82,21,-104,118,977,133,91,89,-92,280,21,-15,74,152,3,-182,279,194,88,355,216,-62,155
24618,-58,-79,255,166,132,522,166,56,271,-66,11,-92,143,989,134,180,151,-84,288,48,-25,116,203,-1,-175,277,220,63,333,190,-74,148
24619,-46,-71,250,185,152,527,182,109,282,-50,15,-89,156,994,158,80,121,-80,299,48,-30,118,188,-21,-168,290,188,14,288,204,-57,191
24620,-68,-87,245,187,139,541,141,81,279,-49,49,-186,140,1006,210,14,-3,-138,268,56,-10,87,101,-68,-182,275,145,-62,234,164,-76,166
24621,-98,-114,183,141,103,542,144,0,275,-73,67,-247,136,991,109,5,38,-171,263,39,-14,120,111,-57,-194,264,128,52,274,197,-48,189
24622,-105,-166,171,149,108,465,55,51,274,-101,-60,-243,200,971,64,-92,69,-134,270,21,-83,29,168,-18,-180,249,105,112,290,214,-57,134
24623,-101,-154,219,134,122,466,42,106,233,-91,-54,-154,74,956,126,-48,71,-106,261,35,-83,-2,83,-17,-144,272,122,-28,271,226,-17,194
24624,-77,-135,226,107,116,502,90,63,228,-78,-17,-99,84,952,151,44,104,-92,291,44,-34,74,149,24,-128,302,216,-58,266,246,38,264
24625,-64,-148,198,159,143,488,66,122,294,-51,-39,-140,165,994,146,32,86,-37,327,77,-32,96,278,82,-119,318,234,48,335,290,43,260
24626,-60,-145,228,192,144,488,40,139,292,-56,-32,-203,154,982,125,-60,114,-97,316,44,-37,1,269,58,-139,305,172,18,318,196,-94,129
24627,-92,-148,256,175,127,476,78,91,286,-60,-44,-171,143,967,121,-193,118,-82,308,50,-63,91,158,43,-117,291,201,44,336,188,-109,102
24628,-91,-149,215,156,107,475,51,76,276,-61,-80,-100,105,969,115,-79,86,-88,286,64,-90,130,154,46,-118,282,205,81,346,219,-93,122
24629,-77,-179,190,131,109,477,28,48,249,-57,-88,-199,85,959,123,-57,106,-148,260,39,-106,46,131,11,-135,275,129,108,353,240,-90,188
24630,-82,-178,205,128,117,511,16,48,259,-35,24,-241,92,941,184,-46,114,-155,256,42,-67,29,115,17,-137,279,121,75,347,256,-63,202
24631,-47,-125,243,165,141,537,61,96,250,-32,101,-196,123,944,145,-16,138,-154,265,60,-34,64,130,18,-142,274,163,141,398,244,-66,143
24632,-81,-129,189,168,117,505,100,115,249,-72,-20,-218,144,959,73,-89,97,-148,267,41,-58,78,162,-2,-176,241,196,80,372,236,-92,111
24633,-113,-147,193,147,109,540,73,121,264,-48,-47,-208,141,980,147,-70,72,-113,278,53,-33,91,139,-22,-183,249,168,-50,316,224,-99,155
24634,-115,-138,176,132,105,534,106,66,253,-25,-132,-152,85,979,184,77,127,-104,300,75,-4,127,166,21,-162,287,173,28,352,269,-58,207
24635,-112,-149,162,161,122,506,90,39,276,-19,1,-189,120,1013,199,78,122,-95,330,83,20,123,189,44,-143,293,205,58,390,293,-45,215
24636,-74,-118,219,181,141,488,152,1,292,-43,82,-161,133,1009,111,127,183,-117,320,68,0,113,136,32,-142,320,223,150,403,288,-21,188
24637,-66,-126,241,188,141,494,137,24,297,-76,54,-150,146,1001,109,72,142,-123,279,57,-23,62,149,5,-180,285,139,129,348,233,-61,168
24638,-56,-111,234,180,142,546,195,133,280,-53,73,-206,114,994,184,87,137,-143,265,55,-38,104,125,2,-196,279,140,63,321,207,-98,172
24639,-40,-77,236,153,176,551,193,63,247,-49,56,-193,77,1010,210,146,122,-164,259,82,5,156,108,15,-176,299,204,112,390,276,-30,211
24640,-39,-72,255,183,186,568,186,88,299,-31,30,-144,140,1005,211,133,165,-91,303,95,45,164,170,48,-134,361,260,164,425,331,11,272
24641,-55,-71,260,190,158,558,188,111,276,-41,43,-137,150,990,182,97,127,-62,313,97,36,115,186,32,-135,360,310,181,398,276,-25,239
24642,-18,-87,282,213,167,553,187,135,283,-35,78,-142,145,996,176,147,86,-57,299,81,-8,116,193,19,-142,334,279,127,361,218,-76,160
24643,-23,-99,219,232,156,535,155,175,302,-42,60,-112,148,991,201,78,151,-61,316,78,-12,90,199,21,-152,315,186,91,347,210,-79,174
24644,14,-61,203,280,178,530,131,222,325,-29,29,-117,190,998,157,-70,187,-53,313,66,-33,117,238,23,-156,302,106,124,344,206,-90,217
24645,-24,-67,282,268,172,541,158,208,302,-44,21,-142,169,979,162,-223,218,-45,289,57,-48,44,221,16,-167,279,67,36,304,164,-113,111
24646,-43,-86,325,199,158,529,149,110,293,-31,64,-113,159,990,211,-9,210,-42,286,71,-40,19,203,34,-170,295,111,7,311,185,-126,106
24647,-28,-110,322,239,150,497,148,186,309,-91,-18,-155,168,953,27,47,206,-61,274,-16,-191,48,155,4,-222,216,76,44,305,176,-149,128
24648,-36,-143,293,303,150,452,76,293,332,-100,-77,-152,213,960,52,-29,143,-67,282,9,-156,-1,115,-2,-240,193,50,52,287,154,-156,102
24649,-35,-141,335,266,152,479,104,116,312,-94,-45,-206,162,978,100,-13,141,-91,277,13,-133,9,90,-16,-225,196,74,-41,252,142,-178,104
24650,-35,-160,340,244,131,475,68,101,312,-101,-83,-176,158,981,92,-186,121,-63,274,-6,-156,15,143,2,-234,182,101,-15,252,120,-182,125
24651,-60,-149,306,266,126,449,32,246,329,-140,-104,-136,200,980,40,-101,121,0,282,-20,-191,5,199,5,-239,174,79,24,277,114,-213,82
24652,-59,-157,315,234,106,437,16,174,304,-150,-127,-150,185,958,18,-98,138,-15,279,-31,-223,-47,190,-1,-252,132,30,52,293,106,-243,1
24653,-67,-173,316,238,120,432,6,95,298,-115,-112,-156,138,979,42,-165,118,-63,272,-37,-173,-45,159,-24,-280,120,2,87,284,103,-246,-28
24654,-76,-176,308,232,122,411,-4,123,288,-132,-148,-159,136,970,22,-125,89,-105,236,-59,-188,-68,150,-28,-294,101,-2,69,266,90,-252,-11
24655,-74,-180,273,211,130,415,-20,110,313,-132,-138,-163,154,978,62,-160,119,-79,233,-35,-180,-40,146,-51,-323,79,13,21,245,106,-256,24
24656,-102,-181,296,229,120,420,18,139,317,-112,-109,-146,172,995,76,-244,141,-33,240,-38,-154,2,167,-41,-301,91,18,-16,242,114,-258,19
24657,-109,-173,238,218,110,417,17,114,303,-113,-80,-161,164,953,31,-153,165,-23,250,-68,-158,14,224,-17,-300,93,24,18,258,130,-239,49
24658,-94,-156,289,237,138,445,12,122,329,-131,-60,-120,207,944,-6,-151,143,-35,254,-80,-199,-49,176,-25,-305,82,29,32,232,104,-271,-23
24659,-78,-147,280,239,149,454,-23,150,333,-122,-69,-128,195,938,2,-101,44,-64,247,-85,-217,-84,134,-15,-315,91,-40,26,246,110,-254,-34
24660,-76,-155,240,204,155,475,58,117,312,-94,-31,-90,155,930,11,-43,144,-50,241,-68,-184,-61,133,-14,-304,93,-33,62,278,131,-183,23
24661,-105,-178,206,171,139,434,83,125,299,-118,-117,-110,155,930,9,-70,93,-40,247,-58,-195,-46,173,-17,-285,107,-17,-1,244,94,-193,43
24662,-126,-188,238,179,142,420,-29,151,316,-109,-136,-179,157,962,18,-97,59,-64,271,-36,-180,-110,116,-13,-283,145,0,78,281,131,-165,98
24663,-136,-226,229,174,112,410,-33,166,298,-124,-139,-188,158,951,32,-85,71,-83,258,-51,-172,-134,65,-37,-302,160,0,26,270,120,-205,18
24664,-163,-248,219,181,87,400,-24,136,308,-140,-145,-196,136,936,38,-126,66,-108,237,-72,-198,-51,61,-71,-307,147,-28,-86,221,85,-219,32
24665,-193,-264,175,173,103,400,-46,106,282,-119,-187,-212,107,910,58,-146,71,-141,230,-71,-225,-53,38,-90,-297,130,2,-65,203,111,-182,78
24666,-158,-244,181,167,111,410,-80,75,284,-102,-130,-207,99,897,67,-139,19,-119,204,-60,-189,-75,66,-64,-290,153,33,-10,211,173,-117,110
24667,-139,-216,223,173,108,419,-63,115,286,-121,-157,-167,94,880,6,-152,38,-137,196,-93,-188,-112,62,-90,-303,133,87,-71,198,164,-124,39
24668,-116,-189,202,183,127,436,-25,70,275,-122,-156,-180,70,865,-54,-159,26,-182,198,-114,-219,-92,47,-89,-315,117,54,-83,195,114,-178,12
24669,-125,-217,191,171,111,423,-80,12,285,-111,-198,-199,54,846,-44,-210,40,-212,171,-139,-302,-125,14,-114,-344,63,-100,-94,138,30,-298,-16
24670,-136,-207,180,171,122,424,-65,14,295,-96,-176,-252,82,858,-19,-170,41,-205,182,-125,-263,-139,-19,-125,-346,71,-51,-97,170,52,-265,-42
24671,-139,-205,187,187,136,412,-59,144,292,-117,-205,-274,80,873,-40,-241,-18,-211,181,-111,-240,-114,-50,-138,-347,92,-4,-107,164,77,-256,-25
24672,-131,-165,165,138,125,430,-12,113,275,-124,-165,-259,51,883,-3,-269,-10,-166,188,-94,-227,-62,-18,-135,-341,86,-22,-116,129,39,-267,-10
24673,-125,-165,171,159,138,437,30,78,280,-132,-168,-269,75,911,-3,-218,-20,-161,190,-94,-240,-52,-1,-113,-331,80,-36,-137,132,-6,-309,-23
24674,-121,-136,188,173,130,441,58,99,267,-98,-162,-272,61,923,48,-201,-17,-186,192,-68,-213,-54,-43,-118,-299,121,-18,-112,178,57,-256,18
24675,-129,-147,194,157,130,464,19,89,247,-91,-97,-269,60,941,101,-73,34,-214,184,-29,-182,-76,-27,-116,-258,164,15,-105,219,132,-181,50
24676,-165,-197,145,111,107,440,-2,71,247,-144,-121,-270,46,899,4,2,-48,-213,177,-42,-194,-75,12,-106,-267,158,47,-122,223,145,-149,79
24677,-191,-233,147,110,124,428,-22,84,242,-136,-143,-272,51,906,20,-69,-60,-213,198,-55,-217,-82,30,-106,-273,131,13,-137,221,153,-170,103
24678,-205,-217,148,135,133,439,-24,98,254,-129,-138,-258,62,921,44,-108,-49,-194,213,-49,-216,-88,37,-65,-278,135,-1,-128,211,121,-207,10
24679,-178,-207,182,151,135,436,-40,113,266,-109,-158,-266,67,928,59,-89,-27,-180,199,-51,-196,-29,-29,-64,-277,128,13,-107,203,91,-234,-14
24680,-163,-222,197,124,126,429,-55,94,258,-131,-190,-306,66,923,47,-88,21,-170,194,-56,-224,-46,-70,-79,-275,116,2,-77,200,71,-256,-23
24681,-164,-221,182,119,126,438,15,76,271,-113,-79,-255,63,942,50,-184,37,-186,220,-36,-163,-78,-7,-82,-267,138,-3,-72,239,138,-200,14
24682,-158,-224,144,128,113,409,-6,75,276,-145,-79,-218,63,963,27,-284,-5,-194,216,-25,-131,-61,2,-82,-240,169,15,-42,258,183,-118,108
24683,-211,-271,70,146,92,403,-75,85,285,-145,-161,-214,121,957,61,-252,-33,-110,238,-12,-118,-94,57,-30,-209,185,59,48,313,231,-116,98
24684,-213,-254,132,206,136,442,-18,225,320,-122,-108,-168,197,956,90,-79,13,-52,275,10,-92,-132,90,2,-187,198,51,81,306,188,-185,12
24685,-186,-205,216,146,126,461,49,53,280,-135,-82,-150,123,944,98,48,79,-94,243,-1,-112,-48,118,-20,-217,205,67,8,233,77,-240,23
24686,-157,-188,231,122,123,444,-10,-17,270,-119,-117,-166,100,940,136,-128,53,-130,223,-4,-128,-22,93,-49,-249,201,64,-112,193,86,-213,37
24687,-184,-212,160,154,141,447,-24,100,309,-133,-105,-180,127,915,57,-54,12,-119,202,-43,-141,-53,16,-104,-292,139,27,-79,180,45,-242,18
24688,-156,-185,216,182,160,468,41,141,293,-117,-91,-121,28,921,18,-13,32,-84,180,-68,-210,-5,20,-92,-271,146,59,-102,215,44,-258,-14
24689,-153,-201,207,182,154,423,2,97,289,-103,-172,-178,48,932,21,-163,60,-117,189,-76,-236,-49,12,-101,-286,127,-18,-155,184,10,-274,-27
24690,-156,-182,136,201,153,409,25,194,303,-133,-179,-178,113,913,13,-113,49,-110,202,-67,-182,-71,-11,-103,-289,115,-25,-192,161,20,-255,0
24691,-109,-154,258,208,159,469,41,155,314,-91,-91,-84,141,935,96,-11,89,-62,261,-5,-105,37,44,-30,-234,175,121,-84,229,132,-180,79
24692,-73,-141,267,224,161,488,125,197,322,-54,-232,-58,173,950,130,-38,119,-7,291,3,-129,31,110,23,-192,192,73,-31,280,195,-133,114
24693,-51,-133,167,231,188,515,91,179,310,-41,-112,-53,144,980,189,-55,121,-11,286,31,-101,22,162,35,-166,211,56,-15,287,194,-96,173
24694,-56,-126,213,284,184,525,127,191,317,-79,75,-62,152,976,102,-113,119,-74,283,28,-123,24,129,14,-161,236,84,-25,288,196,-66,208
24695,-41,-129,358,236,171,506,89,177,296,-111,58,-63,155,956,31,-64,123,-41,281,24,-109,77,50,18,-183,229,103,-6,294,151,-134,104
24696,-16,-76,431,205,184,544,86,133,290,-78,1,-2,186,976,116,-5,188,49,301,54,-50,94,170,56,-166,267,122,73,329,139,-135,56
24697,-18,-86,384,234,201,568,124,194,322,-52,57,-18,197,985,137,19,191,59,308,46,-28,85,201,53,-183,269,144,53,325,127,-133,80
24698,-15,-90,380,235,188,570,113,207,305,-51,116,-17,192,974,149,114,159,64,306,45,-44,134,220,66,-191,249,148,7,318,125,-151,93
24699,4,-82,443,269,212,564,133,263,327,-61,78,37,217,983,174,76,148,39,320,57,-53,114,176,66,-177,273,101,-38,295,104,-145,91
24700,-22,-103,417,280,206,560,133,259,316,-50,18,-17,205,979,182,-5,240,22,320,56,-48,92,128,50,-158,287,110,53,304,118,-117,93
24701,-66,-133,349,249,197,555,123,223,323,-62,50,-43,190,985,199,23,174,13,321,59,-9,86,194,36,-147,288,135,77,296,124,-135,101
24702,-68,-130,331,236,192,540,96,189,313,-81,47,-36,191,986,182,49,127,30,312,66,40,47,193,29,-153,308,189,-13,298,135,-121,133
24703,-61,-109,312,242,182,515,126,104,330,-79,77,-21,206,996,125,95,218,44,312,49,23,50,215,38,-153,288,180,9,293,145,-92,181
24704,-83,-139,266,226,157,522,98,103,318,-71,72,-82,169,975,152,89,146,-29,263,30,-50,73,48,-18,-212,214,110,0,220,77,-198,124
24705,-98,-165,275,219,140,496,94,244,309,-88,-55,-87,170,979,113,50,133,-34,262,21,-56,28,31,-23,-238,201,115,-30,214,72,-207,38
24706,-112,-147,295,226,141,474,82,307,322,-102,-102,-36,203,998,110,-178,166,18,303,33,-80,-24,142,7,-219,179,47,-25,238,56,-240,-64
24707,-113,-170,296,221,122,449,34,210,312,-121,-85,-57,206,994,91,-257,201,-9,296,25,-149,-9,149,22,-205,188,-40,53,286,97,-221,-10
24708,-88,-155,313,200,136,468,89,153,306,-134,-49,-61,163,967,78,-84,136,-40,261,-2,-170,11,111,12,-206,179,10,-6,280,119,-183,34
24709,-68,-125,268,197,163,486,139,178,319,-116,-56,-62,173,975,110,4,114,-24,272,18,-131,15,127,18,-209,220,71,3,313,167,-110,71
24710,-26,-98,307,216,170,503,108,191,324,-101,-61,-52,188,961,84,-4,183,-4,288,19,-129,13,156,20,-211,232,87,26,328,198,-76,130
24711,-46,-130,314,200,142,476,40,196,298,-104,-75,-49,192,962,85,-45,173,17,283,14,-137,-2,163,42,-233,219,82,36,308,164,-78,152
24712,-42,-125,325,214,141,476,68,216,319,-107,-104,-24,210,971,49,-44,155,31,288,39,-93,34,179,54,-200,254,113,47,336,170,-66,108
24713,-77,-182,324,201,134,443,15,220,322,-114,-124,12,221,974,34,-9,123,67,321,43,-81,42,201,59,-192,266,147,130,364,201,-59,101
24714,-76,-187,322,163,118,454,37,146,295,-113,-99,0,195,962,52,-36,157,68,338,58,-84,2,241,98,-161,264,156,229,438,230,-94,55
24715,-78,-159,298,180,121,445,4,158,312,-99,-114,-26,192,971,64,-119,142,48,345,52,-110,-11,248,94,-161,229,64,72,410,154,-164,-11
24716,-64,-169,367,205,143,424,-38,198,335,-105,-169,6,208,981,43,-334,124,47,339,55,-173,-24,213,67,-167,208,-8,58,402,158,-141,4
24717,-76,-169,337,208,144,458,53,148,332,-98,-172,-47,185,970,106,-274,103,-22,314,40,-95,10,157,45,-188,207,84,68,323,115,-119,67
24718,-66,-143,301,215,138,476,26,151,329,-94,-163,-37,184,973,154,-65,122,-20,288,46,-68,65,142,26,-191,231,167,-32,204,75,-139,80
24719,-85,-172,279,208,130,459,-6,160,343,-115,-103,-59,191,960,133,-47,73,9,284,48,-77,-2,128,18,-201,239,129,-76,208,100,-118,71
24720,-117,-189,251,203,119,453,26,153,336,-129,-139,-78,187,950,104,-9,51,-7,296,19,-71,-24,122,15,-234,223,69,-82,223,73,-143,52
24721,-122,-194,236,201,108,438,-22,107,317,-128,-168,-46,186,951,118,48,59,22,305,30,-82,28,121,31,-236,235,81,2,281,111,-135,76
24722,-81,-169,300,216,131,487,42,126,332,-84,27,-15,193,998,134,-78,94,32,328,71,-56,29,184,69,-187,288,136,68,355,219,-43,158
24723,-89,-164,321,196,118,473,58,139,326,-103,31,-69,195,999,117,-67,115,28,323,93,-51,27,175,81,-184,311,207,75,403,285,35,174
24724,-116,-166,278,179,90,447,29,139,315,-117,-100,-96,194,995,83,-1,114,15,327,82,-73,79,168,98,-166,315,171,150,466,348,108,242
24725,-97,-132,256,179,106,468,33,133,324,-105,-50,-68,215,1013,115,-20,128,37,345,91,-64,63,197,106,-140,333,182,226,469,311,43,175
24726,-103,-130,242,181,111,452,32,169,348,-115,-60,-31,225,1015,115,-12,130,48,344,93,-91,61,212,84,-152,303,136,139,372,164,-122,3
24727,-96,-137,268,176,107,458,24,163,329,-98,-54,-44,190,1017,116,9,158,-30,309,104,-85,76,180,46,-151,293,97,93,361,115,-144,31
24728,-50,-143,293,217,119,473,66,188,328,-67,-20,-57,170,1006,135,44,174,-39,334,104,-55,90,144,33,-152,305,119,85,299,120,-59,119
24729,-34,-114,349,167,105,509,101,185,312,-53,-27,-50,172,1007,156,36,115,-3,331,105,-37,101,174,62,-154,318,168,60,312,133,-56,155
24730,-41,-95,329,163,139,515,100,159,309,-51,-11,-90,172,1013,149,11,116,-17,336,114,-31,87,174,69,-143,339,189,135,361,152,-54,137
24731,-69,-126,291,166,123,512,77,130,290,-56,38,-138,149,994,156,12,96,-68,319,126,-5,117,158,17,-143,352,206,110,330,162,-42,139
24732,-115,-139,268,164,101,493,77,100,275,-63,-33,-121,111,995,131,40,105,-84,288,124,-44,115,68,-15,-149,339,183,45,279,146,-39,170
24733,-104,-132,243,157,105,504,54,85,262,-76,-96,-133,101,990,127,28,87,-67,273,111,-72,123,93,-11,-156,320,186,30,281,142,-35,168
24734,-148,-157,222,123,110,513,51,71,251,-63,-64,-173,90,991,192,-71,34,-59,279,128,-33,84,87,-24,-174,322,203,-50,235,90,-66,126
24735,-145,-179,214,97,96,482,5,64,237,-77,-54,-190,110,1009,141,-56,87,-91,273,126,-18,86,50,-34,-159,316,198,-46,227,82,-85,76
24736,-139,-161,232,124,106,465,55,88,262,-82,-68,-154,144,1020,77,42,135,-42,314,138,-59,96,93,5,-115,329,204,15,292,172,-29,152
24737,-130,-138,238,150,133,492,84,140,285,-82,-68,-127,182,1042,119,-52,141,0,359,150,-72,68,164,43,-92,347,253,51,334,204,-32,203
24738,-156,-176,231,135,104,507,56,144,291,-79,-38,-136,188,1030,144,-50,84,-25,332,142,-33,-8,150,24,-110,333,260,68,325,207,-59,153
24739,-152,-189,201,153,106,498,49,12,303,-88,-48,-144,184,1004,149,-3,7,-51,320,131,-36,68,126,4,-143,311,198,30,313,185,-56,181
24740,-133,-165,230,173,134,513,57,59,303,-76,-60,-90,191,1028,150,25,-6,-53,317,142,-8,190,125,-28,-154,325,222,-38,278,195,-21,219
24741,-84,-137,324,158,146,529,103,134,258,-54,13,14,108,1034,143,94,117,-30,318,155,28,206,152,4,-96,385,281,35,330,229,41,266
24742,-68,-139,309,129,149,527,124,164,259,-59,32,-63,113,1025,162,76,139,-52,318,142,28,183,119,16,-98,389,276,65,352,206,8,246
24743,-105,-161,242,154,143,556,125,177,269,-49,22,-72,165,1006,177,0,139,-15,351,133,5,170,178,42,-119,377,300,65,359,223,-9,218
24744,-102,-130,236,181,135,570,183,163,260,-42,58,-113,134,984,203,-121,116,-85,319,141,28,107,95,-10,-137,356,282,22,341,192,-33,194
24745,-80,-148,285,160,118,485,93,128,275,-56,-182,-99,124,980,158,-32,123,-120,301,120,6,144,89,-15,-158,318,246,-24,306,158,-25,222
24746,-123,-155,217,165,136,527,111,128,266,-27,-115,-107,121,982,198,18,46,-95,308,141,36,146,93,-11,-139,322,261,-38,326,204,-13,243
24747,-127,-150,144,183,137,500,129,127,267,-40,65,-118,109,990,191,4,2,-93,295,137,12,138,58,-18,-122,319,220,-1,310,183,-27,188
24748,-77,-142,273,243,142,460,106,171,309,-84,31,-79,144,1010,139,23,72,-44,325,135,-7,139,116,28,-96,315,200,49,316,186,-12,222
24749,-98,-171,331,193,113,470,95,107,273,-101,-6,-127,119,1007,154,-18,25,-90,296,120,15,81,105,-12,-102,326,207,-48,305,161,-51,196
24750,-144,-193,301,153,135,473,72,105,275,-68,4,-163,126,996,218,-35,16,-85,293,102,-32,42,125,-8,-105,310,144,-32,295,155,-86,172
24751,-184,-222,235,157,129,478,57,102,257,-65,-97,-152,116,965,207,-37,4,-117,270,84,-46,0,89,1,-120,290,123,-1,330,161,-66,118
24752,-142,-205,316,178,139,458,-9,94,266,-99,-132,-146,105,941,126,19,-58,-146,255,60,-61,-12,37,-53,-167,249,128,-71,301,152,-86,130
24753,-77,-193,337,204,173,479,37,117,287,-106,22,-114,107,950,58,50,21,-121,253,44,-34,-8,38,-51,-168,233,158,-109,237,118,-141,89
24754,-131,-214,231,152,149,487,29,74,237,-109,2,-169,57,930,90,-106,41,-182,200,11,-109,-44,-14,-100,-229,174,69,-135,184,29,-202,4
24755,-112,-170,231,157,170,504,71,126,247,-99,-53,-159,84,932,109,-110,-22,-163,209,8,-125,-74,7,-100,-242,190,19,-79,215,59,-185,38
24756,-115,-166,253,145,143,485,12,98,237,-109,-53,-170,67,937,110,-53,-6,-197,175,9,-105,-46,4,-123,-239,192,44,-75,222,64,-183,62
24757,-119,-149,205,147,139,468,65,72,245,-104,-31,-205,66,939,99,-28,18,-198,188,3,-146,-5,-18,-112,-245,198,67,-76,245,85,-159,74
24758,-99,-144,246,208,154,465,19,151,290,-110,-48,-153,94,956,114,-11,35,-127,218,-7,-139,13,61,-63,-247,206,80,-61,295,142,-106,123
24759,-52,-132,270,205,171,492,69,131,287,-88,-14,-152,61,925,119,1,44,-190,193,-16,-111,11,50,-90,-249,201,107,-20,327,153,-77,123
24760,-26,-120,299,225,178,502,72,152,280,-96,-35,-149,72,899,115,-49,32,-197,164,-31,-122,51,83,-97,-261,182,81,36,334,141,-88,65
24761,-45,-144,312,262,177,505,60,135,279,-104,-56,-143,87,897,127,-88,89,-109,158,-40,-140,27,101,-81,-259,168,74,7,342,108,-157,6
24762,-71,-162,304,235,155,481,22,135,293,-124,-80,-143,73,872,94,-29,95,-122,164,-38,-162,-23,65,-68,-273,174,77,30,375,123,-180,-24
24763,-67,-137,310,235,153,481,56,141,297,-150,-75,-113,82,882,48,0,50,-102,152,-55,-142,3,100,-64,-290,190,106,10,344,130,-147,-14
24764,-57,-146,285,205,149,512,48,66,289,-107,-35,-109,84,895,157,-74,23,-110,166,-38,-84,17,153,-50,-293,211,98,-70,292,74,-160,14
24765,-66,-137,260,198,144,506,54,78,290,-76,16,-153,62,902,140,-96,49,-125,166,-21,-61,22,43,-81,-287,216,119,-84,227,40,-163,56
24766,-81,-140,274,199,145,465,85,86,284,-112,-72,-169,43,900,52,-168,32,-135,146,-34,-92,20,6,-95,-264,207,118,-96,202,52,-151,25
