,Fp1,Fp2,F7,F3,Fz,F4,F8,FC5,FC1,FC2,FC6,T7,C3,Cz,C4,T8,TP9,CP5,CP1,CP2,CP6,TP10,P7,P3,Pz,P4,P8,PO9,O1,Oz,O2,PO10
231105,-6,50,55,-28,33,298,499,156,-393,132,226,91,278,-37,259,106,165,393,-16,312,86,469,362,134,53,234,464,159,259,234,116,237
231106,-176,-9,72,-23,21,267,461,153,-397,108,244,116,253,-38,241,134,134,364,-22,297,92,491,391,131,42,213,440,134,272,226,99,258
231107,-177,17,26,2,17,251,371,142,-404,103,228,93,236,-30,253,174,195,324,-45,289,88,517,333,98,44,203,455,134,294,238,75,242
231108,-247,-83,11,-9,3,244,355,135,-390,108,127,-15,234,-6,225,190,230,295,-43,304,85,471,276,97,49,203,462,101,254,209,47,184
231109,-287,-193,28,-72,-12,232,308,105,-420,116,64,-247,243,-1,212,215,188,246,-46,293,81,390,241,77,44,207,435,91,205,175,35,87
231110,-210,-199,108,-115,-29,230,285,99,-422,109,107,-260,212,3,218,208,182,235,-41,286,67,395,226,58,53,196,393,66,166,175,18,107
231111,-152,-156,89,-147,-14,294,294,150,-408,101,174,-153,225,14,214,225,137,255,-33,295,62,331,255,53,67,212,402,40,168,172,42,211
231112,-71,-46,115,-182,-7,285,266,226,-398,97,159,-23,276,15,218,235,214,295,-14,298,74,426,317,85,87,218,408,83,234,206,75,236
231113,-139,-105,60,-184,-21,298,266,177,-417,93,163,99,224,-6,209,201,179,288,-42,280,58,494,293,85,57,196,405,31,241,210,59,30
231114,-198,-139,27,-148,-13,275,301,205,-393,107,206,82,232,19,238,247,202,301,-11,303,104,514,346,94,101,235,451,72,269,245,97,-91
231115,-150,-159,17,-194,-45,329,260,143,-406,120,221,127,239,40,254,319,243,324,11,333,154,519,375,116,129,274,502,112,309,285,141,90
231116,-109,-142,15,-188,-77,324,214,118,-404,99,237,160,243,14,255,354,235,329,1,337,170,540,370,129,129,286,540,136,332,306,160,248
231117,-168,-120,62,-172,-54,317,234,122,-390,127,288,161,275,39,267,251,311,384,26,370,164,616,454,164,151,315,549,203,377,341,224,384
231118,-213,-90,73,-179,-38,268,263,140,-398,121,259,170,299,50,273,253,259,412,55,353,159,581,491,179,158,317,524,192,383,361,200,263
231119,-157,-41,21,-180,-35,239,318,33,-383,112,261,104,282,46,276,307,170,424,57,358,168,664,507,185,158,324,536,125,385,348,212,223
231120,-207,-80,-53,-133,-23,289,340,2,-367,139,292,66,315,34,292,361,193,439,63,357,186,627,557,200,156,332,574,112,387,349,207,303
231121,-216,-265,23,-69,2,401,312,140,-373,144,324,110,323,22,297,396,172,426,61,354,205,601,564,193,146,299,558,98,386,355,182,294
231122,-73,-247,94,-50,0,392,311,176,-356,139,333,56,320,4,295,325,242,414,58,342,176,668,517,172,144,300,594,79,377,337,192,337
231123,-142,-35,51,-68,2,291,514,226,-353,131,350,-96,371,-4,281,369,283,426,56,350,219,667,486,197,154,349,661,263,423,379,249,335
231124,-123,-69,8,-8,1,271,626,194,-340,135,316,67,385,-26,284,473,344,445,73,364,269,675,493,231,166,351,685,401,455,407,283,332
231125,-10,-79,77,-2,-21,277,648,22,-363,125,309,298,327,-22,302,446,389,451,81,353,274,640,528,225,169,353,709,379,458,413,301,312
231126,-4,-19,129,-73,-21,309,647,21,-381,122,356,268,328,-31,322,480,407,429,58,366,279,611,557,227,182,347,695,205,416,397,280,194
231127,-13,35,227,-44,9,386,604,92,-366,148,410,311,335,-27,339,499,339,423,53,385,290,676,526,231,199,376,708,180,396,388,285,211
231128,-21,54,248,-69,14,351,571,91,-355,166,402,355,321,0,325,410,336,379,50,372,260,737,417,200,198,384,680,215,406,392,252,242
231129,-40,49,184,-59,-12,283,523,130,-367,147,352,316,318,-25,293,354,391,369,28,360,216,697,358,176,176,324,628,221,356,357,215,208
231130,-33,61,95,-68,-25,287,498,133,-367,136,321,286,301,-18,294,350,367,357,26,353,192,620,331,163,167,297,573,297,378,344,222,208
231131,27,34,60,-33,-21,293,512,165,-349,131,337,225,297,-12,284,347,323,331,18,377,170,584,296,144,153,299,553,327,411,338,191,171
231132,-16,-13,24,-10,-29,279,481,153,-351,129,323,109,280,16,284,386,261,331,15,381,179,587,306,148,152,308,575,267,375,321,183,148
231133,-61,31,28,-71,-42,249,475,131,-387,112,312,86,273,17,291,362,252,336,19,370,187,569,309,134,149,311,568,228,341,302,158,144
231134,-149,62,65,-88,-28,260,480,123,-377,116,308,96,301,30,297,322,297,368,36,371,183,579,363,139,152,285,543,210,354,309,153,285
231135,-218,-71,-9,-126,-34,276,424,83,-380,111,260,84,296,43,283,414,253,363,34,368,137,526,386,160,153,271,463,167,346,282,126,281
231136,-306,-220,-84,-159,-56,236,361,63,-414,95,216,116,281,22,254,388,239,369,35,345,106,479,398,163,149,250,408,136,341,267,128,204
231137,-287,-272,21,-164,-74,212,394,97,-424,124,250,87,313,37,272,257,281,415,23,354,153,553,444,187,151,252,463,162,346,270,113,221
231138,-274,-227,111,-105,-35,234,413,190,-368,142,287,87,354,64,297,241,322,437,62,389,168,569,486,216,187,285,511,160,344,293,130,249
231139,-255,-101,163,-123,-20,267,359,258,-373,142,301,135,336,23,288,210,271,420,38,357,133,406,472,171,144,239,442,148,303,237,74,64
231140,-181,43,186,-56,-7,340,383,268,-391,151,328,183,327,-1,276,253,243,404,5,325,122,420,468,158,122,231,459,140,303,232,60,62
231141,-92,67,235,-9,14,295,412,251,-386,120,309,210,329,-19,261,292,256,405,4,300,108,355,476,156,100,224,456,121,290,235,70,78
231142,2,35,253,-47,0,438,385,263,-395,128,279,114,329,-34,237,263,224,366,-18,269,80,339,429,114,55,183,401,96,262,193,16,38
231143,-6,-17,190,-4,0,449,357,269,-394,133,244,66,327,-37,214,196,207,353,-22,248,32,421,385,95,51,168,359,63,241,186,-3,49
231144,27,-10,139,-139,17,308,339,218,-417,94,219,21,316,-39,218,155,124,353,-20,246,22,482,361,106,45,163,348,61,245,190,6,45
231145,31,-18,162,-190,16,327,392,219,-410,112,256,17,337,-27,243,216,151,392,-11,275,81,342,383,114,60,187,408,36,255,205,50,70
231146,-32,-9,166,15,15,274,418,289,-385,106,236,-35,333,-37,228,223,222,411,-1,289,93,334,444,115,62,193,422,26,230,212,73,109
231147,110,37,194,125,30,322,437,294,-357,96,247,-157,336,-30,246,226,214,374,-12,289,88,363,396,114,59,191,414,30,248,227,48,138
231148,228,109,240,83,56,304,450,290,-348,130,216,-119,379,-19,269,277,252,400,9,302,124,398,392,128,92,224,465,81,286,271,73,187
231149,179,91,264,13,22,257,357,279,-374,107,130,36,339,-35,250,253,262,431,18,287,108,380,442,137,89,239,434,140,295,262,86,164
231150,192,44,314,-47,27,353,302,262,-369,126,139,175,366,-7,240,263,285,456,50,313,100,437,486,164,118,239,437,200,306,270,107,185
231151,192,99,391,-36,38,397,343,315,-376,146,218,237,373,-24,227,284,344,428,24,304,103,437,442,147,115,247,440,254,325,283,89,182
231152,224,157,419,-28,25,354,399,314,-398,109,214,274,317,-73,213,298,357,370,-23,275,87,451,367,108,72,215,447,270,331,269,101,169
231153,234,237,425,-13,27,335,443,277,-387,92,206,217,281,-104,195,289,304,337,-30,279,81,444,372,105,50,214,476,193,314,264,85,100
231154,131,294,323,12,49,331,422,243,-396,124,233,143,281,-82,222,254,248,338,-52,277,100,385,426,101,68,238,487,26,274,262,109,28
231155,119,272,244,16,53,311,365,203,-403,133,248,134,252,-74,236,271,227,310,-52,294,136,399,371,96,80,264,515,33,260,252,137,99
231156,151,216,250,5,24,303,350,177,-434,118,212,-37,221,-106,218,205,216,273,-83,295,103,357,339,79,55,229,486,114,273,243,89,103
231157,156,265,297,26,35,390,441,222,-420,138,251,-246,236,-91,223,133,161,239,-87,276,83,357,255,45,31,210,435,49,244,222,52,87
231158,357,392,382,19,57,522,509,278,-416,145,279,-80,251,-95,225,105,158,271,-69,252,61,391,253,61,28,218,414,-50,199,193,40,-17
231159,481,448,402,-22,25,325,482,254,-432,108,243,145,239,-98,187,65,174,268,-67,230,46,361,301,65,22,191,405,-36,197,187,35,-76
231160,445,370,414,5,29,356,466,243,-387,131,255,175,273,-68,194,109,164,266,-36,268,85,374,273,63,30,182,429,-4,235,178,30,-52
231161,432,312,400,1,43,373,422,257,-378,132,245,179,298,-51,210,198,176,301,-36,274,77,392,348,78,46,179,455,7,250,196,32,-76
231162,462,376,393,22,48,374,413,234,-386,103,220,210,273,-34,191,207,115,286,-49,239,45,286,337,56,27,156,426,-12,201,166,-23,-172
231163,488,381,379,-2,26,352,383,179,-400,75,215,125,227,-93,159,116,14,205,-111,200,2,315,183,-26,-29,114,411,-111,114,76,-78,-112
231164,611,380,381,7,61,404,419,221,-362,124,233,133,285,-71,188,138,58,255,-68,215,7,350,203,4,-18,125,402,-29,151,104,-54,-67
231165,485,360,341,10,38,370,350,233,-368,119,229,112,292,-78,166,145,46,258,-78,198,-6,249,196,-24,-44,71,313,-121,73,38,-94,-57
231166,320,331,322,4,15,380,333,206,-386,76,210,77,283,-112,149,87,47,229,-115,129,-53,300,182,-66,-96,25,273,-204,3,-18,-131,-17
231167,392,386,373,58,37,393,386,228,-354,86,210,107,348,-75,157,74,59,260,-95,141,-83,335,240,-29,-90,12,234,-122,59,14,-134,-97
231168,379,396,428,46,52,426,402,244,-339,106,207,106,351,-71,157,103,74,267,-75,178,-52,306,242,-16,-75,30,246,-110,60,26,-145,-129
231169,330,328,396,-21,34,365,364,198,-361,103,166,72,330,-82,132,78,36,240,-90,138,-79,199,227,-24,-81,24,240,-91,56,0,-154,-179
231170,372,325,272,-20,38,281,353,117,-364,88,150,26,341,-49,136,47,12,266,-87,153,-92,165,218,-5,-66,38,200,-82,68,9,-172,-135
231171,349,211,178,32,30,243,324,196,-346,94,125,-92,325,-44,147,41,24,277,-80,157,-89,148,219,-22,-54,36,213,-112,62,-4,-183,-70
231172,268,180,115,41,24,346,253,238,-371,90,121,-218,279,-88,122,46,12,189,-124,145,-119,132,162,-82,-93,-7,170,-175,12,-40,-203,-96
231173,304,222,121,38,33,405,232,135,-384,97,139,-201,246,-107,133,55,-41,162,-138,160,-118,169,148,-97,-90,-11,162,-165,0,-43,-197,-110
231174,274,265,210,116,25,389,251,147,-403,99,135,-162,261,-93,150,23,-57,169,-132,148,-112,190,178,-97,-80,-1,185,-160,-5,-56,-192,-105
231175,301,328,260,97,19,297,252,156,-403,91,104,-145,261,-106,103,24,-18,174,-118,168,-104,208,194,-101,-73,9,188,-160,9,-55,-162,-68
231176,260,262,287,75,23,232,243,166,-394,70,70,-159,226,-117,79,16,12,130,-146,160,-124,186,133,-120,-94,16,180,-188,-6,-36,-171,-97
231177,234,231,273,71,48,331,264,191,-398,71,112,-143,230,-114,89,75,-46,113,-147,164,-131,138,72,-113,-98,19,160,-160,7,-6,-139,-112
231178,266,242,294,37,32,381,323,196,-395,111,144,-95,239,-91,110,126,-145,123,-113,180,-105,143,73,-87,-57,52,179,-169,32,4,-94,-120
231179,287,129,261,27,18,355,295,151,-415,110,132,-75,192,-86,124,113,-55,123,-118,190,-108,145,117,-73,-46,73,212,-199,24,6,-101,-104
231180,267,88,242,35,24,254,250,137,-409,94,113,-89,194,-92,116,133,17,103,-117,214,-102,156,104,-88,-39,80,205,-139,63,51,-69,-72
231181,302,157,326,36,62,316,266,179,-388,119,104,-114,213,-51,129,227,60,143,-80,227,-66,208,67,-85,-25,122,242,-99,67,61,-40,-47
231182,444,261,352,-5,35,372,261,187,-404,121,133,-110,218,-90,136,16,14,146,-106,214,-52,220,94,-96,-23,113,251,-180,28,22,-65,-122
231183,510,361,375,-20,14,298,294,201,-408,89,109,-70,247,-96,124,-136,0,179,-87,228,-73,271,134,-97,-8,93,257,-214,20,22,-46,-130
231184,552,436,422,-18,44,307,319,252,-384,98,164,10,282,-65,142,-23,68,263,-51,253,-55,301,245,-38,5,125,291,-161,53,63,-39,-88
231185,460,401,434,-4,24,320,305,286,-369,99,181,92,311,-65,143,17,94,297,-39,246,-47,251,289,-15,26,122,279,-84,63,75,-45,-83
231186,383,362,441,25,16,326,300,298,-398,91,170,122,323,-47,159,16,135,333,-38,244,-39,301,376,-6,22,120,306,-132,65,67,-50,-70
231187,433,327,386,21,6,311,317,300,-387,89,168,95,343,-46,158,72,84,331,-24,239,-3,315,361,1,37,137,343,-199,45,69,-66,-130
231188,499,262,343,63,29,307,289,317,-361,109,175,10,369,-29,182,72,49,308,9,255,17,314,268,15,66,168,355,-61,122,106,-21,-143
231189,406,250,306,84,27,311,242,269,-370,109,137,-67,355,-50,164,-7,64,297,-7,262,0,279,188,8,61,163,358,-41,133,126,-2,-96
231190,354,301,325,70,43,338,252,203,-336,121,120,-81,371,-23,166,36,85,345,15,277,17,266,246,34,84,186,336,-31,140,122,16,-24
231191,407,309,317,32,33,343,254,-24,-334,124,97,51,355,-19,177,67,96,380,35,294,-7,326,322,73,102,211,285,-73,182,169,20,42
231192,434,288,343,73,34,313,226,184,-343,101,108,35,365,-33,167,6,94,382,23,292,-7,313,305,67,101,197,262,2,179,164,13,53
231193,428,291,384,75,30,307,233,285,-355,93,125,-68,367,-39,164,49,128,363,1,283,17,226,298,55,104,198,345,7,160,152,32,-70
231194,425,303,458,106,23,313,284,401,-329,91,174,-167,402,-46,188,102,130,347,12,295,74,305,292,74,133,222,425,50,171,184,85,-81
231195,486,346,503,117,43,337,364,418,-323,90,208,2,403,-38,195,111,170,380,38,308,74,297,274,108,150,272,443,55,212,209,108,-90
231196,435,316,461,61,36,317,344,299,-341,101,185,168,369,-49,185,110,175,373,37,319,60,243,294,117,143,257,422,44,239,248,142,-110
231197,340,306,438,-22,30,317,319,275,-358,86,135,144,354,-61,171,151,130,366,43,304,61,385,321,127,152,259,412,23,241,270,153,-76
231198,193,289,350,114,34,372,331,279,-350,84,93,190,372,-39,181,212,164,353,41,319,80,346,326,111,156,278,465,5,236,261,157,11
231199,254,307,277,91,15,394,316,243,-357,94,164,210,323,-20,201,214,163,320,22,334,94,307,281,91,169,288,486,15,229,286,187,160
231200,352,331,254,134,6,328,311,254,-354,91,164,162,310,-33,170,149,178,296,25,318,55,390,258,94,148,275,425,4,203,282,186,205
231201,422,323,244,159,32,381,321,267,-322,113,187,135,315,-14,194,139,219,317,28,340,90,397,270,117,178,289,424,38,209,286,186,232
231202,399,328,233,168,35,328,312,318,-320,106,180,81,320,-9,198,205,181,328,37,333,120,311,286,119,179,297,426,33,240,293,186,231
231203,359,286,228,151,18,329,286,323,-364,81,141,46,301,-49,140,76,119,288,-24,285,35,257,271,65,106,219,347,-90,135,204,95,136
231204,341,239,224,87,35,349,280,275,-362,90,146,76,315,-57,147,-40,100,304,-31,269,1,355,290,48,82,195,339,-62,75,166,90,112
231205,327,292,267,-20,50,432,276,293,-348,120,194,89,318,-37,193,36,114,293,-3,297,35,432,275,64,102,244,395,-18,153,223,144,121
231206,330,343,269,34,36,506,251,223,-361,119,217,51,312,-55,174,42,142,241,-32,269,37,393,228,33,75,235,422,-25,167,209,134,130
231207,325,353,247,92,20,405,293,186,-362,97,199,30,324,-70,161,61,230,246,-48,254,34,389,242,31,68,215,444,9,155,194,114,177
231208,411,377,298,65,52,340,410,280,-341,127,247,99,342,-26,227,183,251,319,-4,307,135,490,291,59,98,263,503,29,168,218,153,177
231209,398,163,352,36,53,428,378,322,-351,103,244,111,337,-38,219,223,199,316,-15,273,117,468,303,64,86,232,476,-34,130,179,106,66
231210,405,108,367,60,30,355,298,342,-351,69,203,124,337,-54,191,250,175,359,-17,260,78,400,387,73,59,194,458,-56,128,151,62,16
231211,398,208,356,90,40,345,338,336,-344,92,205,77,354,-34,195,273,204,389,15,274,69,428,409,94,62,203,446,32,157,151,74,81
231212,385,350,362,48,28,343,364,265,-340,87,194,110,363,-28,194,383,234,408,7,261,83,490,379,108,64,198,444,58,176,171,85,165
231213,457,397,420,37,15,310,361,217,-363,76,198,139,332,-48,193,352,301,379,8,254,98,466,346,98,55,180,428,-65,142,155,68,148
231214,529,362,468,73,45,342,346,244,-359,101,240,92,345,-55,183,103,300,379,-14,240,62,419,383,90,23,142,396,-65,107,94,11,36
231215,583,333,510,65,47,344,289,252,-380,108,244,-69,333,-93,177,42,221,310,-60,220,39,380,275,13,-13,125,387,-49,64,38,-50,59
231216,538,345,486,42,22,308,214,286,-384,86,198,37,317,-90,159,226,154,239,-79,199,20,449,174,-39,-47,106,361,-53,11,6,-106,88
231217,509,434,431,10,16,304,232,281,-391,71,188,59,296,-93,169,278,139,235,-100,189,-3,420,140,-71,-51,88,331,-2,9,-6,-116,72
231218,571,431,366,22,62,408,312,278,-361,122,213,73,312,-76,190,205,158,260,-81,211,7,417,201,-47,-34,61,348,34,28,5,-126,1
231219,496,351,348,53,34,427,345,241,-382,93,166,10,294,-103,150,88,72,226,-124,177,-39,366,209,-82,-68,15,283,-70,-38,-88,-226,-73
231220,332,321,350,74,38,383,373,235,-401,87,92,-5,281,-117,149,34,33,244,-130,159,-50,318,203,-98,-75,27,275,-113,-46,-103,-215,-59
231221,348,384,343,64,68,357,390,270,-380,131,133,-7,307,-87,168,50,85,245,-104,212,-15,345,179,-75,-65,63,298,-56,-35,-99,-185,-22
231222,439,433,391,57,61,333,428,277,-379,139,193,-5,309,-75,180,96,103,239,-111,214,0,338,200,-92,-54,84,305,-65,-27,-79,-170,-89
231223,477,478,459,32,73,338,469,313,-364,123,220,18,319,-82,199,135,132,236,-92,217,10,339,244,-70,-56,84,290,-35,1,-71,-152,-44
231224,516,474,463,61,80,373,468,337,-367,111,234,69,330,-69,198,189,244,263,-89,236,8,400,304,-47,-38,71,245,-29,22,-48,-141,-15
231225,532,422,370,70,49,357,410,347,-365,111,209,55,341,-83,181,194,210,228,-95,216,-2,393,311,-61,-40,64,236,-75,11,-48,-164,-90
231226,500,397,301,38,23,326,334,281,-378,111,203,40,325,-78,186,192,119,267,-92,210,1,245,316,-60,-35,76,278,-114,1,-49,-199,-121
231227,476,402,297,-6,15,321,310,300,-381,103,186,-100,336,-86,181,121,96,253,-105,219,-13,248,287,-73,-38,61,321,-82,-4,-49,-190,-95
231228,512,411,370,86,57,375,284,370,-351,118,199,-249,375,-72,190,98,119,276,-87,196,-15,245,255,-79,-51,58,306,-42,4,-39,-189,-87
231229,480,379,348,90,59,387,188,386,-369,92,187,-354,359,-97,171,22,124,252,-123,174,-45,244,202,-81,-73,28,262,-98,19,-21,-192,-45
231230,461,364,386,96,64,374,176,382,-365,113,177,-209,363,-97,171,-47,177,275,-95,179,-81,319,223,-38,-56,21,233,-25,55,-27,-191,-97
231231,455,359,426,99,41,319,231,383,-375,85,42,-209,354,-100,132,-5,97,296,-112,163,-79,193,241,-54,-76,19,245,-64,26,-49,-232,-238
231232,445,349,440,75,32,293,305,388,-382,65,51,-30,352,-114,100,-35,-8,300,-124,150,-105,164,251,-81,-90,6,258,-156,-53,-86,-225,-203
231233,475,360,402,81,26,309,304,362,-385,55,52,111,342,-107,82,-61,-21,296,-123,129,-123,199,269,-101,-115,-21,235,-110,-48,-92,-220,-121
231234,501,344,404,104,41,308,303,350,-371,61,51,171,323,-81,101,-12,44,271,-129,155,-94,110,225,-121,-112,-8,216,-44,-4,-66,-198,-146
231235,489,349,389,87,33,273,275,314,-380,52,43,173,303,-85,106,-24,118,245,-133,147,-116,138,217,-129,-111,-13,224,-64,-18,-79,-247,-56
231236,471,333,409,54,25,250,259,309,-382,37,39,142,279,-104,67,-38,158,241,-125,141,-151,175,258,-95,-119,-5,210,-50,-15,-89,-269,-75
231237,481,365,411,50,34,272,301,315,-399,64,67,145,282,-88,71,21,149,232,-114,157,-121,183,244,-67,-74,23,238,-28,-2,-59,-220,-87
231238,513,382,462,90,68,296,343,318,-392,80,120,185,303,-75,118,107,172,249,-88,177,-66,213,231,-32,-57,39,270,15,27,-20,-164,-70
231239,511,354,462,86,46,295,323,328,-383,79,122,178,328,-82,125,121,185,258,-89,196,-66,248,240,-27,-51,62,286,32,52,-16,-147,-89
231240,532,372,466,83,50,305,322,332,-399,89,125,165,305,-87,113,104,210,271,-93,191,-50,275,247,-43,-50,65,270,21,44,-21,-139,-30
231241,518,416,462,91,77,309,341,322,-392,108,177,163,300,-71,156,171,249,271,-95,212,-22,268,248,-47,-51,94,283,21,28,-12,-153,-15
231242,498,425,460,70,56,331,383,324,-404,113,201,121,318,-71,184,156,231,265,-94,230,-8,243,233,-64,-39,92,281,25,2,-35,-166,-64
231243,513,507,432,69,58,357,441,312,-418,97,222,105,276,-110,165,98,203,257,-116,220,-25,254,251,-74,-70,57,289,-43,-22,-90,-201,-60
231244,500,488,410,61,68,371,448,302,-417,102,229,122,291,-76,178,79,227,272,-101,219,-11,332,273,-32,-76,69,312,-48,-18,-65,-189,41
231245,511,491,345,45,62,358,458,277,-446,86,184,60,311,-92,154,64,184,235,-105,189,-14,263,251,-61,-81,63,255,-72,-7,-42,-141,41
231246,557,497,340,70,62,355,437,320,-425,68,157,51,312,-119,140,73,156,249,-102,184,-40,251,249,-49,-71,56,234,-60,30,-32,-141,6
231247,566,516,358,73,91,392,479,330,-402,109,183,72,323,-97,163,141,216,259,-62,197,-5,292,290,-28,-48,76,269,11,71,3,-131,11
231248,596,566,388,79,92,399,463,326,-394,135,205,16,323,-116,164,213,191,228,-92,189,-36,295,251,-52,-54,72,229,-61,32,-30,-150,-22
231249,610,569,423,95,101,416,442,340,-375,123,203,-46,317,-104,178,198,146,235,-98,189,-54,336,248,-35,-55,68,256,-83,62,-3,-96,12
231250,612,575,437,109,95,424,429,336,-366,117,200,-136,360,-87,171,220,141,263,-55,191,-42,363,238,-34,-37,76,285,-48,67,15,-89,-27
231251,677,717,486,141,115,442,439,379,-362,120,202,-68,360,-63,166,205,103,263,-26,213,-19,448,194,-35,-32,95,359,-92,26,25,-69,-62
231252,735,787,532,173,111,435,426,404,-352,118,180,45,342,-69,168,22,31,269,-42,200,-35,344,168,-40,-36,85,337,-142,24,27,-66,-112
231253,683,687,483,124,91,483,434,343,-371,93,159,6,297,-100,128,-91,45,236,-97,158,-101,203,190,-49,-63,45,274,-226,-25,-43,-128,-158
231254,661,665,419,129,91,427,464,321,-371,108,181,-60,299,-98,157,2,-1,240,-92,184,-75,183,235,-57,-57,52,264,-237,-5,-49,-157,-122
