,Fp1,Fp2,F7,F3,Fz,F4,F8,FC5,FC1,FC2,FC6,T7,C3,Cz,C4,T8,TP9,CP5,CP1,CP2,CP6,TP10,P7,P3,Pz,P4,P8,PO9,O1,Oz,O2,PO10
100979,-399,-407,-287,-1063,-484,125,-175,43,-285,-224,-115,-61,95,-147,-876,-177,-38,-365,459,-727,-430,-42,155,-4,-85,-91,673,-460,143,-131,-184,-301
100980,-384,-424,-297,-1068,-496,119,-172,54,-282,-228,-111,-36,98,-158,-879,-69,-10,-353,461,-716,-397,-50,200,0,-84,-72,677,-446,129,-142,-185,-229
100981,-379,-410,-320,-1074,-517,116,-161,48,-281,-245,-77,-109,108,-164,-853,-52,-45,-345,462,-721,-398,-48,216,-13,-100,-84,689,-441,93,-209,-214,-194
100982,-365,-427,-293,-1052,-512,110,-151,69,-281,-210,-60,-166,121,-159,-848,-129,-66,-332,437,-734,-403,-21,205,-21,-96,-88,678,-438,106,-198,-255,-197
100983,-350,-429,-276,-1053,-507,100,-142,77,-294,-189,-84,-130,90,-167,-838,-57,-119,-329,424,-730,-405,9,174,-15,-85,-102,666,-442,103,-201,-256,-292
100984,-369,-426,-271,-1048,-499,109,-166,61,-275,-207,-95,-92,74,-168,-852,-45,-125,-368,432,-715,-408,15,118,-35,-95,-111,655,-495,72,-227,-271,-342
100985,-339,-431,-264,-1007,-473,110,-159,60,-278,-202,-120,-80,80,-172,-881,-145,-66,-384,433,-738,-408,-54,96,-57,-128,-128,635,-501,47,-255,-308,-394
100986,-354,-432,-266,-998,-449,128,-165,79,-276,-185,-107,-96,85,-168,-864,-194,52,-386,415,-743,-415,-46,107,-51,-135,-151,602,-500,17,-284,-352,-419
100987,-367,-412,-252,-1010,-470,110,-160,72,-273,-183,-88,-138,82,-165,-861,-177,51,-402,404,-755,-419,-61,61,-78,-176,-139,604,-531,17,-283,-309,-391
100988,-388,-426,-268,-1008,-491,122,-164,66,-292,-209,-87,-131,71,-158,-859,-234,-23,-381,409,-733,-401,-135,57,-87,-174,-123,644,-522,24,-239,-226,-336
100989,-377,-424,-281,-1031,-504,123,-141,66,-270,-196,-78,-89,97,-132,-832,-361,4,-355,420,-713,-389,-144,92,-76,-128,-96,721,-476,72,-199,-177,-278
100990,-383,-441,-286,-1046,-521,120,-152,61,-292,-235,-75,-83,109,-146,-839,-261,4,-364,398,-713,-379,-142,103,-77,-120,-112,664,-486,58,-222,-257,-351
100991,-354,-442,-281,-1038,-525,107,-158,60,-291,-223,-75,-100,110,-159,-838,-83,-14,-343,396,-718,-391,-143,109,-91,-138,-157,539,-491,18,-297,-369,-356
100992,-317,-398,-235,-1017,-488,127,-128,90,-245,-198,-45,-58,129,-129,-832,13,-12,-303,448,-702,-374,-119,165,-37,-106,-132,595,-443,65,-247,-317,-276
100993,-325,-441,-256,-1017,-497,122,-126,113,-255,-221,-60,-20,147,-113,-844,80,26,-277,468,-707,-388,-75,191,-5,-93,-135,678,-392,102,-237,-287,-250
100994,-342,-485,-255,-1000,-490,122,-146,117,-282,-242,-89,-26,149,-133,-851,-140,54,-281,450,-729,-413,-42,206,-2,-97,-152,668,-393,87,-227,-313,-240
100995,-307,-438,-225,-979,-479,141,-118,126,-264,-228,-61,-23,164,-137,-847,-1044,80,-276,447,-740,-422,-25,196,1,-103,-160,571,-391,103,-202,-292,-280
100996,-312,-444,-235,-994,-490,115,-164,125,-276,-246,-77,-26,148,-179,-870,-1288,102,-289,444,-766,-473,-66,181,-27,-145,-198,483,-424,42,-248,-340,-368
100997,-293,-412,-218,-983,-461,152,-140,139,-255,-224,-59,-39,149,-157,-869,-753,46,-295,450,-769,-495,-71,165,-40,-173,-211,520,-450,6,-290,-350,-398
100998,-314,-408,-218,-994,-477,150,-136,136,-271,-222,-57,-102,125,-164,-864,-249,27,-304,441,-764,-452,-206,131,-70,-166,-205,567,-490,-8,-325,-363,-410
100999,-310,-415,-239,-986,-479,113,-161,129,-264,-235,-84,-108,146,-147,-884,119,-12,-296,445,-766,-467,-243,126,-63,-159,-187,590,-523,-23,-326,-371,-402
101000,-352,-446,-247,-984,-484,92,-198,137,-252,-266,-153,-147,158,-168,-944,205,-6,-291,434,-804,-516,-102,185,-44,-159,-203,574,-532,-4,-296,-322,-374
101001,-348,-437,-266,-997,-494,90,-189,103,-284,-276,-162,-116,116,-187,-930,122,-2,-320,426,-791,-504,-132,208,-61,-162,-221,539,-553,-15,-298,-390,-415
101002,-335,-423,-261,-1010,-504,115,-197,81,-299,-250,-154,-85,68,-181,-917,92,2,-348,424,-772,-492,-117,149,-70,-165,-202,575,-520,23,-250,-280,-352
101003,-356,-430,-254,-1025,-487,141,-176,81,-285,-209,-118,-73,61,-172,-895,89,21,-343,418,-759,-461,-40,106,-87,-170,-172,598,-473,41,-235,-259,-251
101004,-358,-435,-278,-1036,-505,112,-188,71,-297,-224,-136,-46,57,-191,-919,-12,17,-345,378,-799,-505,-104,127,-130,-178,-198,571,-495,-3,-289,-373,-284
101005,-317,-440,-241,-990,-482,141,-184,112,-295,-186,-147,-4,81,-169,-927,-74,40,-349,391,-803,-499,-122,137,-112,-180,-216,572,-481,0,-290,-340,-300
101006,-286,-396,-220,-973,-469,158,-177,106,-275,-194,-142,-1,73,-152,-923,-115,35,-339,395,-796,-498,-103,126,-111,-188,-222,578,-478,4,-299,-370,-272
101007,-348,-427,-256,-1002,-507,112,-231,74,-296,-225,-177,-118,60,-165,-948,-239,3,-357,391,-804,-530,-142,131,-97,-188,-214,552,-449,42,-252,-329,-256
101008,-317,-392,-233,-993,-462,124,-189,89,-280,-188,-143,-343,87,-164,-910,-286,-36,-364,388,-779,-496,-127,132,-80,-174,-192,584,-430,55,-227,-273,-282
101009,-300,-356,-208,-976,-445,152,-135,111,-271,-200,-107,-396,87,-159,-886,-234,-91,-361,390,-761,-465,-101,142,-71,-162,-163,638,-408,91,-186,-223,-278
101010,-297,-384,-208,-972,-478,142,-135,110,-281,-204,-84,-211,95,-132,-906,-270,-40,-332,393,-750,-472,-243,156,-74,-158,-134,628,-409,101,-172,-208,-262
101011,-289,-415,-216,-1000,-489,135,-160,94,-287,-224,-108,-50,87,-156,-908,-321,50,-334,383,-742,-466,-114,159,-64,-172,-140,646,-451,91,-188,-223,-253
101012,-308,-407,-221,-995,-495,160,-137,97,-279,-206,-79,-37,110,-156,-880,-330,110,-296,395,-728,-427,93,201,-29,-157,-146,644,-378,101,-236,-322,-257
101013,-306,-372,-218,-991,-478,151,-121,86,-267,-200,-43,-42,109,-150,-871,-221,6,-300,415,-735,-428,-55,199,-37,-158,-129,578,-412,89,-259,-376,-374
101014,-305,-425,-243,-993,-489,138,-143,111,-263,-214,-71,-36,105,-171,-865,-303,-33,-289,435,-744,-422,-29,207,-21,-130,-127,649,-391,114,-193,-244,-262
101015,-285,-423,-235,-970,-474,144,-121,114,-267,-219,-63,-19,134,-156,-858,-314,77,-270,446,-723,-405,-19,213,7,-128,-126,670,-379,130,-143,-201,-213
101016,-232,-362,-223,-937,-427,159,-64,114,-256,-192,-29,2,150,-146,-828,-151,216,-265,452,-711,-389,-65,230,5,-123,-82,704,-350,153,-122,-183,-196
101017,-247,-360,-246,-986,-454,152,-81,103,-276,-214,-62,-25,116,-173,-866,-49,111,-302,430,-751,-408,-88,196,-27,-128,-108,674,-392,121,-162,-208,-253
101018,-254,-377,-246,-984,-480,157,-126,99,-277,-203,-78,-43,107,-167,-885,-75,66,-307,426,-723,-415,5,191,-15,-107,-111,683,-404,113,-173,-196,-257
101019,-253,-388,-227,-962,-469,166,-102,108,-283,-180,-58,-12,126,-147,-870,-154,69,-300,459,-705,-410,-14,222,0,-96,-79,688,-387,151,-141,-185,-233
101020,-277,-409,-236,-994,-488,145,-93,111,-277,-206,-78,-32,113,-165,-870,-53,106,-275,446,-733,-440,-96,223,-14,-101,-113,621,-396,115,-188,-267,-289
101021,-288,-401,-225,-1004,-489,157,-99,89,-294,-200,-62,-74,115,-149,-864,30,98,-264,454,-726,-418,-49,222,-30,-80,-109,615,-401,108,-189,-251,-263
101022,-285,-388,-240,-1002,-500,164,-114,103,-287,-178,-41,-100,128,-154,-860,-102,67,-255,437,-702,-430,-63,217,-49,-82,-106,628,-417,104,-177,-227,-211
101023,-276,-384,-236,-992,-498,166,-132,109,-279,-176,-70,-54,135,-151,-862,-317,83,-264,433,-719,-433,-69,208,-8,-87,-111,583,-397,113,-184,-253,-264
101024,-263,-423,-224,-1008,-499,151,-150,118,-273,-206,-89,-66,149,-147,-866,-306,44,-286,449,-712,-453,-65,185,-34,-87,-110,554,-380,124,-194,-280,-363
101025,-315,-441,-272,-1023,-495,142,-163,74,-301,-212,-69,-86,118,-147,-860,-226,45,-311,451,-714,-438,-86,195,-33,-84,-126,558,-395,125,-188,-296,-333
101026,-285,-405,-254,-1004,-491,157,-155,56,-310,-196,-70,-66,105,-144,-844,-132,54,-308,450,-709,-403,-59,196,-43,-98,-128,581,-393,126,-190,-278,-293
101027,-261,-412,-247,-1034,-486,161,-131,68,-318,-191,-74,-52,101,-145,-863,-82,20,-309,430,-719,-404,-67,178,-51,-99,-125,586,-456,87,-237,-295,-360
101028,-250,-373,-233,-1015,-457,161,-118,95,-309,-179,-40,-11,124,-128,-856,-8,6,-290,456,-701,-408,-25,217,-34,-86,-123,602,-464,94,-205,-268,-319
101029,-231,-371,-198,-1003,-450,173,-120,107,-304,-177,-41,57,125,-119,-849,42,77,-269,485,-694,-425,-31,236,-17,-51,-106,544,-410,119,-185,-232,-294
101030,-230,-351,-179,-1002,-468,164,-91,121,-281,-195,-61,70,142,-117,-850,142,152,-265,499,-683,-398,-20,248,23,-40,-99,618,-357,159,-148,-220,-245
101031,-237,-341,-189,-995,-494,160,-94,132,-287,-227,-66,70,151,-119,-838,152,100,-280,500,-685,-383,25,241,10,-52,-70,692,-333,183,-100,-167,-211
101032,-240,-324,-219,-1002,-497,164,-93,128,-304,-193,-58,-8,152,-138,-831,95,-45,-276,495,-684,-380,71,235,5,-27,-62,745,-350,185,-72,-135,-172
101033,-254,-313,-227,-1007,-497,166,-94,127,-284,-163,-42,-82,162,-122,-810,-171,68,-277,496,-668,-368,44,217,15,5,-33,718,-374,193,-48,-108,-185
101034,-274,-361,-262,-1014,-514,159,-115,107,-310,-190,-32,-64,141,-123,-798,-842,172,-279,494,-658,-396,-7,223,0,-12,-42,647,-364,181,-54,-122,-190
101035,-302,-393,-265,-1038,-516,168,-94,90,-314,-184,-13,-12,126,-120,-775,-945,68,-270,481,-659,-376,7,208,10,-3,-57,675,-393,173,-83,-128,-177
101036,-284,-414,-213,-1018,-500,172,-103,114,-301,-152,-14,-8,145,-101,-768,-618,77,-238,505,-652,-374,-63,239,29,-7,-56,688,-350,199,-83,-130,-200
101037,-257,-397,-181,-1021,-489,162,-102,114,-283,-173,-28,-11,146,-113,-803,-316,86,-251,481,-694,-396,-74,259,17,-34,-78,654,-395,159,-119,-195,-238
101038,-277,-360,-198,-1028,-490,162,-66,121,-300,-210,-29,-18,134,-109,-803,26,97,-263,444,-683,-356,-84,265,9,-33,-81,641,-428,128,-126,-202,-259
101039,-244,-368,-189,-999,-480,159,-65,140,-271,-212,-48,3,166,-79,-830,193,105,-217,470,-672,-360,-58,319,44,-4,-49,690,-431,173,-68,-116,-188
101040,-218,-393,-171,-987,-491,159,-105,150,-270,-193,-72,33,180,-90,-864,211,123,-196,508,-679,-380,-47,327,43,-3,-56,684,-450,181,-29,-43,-166
101041,-264,-410,-213,-1025,-518,127,-123,132,-293,-233,-100,-9,159,-129,-886,183,19,-266,495,-728,-421,-78,157,-22,-56,-96,611,-465,127,-96,-103,-215
101042,-315,-426,-219,-1033,-536,97,-158,111,-323,-224,-109,-56,128,-138,-894,109,-70,-340,477,-733,-446,-81,24,-67,-113,-119,606,-480,76,-162,-174,-200
101043,-285,-434,-202,-1002,-527,102,-156,146,-304,-222,-102,-82,146,-116,-870,26,51,-311,480,-734,-446,-106,88,-58,-102,-104,579,-442,47,-259,-279,-200
101044,-330,-426,-276,-1004,-512,96,-132,115,-301,-217,-75,-136,135,-103,-851,11,46,-314,475,-718,-425,-111,90,-74,-93,-102,576,-468,59,-267,-325,-299
101045,-350,-465,-336,-1011,-512,110,-181,98,-294,-180,-63,-168,150,-100,-828,11,-15,-292,493,-688,-409,-74,85,-35,-70,-101,626,-448,87,-219,-261,-316
101046,-378,-507,-372,-1053,-511,111,-180,75,-293,-176,-61,-182,141,-88,-808,41,8,-329,477,-664,-388,-208,108,-27,-76,-95,603,-402,119,-190,-236,-327
101047,-370,-457,-348,-1066,-510,126,-126,78,-291,-163,-43,-94,129,-81,-816,30,41,-317,503,-654,-389,-238,164,-19,-87,-116,543,-395,120,-179,-258,-352
101048,-313,-387,-316,-1047,-485,151,-117,113,-288,-170,-52,-59,144,-80,-813,-9,81,-302,524,-665,-390,92,192,-19,-75,-113,568,-405,103,-194,-268,-355
101049,-238,-317,-244,-1004,-471,182,-75,115,-286,-150,-19,-5,147,-77,-817,27,91,-310,534,-673,-391,37,189,-35,-62,-106,556,-409,113,-193,-273,-328
101050,-190,-236,-170,-988,-496,198,-21,141,-282,-179,-13,-6,136,-96,-825,72,80,-311,509,-682,-394,-9,187,-37,-58,-99,577,-443,106,-177,-249,-307
101051,-92,-179,-116,-983,-473,191,-18,159,-295,-187,-4,-36,138,-116,-822,-8,-97,-315,486,-695,-417,-38,157,-62,-66,-96,594,-469,88,-191,-234,-299
101052,-26,-133,-108,-989,-461,189,-14,127,-313,-192,-35,-34,119,-132,-836,-333,-183,-325,451,-715,-428,-14,112,-87,-100,-115,562,-539,82,-211,-212,-268
101053,-41,-128,-118,-993,-481,190,-40,123,-316,-207,-35,-29,114,-151,-847,-766,69,-316,438,-737,-458,-29,123,-89,-100,-130,482,-527,71,-211,-242,-316
101054,-31,-143,-145,-1010,-496,193,-58,117,-323,-230,-26,-198,106,-172,-840,-1021,26,-359,419,-733,-459,-135,90,-101,-102,-154,418,-553,12,-270,-316,-448
101055,17,-68,-149,-954,-444,227,-33,114,-306,-178,18,-205,121,-140,-794,-575,-70,-377,442,-677,-388,-225,63,-110,-97,-97,518,-579,9,-245,-240,-390
101056,-3,-82,-185,-976,-473,216,-75,77,-305,-190,14,-122,82,-158,-796,-147,-117,-387,405,-713,-379,-253,51,-140,-112,-101,549,-560,6,-278,-294,-418
101057,-14,-82,-195,-987,-464,204,-73,72,-330,-212,-5,-259,71,-172,-815,83,-108,-415,381,-741,-413,-186,37,-147,-133,-120,553,-551,0,-337,-446,-424
101058,89,-1,-147,-944,-432,228,-62,105,-318,-223,-43,-209,80,-159,-864,79,-109,-397,363,-743,-441,-128,56,-138,-125,-125,542,-545,0,-321,-417,-408
101059,157,77,-128,-935,-414,250,-27,125,-276,-195,-43,-243,94,-142,-855,-95,-172,-371,401,-721,-415,-128,78,-122,-112,-119,554,-564,20,-293,-339,-374
101060,149,60,-130,-958,-443,230,-27,105,-285,-218,-57,-270,76,-161,-858,-176,-175,-396,391,-746,-421,-121,44,-128,-133,-132,567,-562,6,-244,-274,-349
101061,200,106,-111,-962,-445,223,-48,82,-314,-230,-44,-161,65,-166,-853,-140,-86,-425,398,-773,-438,-159,10,-153,-159,-157,529,-619,-42,-259,-245,-397
101062,230,144,-105,-938,-428,230,-47,113,-294,-186,-34,-163,89,-149,-843,-169,-126,-419,413,-740,-426,-183,25,-145,-145,-142,512,-614,-37,-289,-293,-400
101063,277,164,-93,-933,-423,245,-56,95,-271,-187,-46,-162,81,-181,-871,-35,-164,-435,412,-762,-479,-156,17,-168,-176,-179,519,-600,-64,-368,-420,-439
101064,305,193,-60,-931,-409,228,-39,89,-293,-206,-68,-159,67,-197,-875,79,-137,-446,390,-804,-486,-158,-8,-201,-199,-203,540,-644,-88,-388,-421,-442
101065,299,232,-44,-912,-396,236,-17,106,-302,-206,-61,-172,68,-190,-876,100,-122,-448,389,-804,-472,-209,-20,-193,-204,-199,553,-656,-110,-380,-431,-415
101066,344,252,19,-896,-377,257,10,120,-278,-189,-42,-164,60,-182,-891,95,-131,-447,404,-807,-480,-187,-34,-202,-214,-200,530,-695,-123,-409,-400,-435
101067,484,308,78,-898,-356,263,18,125,-292,-211,-47,-167,38,-201,-918,43,-160,-475,383,-836,-497,-233,-40,-230,-236,-251,474,-708,-135,-456,-471,-548
101068,670,514,97,-876,-353,277,69,140,-312,-189,-48,-141,38,-202,-898,-42,-158,-469,380,-827,-479,-189,-13,-229,-234,-236,483,-670,-106,-423,-488,-494
101069,650,495,84,-873,-340,290,85,153,-290,-186,-21,-113,68,-182,-858,-453,-147,-441,400,-814,-467,-130,-16,-203,-227,-209,496,-653,-70,-370,-410,-424
101070,619,459,61,-887,-351,286,64,126,-298,-210,-18,-152,49,-200,-883,-876,-182,-442,401,-817,-516,-145,-19,-195,-239,-238,454,-661,-81,-392,-435,-487
101071,652,560,40,-889,-359,275,46,108,-313,-226,-23,-238,47,-228,-882,-532,-192,-438,386,-817,-512,-199,-32,-221,-243,-234,415,-683,-89,-399,-471,-523
101072,690,598,52,-858,-343,287,69,124,-288,-201,5,-278,54,-201,-880,-195,-163,-420,368,-821,-484,-263,-24,-206,-231,-204,422,-678,-74,-376,-456,-514
101073,785,626,84,-826,-334,291,76,145,-301,-200,-19,-308,59,-208,-883,-19,-206,-440,344,-835,-512,-266,-56,-215,-255,-232,449,-708,-103,-400,-459,-512
101074,794,662,49,-836,-341,290,66,114,-309,-218,-44,-308,41,-236,-913,-25,-229,-478,323,-845,-514,-255,-67,-227,-272,-258,454,-717,-99,-395,-451,-454
101075,823,656,57,-835,-333,285,53,84,-294,-245,-66,-250,14,-237,-921,-97,-297,-488,349,-845,-523,-283,-29,-239,-271,-253,428,-752,-108,-398,-447,-470
101076,856,719,60,-832,-296,323,106,74,-289,-231,-33,-270,26,-213,-882,-187,-417,-488,342,-805,-521,-486,-63,-230,-246,-242,411,-774,-117,-381,-422,-497
101077,873,771,66,-857,-286,322,99,46,-298,-243,-23,-302,0,-215,-906,-319,-334,-520,344,-816,-526,-490,-109,-229,-245,-235,391,-792,-129,-408,-401,-530
101078,959,896,110,-821,-273,330,138,63,-317,-223,-58,-310,-3,-243,-914,-258,-331,-544,348,-833,-555,-153,-158,-254,-262,-264,386,-810,-180,-469,-473,-598
101079,1037,960,148,-806,-270,367,165,77,-308,-214,-31,-299,-1,-242,-916,-117,-386,-531,330,-860,-547,-309,-166,-281,-289,-271,373,-834,-214,-484,-499,-627
101080,1168,986,214,-798,-256,366,172,94,-293,-207,-13,-345,-5,-237,-939,-179,-347,-553,313,-857,-587,-388,-174,-288,-299,-289,333,-840,-207,-501,-527,-683
101081,1166,1017,165,-826,-278,367,164,66,-327,-209,-24,-518,-13,-243,-950,-337,-401,-592,317,-856,-597,-359,-194,-299,-313,-322,368,-842,-193,-488,-533,-640
101082,1153,1043,135,-814,-280,358,167,47,-327,-202,-6,-364,-4,-223,-933,-393,-424,-573,315,-852,-532,-342,-172,-276,-298,-289,399,-838,-195,-462,-513,-578
101083,1139,1056,119,-853,-292,329,158,19,-321,-207,-12,-286,-32,-211,-911,-445,-469,-594,304,-855,-540,-329,-207,-294,-276,-278,353,-860,-210,-478,-506,-591
101084,1181,1087,161,-835,-287,322,146,63,-321,-201,-31,-350,-27,-229,-917,-617,-560,-594,309,-856,-555,-327,-199,-282,-288,-283,405,-834,-186,-470,-495,-582
101085,1240,1124,189,-793,-269,338,141,52,-298,-193,-52,-385,-32,-231,-931,-448,-474,-583,315,-854,-566,-283,-184,-265,-278,-288,424,-841,-185,-464,-488,-601
101086,1250,1154,151,-796,-251,355,145,33,-325,-225,-54,-488,-56,-246,-941,-359,-448,-596,311,-861,-569,-289,-174,-274,-290,-303,396,-849,-183,-477,-529,-590
101087,1319,1192,182,-795,-258,389,169,24,-327,-234,-24,-443,-46,-250,-945,-435,-467,-587,287,-867,-549,-315,-185,-278,-279,-312,377,-864,-185,-485,-516,-618
101088,1426,1296,233,-793,-217,397,210,22,-321,-222,-21,-402,-46,-249,-923,-369,-481,-574,275,-887,-545,-333,-185,-290,-278,-319,383,-870,-218,-498,-541,-628
101089,1487,1433,284,-757,-192,441,266,54,-302,-191,1,-387,-28,-242,-911,-276,-459,-556,290,-860,-537,-323,-116,-283,-283,-312,414,-902,-218,-498,-553,-643
101090,1495,1409,285,-784,-234,416,228,52,-312,-193,-10,-384,-39,-259,-922,-461,-461,-562,302,-866,-556,-292,-118,-283,-296,-304,410,-892,-235,-498,-547,-664
101091,1451,1330,257,-794,-247,384,158,24,-314,-217,-63,-401,-35,-261,-943,-449,-550,-590,291,-880,-565,-347,-195,-302,-297,-308,385,-886,-230,-497,-529,-660
101092,1470,1359,225,-783,-233,420,205,31,-308,-196,-49,-426,-24,-237,-924,-178,-580,-568,295,-850,-523,-384,-231,-297,-284,-284,402,-883,-207,-484,-516,-649
101093,1530,1368,241,-743,-204,420,219,48,-312,-189,-21,-474,-15,-231,-906,-4,-457,-575,293,-847,-486,-391,-228,-301,-296,-274,430,-909,-246,-514,-524,-652
101094,1543,1399,262,-759,-214,412,176,65,-315,-216,-53,-493,-20,-262,-950,-44,-487,-596,302,-892,-556,-418,-247,-330,-339,-321,349,-922,-265,-586,-599,-675
101095,1551,1392,271,-778,-223,381,135,62,-305,-253,-69,-521,-7,-284,-990,-284,-574,-593,281,-919,-623,-407,-276,-331,-368,-372,287,-958,-272,-562,-602,-672
101096,1556,1409,254,-761,-212,405,165,29,-289,-245,-87,-492,-30,-250,-984,-334,-605,-608,265,-924,-639,-438,-256,-315,-343,-375,283,-961,-260,-504,-533,-671
101097,1533,1411,183,-792,-225,391,141,-23,-319,-248,-123,-532,-77,-256,-999,-385,-675,-677,222,-944,-665,-511,-295,-349,-360,-374,276,-998,-286,-524,-542,-703
101098,1478,1332,148,-809,-255,360,79,-55,-327,-247,-127,-534,-90,-275,-1015,-388,-659,-685,236,-937,-675,-520,-310,-370,-349,-398,260,-1016,-311,-561,-531,-752
101099,1549,1397,173,-782,-218,391,110,-33,-310,-254,-127,-487,-87,-258,-1011,-334,-614,-676,230,-954,-684,-528,-301,-387,-386,-426,230,-1024,-383,-682,-674,-805
101100,1592,1434,187,-787,-238,396,99,-12,-314,-256,-135,-499,-89,-260,-1038,-325,-584,-687,216,-972,-716,-587,-305,-390,-410,-451,172,-1019,-423,-748,-837,-885
101101,1622,1481,221,-795,-243,414,115,3,-314,-243,-128,-475,-74,-260,-1026,-278,-613,-663,257,-954,-687,-594,-303,-375,-395,-410,155,-1013,-358,-652,-727,-838
101102,1612,1484,230,-782,-244,418,133,-12,-316,-222,-113,-477,-67,-261,-997,-242,-637,-636,256,-940,-670,-560,-290,-343,-358,-366,190,-979,-317,-571,-590,-814
101103,1602,1515,199,-781,-228,431,155,-11,-324,-219,-94,-501,-74,-259,-987,-283,-634,-646,259,-917,-645,-490,-265,-322,-312,-343,226,-989,-282,-527,-532,-787
101104,1600,1532,215,-770,-223,425,160,-7,-318,-230,-90,-516,-75,-262,-968,-629,-628,-661,249,-903,-634,-551,-254,-341,-324,-343,236,-1001,-272,-528,-531,-760
101105,1616,1571,252,-760,-190,462,220,6,-310,-213,-30,-525,-53,-249,-942,-845,-597,-654,270,-911,-630,-718,-252,-333,-338,-357,256,-972,-296,-609,-679,-786
101106,1661,1574,251,-756,-179,455,228,0,-309,-208,-40,-462,-57,-241,-945,-663,-615,-645,277,-888,-618,-419,-263,-336,-353,-354,244,-967,-323,-645,-736,-835
101107,1618,1526,168,-779,-207,453,202,-30,-321,-214,-27,-478,-76,-235,-923,-398,-705,-664,270,-856,-596,-410,-270,-338,-327,-321,264,-986,-314,-616,-627,-797
101108,1566,1482,138,-803,-235,428,174,-42,-323,-238,-56,-666,-101,-252,-958,-401,-740,-687,255,-889,-633,-543,-312,-348,-336,-345,272,-1035,-326,-589,-603,-776
101109,1630,1523,220,-753,-215,415,154,-5,-321,-254,-76,-732,-77,-268,-954,-774,-651,-678,256,-884,-636,-502,-300,-338,-316,-336,327,-1040,-315,-575,-576,-743
101110,1609,1530,213,-757,-220,419,204,-23,-316,-214,-38,-625,-82,-260,-943,-843,-718,-682,275,-867,-611,-437,-273,-343,-302,-301,353,-993,-311,-556,-530,-690
101111,1618,1551,191,-790,-204,439,236,-41,-320,-206,-17,-569,-97,-272,-947,-592,-740,-678,269,-881,-605,-412,-287,-367,-310,-324,333,-989,-337,-571,-575,-648
101112,1627,1582,193,-764,-204,460,233,-56,-322,-205,8,-516,-96,-268,-917,-452,-679,-678,261,-877,-573,-418,-285,-376,-309,-334,366,-1026,-337,-600,-643,-641
101113,1588,1559,132,-788,-240,447,228,-75,-342,-230,-29,-539,-109,-269,-935,-363,-689,-693,247,-904,-578,-465,-299,-389,-344,-356,346,-1071,-387,-643,-701,-839
101114,1610,1576,149,-780,-250,420,222,-57,-347,-213,-75,-539,-101,-280,-989,-506,-702,-682,276,-935,-631,-441,-305,-378,-377,-377,266,-1076,-402,-639,-651,-895
101115,1599,1549,184,-760,-240,403,192,-54,-333,-207,-79,-522,-75,-272,-983,-394,-675,-657,307,-920,-636,-435,-271,-359,-356,-373,266,-1057,-350,-587,-559,-830
101116,1621,1548,217,-742,-229,410,184,0,-306,-211,-72,-521,-58,-266,-996,-180,-633,-633,313,-938,-649,-508,-258,-356,-383,-407,228,-1066,-360,-657,-667,-898
101117,1634,1562,246,-731,-223,394,175,28,-313,-231,-86,-694,-36,-274,-1010,-127,-644,-627,287,-943,-653,-501,-251,-352,-420,-452,212,-1059,-394,-717,-820,-850
101118,1631,1559,238,-717,-221,372,141,38,-310,-243,-116,-723,-39,-274,-1012,-138,-714,-623,246,-962,-664,-467,-266,-362,-426,-461,194,-1057,-405,-733,-856,-854
101119,1632,1565,214,-712,-222,405,137,32,-296,-239,-102,-528,-33,-271,-1028,-206,-601,-622,250,-958,-658,-439,-284,-352,-411,-433,233,-1048,-382,-705,-763,-841
101120,1619,1512,182,-737,-240,372,102,25,-322,-244,-124,-567,-42,-275,-1011,-394,-651,-649,269,-942,-683,-480,-284,-376,-411,-428,260,-1034,-379,-684,-724,-822
101121,1648,1535,227,-742,-224,393,111,5,-326,-219,-102,-529,-77,-274,-1002,-476,-713,-679,256,-951,-666,-563,-292,-388,-422,-443,256,-1026,-395,-707,-722,-810
101122,1674,1559,249,-717,-202,428,169,5,-310,-198,-62,-470,-86,-277,-984,-431,-613,-664,228,-944,-634,-520,-300,-397,-432,-420,238,-1062,-423,-730,-725,-831
101123,1697,1573,282,-711,-199,444,218,9,-344,-198,-37,-476,-85,-270,-974,-470,-621,-687,205,-959,-650,-469,-329,-431,-454,-418,247,-1085,-433,-732,-729,-809
101124,1731,1626,307,-708,-204,472,245,28,-360,-209,-17,-449,-80,-267,-971,-473,-617,-681,188,-962,-679,-506,-308,-439,-442,-424,260,-1051,-408,-714,-702,-789
101125,1753,1633,345,-701,-171,479,260,49,-326,-214,-34,-413,-78,-263,-979,-255,-644,-657,224,-937,-668,-490,-272,-419,-412,-409,278,-987,-374,-675,-712,-769
101126,1698,1626,334,-702,-188,459,225,55,-318,-220,-47,-402,-64,-268,-984,-168,-593,-649,222,-910,-661,-491,-267,-419,-428,-415,307,-1006,-388,-670,-694,-758
101127,1631,1611,261,-735,-215,444,217,26,-348,-224,-84,-429,-86,-267,-1005,-234,-531,-661,228,-930,-678,-506,-259,-418,-438,-408,313,-998,-378,-651,-668,-746
101128,1610,1618,249,-737,-202,453,224,41,-334,-193,-83,-415,-81,-254,-993,-415,-569,-642,240,-922,-682,-646,-234,-404,-413,-395,297,-970,-350,-624,-644,-732
