,Fp1,Fp2,F7,F3,Fz,F4,F8,FC5,FC1,FC2,FC6,T7,C3,Cz,C4,T8,TP9,CP5,CP1,CP2,CP6,TP10,P7,P3,Pz,P4,P8,PO9,O1,Oz,O2,PO10
6131,-218,141,85,52,-190,377,56,264,26,-70,295,61,293,-140,45,55,-329,-90,19,26,7,-76,229,-24,-11,210,393,-110,141,-2,-117,112
6132,-151,113,77,-14,-194,363,63,247,16,-65,301,225,243,-140,34,-76,-317,-107,7,40,7,-57,231,-22,-6,200,381,-108,150,16,-127,100
6133,-118,114,105,8,-183,381,94,250,24,-47,349,452,266,-118,77,-105,-265,-40,34,80,50,-8,455,28,15,232,397,-73,180,44,-104,136
6134,-153,133,173,20,-196,386,79,209,18,-49,349,421,282,-123,71,-106,-266,-10,45,78,55,-37,580,40,36,235,397,-121,211,42,-108,112
6135,-134,111,202,-16,-197,384,43,209,6,-48,327,170,270,-134,75,193,-386,-89,26,54,53,-32,64,-16,18,218,398,-183,166,7,-125,114
6136,-101,152,238,-32,-171,381,106,236,13,-51,322,37,267,-133,65,365,-394,-90,32,53,38,-56,-18,-7,6,209,397,-158,147,24,-114,110
6137,-79,160,257,-62,-184,363,54,180,-2,-56,260,202,249,-139,27,346,-351,-96,29,34,26,-51,93,-11,-2,212,387,-90,161,43,-75,151
6138,-110,164,235,-115,-184,382,51,90,-12,-67,246,218,240,-143,31,365,-385,-113,12,16,42,-26,143,-43,-13,194,361,-164,123,-20,-145,74
6139,-103,141,179,-38,-199,374,2,192,4,-51,255,-18,264,-119,25,323,-362,-104,23,12,50,-29,150,-13,8,202,372,-110,164,17,-127,60
6140,-68,121,239,1,-191,356,-8,354,41,-41,237,-113,313,-112,36,184,-349,-73,29,28,33,-20,112,-23,11,209,410,-198,120,-3,-129,89
6141,-129,109,215,-9,-208,349,27,295,19,-47,297,100,289,-102,37,60,-466,-71,26,41,40,-40,111,-25,20,224,385,-167,133,11,-129,82
6142,-215,92,202,-36,-224,363,4,231,8,-57,360,227,281,-119,52,99,-455,-90,24,60,55,-69,127,-38,7,232,366,-222,125,20,-134,92
6143,-226,88,187,-10,-219,357,9,126,26,-60,332,231,278,-110,74,150,-387,-80,66,74,60,-29,151,-12,42,278,400,-235,150,61,-82,144
6144,-219,77,169,-36,-252,340,-30,101,-1,-70,250,207,256,-97,62,210,-356,-71,71,87,64,0,175,-1,72,286,406,-220,183,93,-25,167
6145,-229,-4,142,-74,-252,345,-47,116,5,-56,273,186,252,-96,55,304,-394,-94,71,112,79,15,172,9,75,278,440,-189,165,55,-76,134
6146,-205,31,93,-82,-244,326,-10,108,-5,-49,262,72,264,-81,61,335,-429,-113,56,91,119,-36,129,-14,74,304,691,-244,130,5,-112,-12
6147,-208,84,75,-45,-243,325,18,170,-8,-52,222,74,280,-99,38,177,-430,-100,59,66,-2,15,135,-17,65,248,204,-249,125,16,-74,91
6148,-206,91,162,-3,-222,336,4,201,-1,-49,274,184,259,-115,33,111,-451,-104,50,70,-6,-54,156,-12,55,217,181,-245,128,21,-86,125
6149,-201,66,150,-29,-212,319,13,140,-6,-69,275,227,252,-112,42,104,-444,-96,48,57,5,-48,192,9,49,243,327,-311,115,9,-109,21
6150,-201,10,116,-44,-240,290,-98,131,11,-53,219,0,262,-98,16,64,-443,-126,46,59,-4,-45,122,-21,54,244,288,-261,146,32,-94,4
6151,-233,-3,58,-93,-258,264,-176,129,6,-61,187,-68,258,-97,4,-90,-503,-159,45,73,-15,-95,26,-46,56,237,292,-320,102,9,-135,-1
6152,-244,-48,16,-90,-269,258,-154,167,-4,-63,210,-130,268,-114,8,-238,-574,-110,49,66,-35,-185,78,-16,57,238,221,-281,95,0,-150,-51
6153,-247,-52,70,-80,-274,271,-113,229,-8,-70,159,5,277,-114,6,11,-584,-100,39,54,-49,-208,68,-50,44,219,202,-290,87,-26,-153,-61
6154,-304,-29,79,-66,-266,311,-72,157,-22,-71,170,159,236,-115,42,245,-521,-136,30,77,-25,-168,72,-35,61,239,258,-293,88,-19,-142,-48
6155,-258,35,62,-81,-236,287,-62,5,-37,-56,150,262,199,-105,49,264,-461,-129,51,85,12,-142,132,-12,93,273,311,-232,116,37,-113,-21
6156,-267,79,38,-95,-230,288,-37,92,-15,-62,125,122,210,-103,37,210,-509,-158,42,73,0,-202,58,-25,60,248,266,-395,87,9,-116,-43
6157,-306,38,49,-50,-240,309,-109,109,-20,-67,209,60,226,-104,37,-228,-543,-164,21,67,-1,-177,42,-41,43,246,261,-347,80,6,-124,-18
6158,-246,4,62,-57,-216,326,-127,64,-11,-52,272,-6,232,-110,57,-286,-509,-196,20,55,1,-175,21,-61,26,247,273,-335,67,-21,-121,27
6159,-248,15,66,-68,-232,344,-159,68,-26,-72,263,35,249,-112,31,151,-527,-150,33,55,-1,-157,44,-53,31,232,287,-347,88,-13,-144,-16
6160,-269,26,75,-67,-243,288,-129,70,-24,-98,159,199,265,-116,0,239,-534,-103,39,55,-4,-108,95,-10,50,237,319,-281,145,18,-122,-22
6161,-241,51,106,-11,-241,292,-62,94,-2,-60,185,73,249,-101,27,23,-474,-142,72,57,12,-78,117,4,51,242,340,-244,161,31,-122,0
6162,-229,78,82,-9,-216,332,-65,122,30,-43,327,-22,288,-88,68,-25,-461,-103,87,72,23,-65,124,18,68,260,365,-263,151,17,-129,27
6163,-239,-1,83,-8,-210,348,-104,145,33,-11,403,73,320,-94,93,208,-464,-53,73,92,55,-137,151,48,80,260,366,-194,198,72,-101,43
6164,-250,-126,75,0,-233,291,0,186,16,-41,313,70,286,-97,74,186,-515,-109,52,68,37,-123,116,8,72,229,353,-285,146,12,-120,26
6165,-228,-117,50,-40,-228,295,98,148,9,-53,146,-31,272,-106,59,7,-492,-104,61,56,21,-37,130,20,69,232,358,-246,180,27,-117,81
6166,-209,-69,89,-89,-225,317,-27,184,12,-51,230,52,277,-108,54,174,-466,-69,61,66,41,-101,141,31,71,245,388,-245,179,46,-103,57
6167,-261,3,39,-63,-232,316,0,225,21,-56,238,88,291,-99,32,230,-499,-112,75,63,61,-131,132,36,51,229,395,-244,162,43,-117,13
6168,-243,68,47,-53,-242,312,-17,167,18,-53,139,-37,302,-109,13,172,-514,-126,69,61,9,-75,143,28,41,198,359,-200,185,8,-146,-11
6169,-249,81,87,-163,-232,294,8,112,25,-84,160,95,303,-111,21,237,-495,-75,57,64,15,-72,146,30,52,199,376,-227,174,18,-119,79
6170,-265,91,98,-160,-226,298,25,162,13,-69,200,171,292,-94,52,70,-478,-88,68,73,18,-37,149,24,66,223,434,-245,203,58,-87,99
6171,-307,55,107,-84,-218,294,-42,272,4,-54,176,-55,275,-106,51,101,-479,-129,55,76,37,-87,113,11,42,236,396,-308,174,75,-82,120
6172,-346,31,27,-126,-255,273,-62,179,-1,-78,158,-62,276,-101,41,269,-524,-115,50,62,14,-126,79,-12,19,206,358,-344,155,42,-108,131
6173,-378,39,25,-73,-236,298,-39,166,3,-99,185,-189,252,-123,17,255,-532,-123,39,49,1,-101,90,-14,6,176,368,-303,136,-40,-204,31
6174,-366,48,-12,-86,-246,311,-2,189,-8,-77,207,-11,229,-133,19,221,-579,-134,27,15,-15,-111,71,-32,-17,160,341,-271,120,-56,-232,-15
6175,-243,54,23,-72,-239,315,-13,129,-11,-51,232,377,246,-118,40,264,-487,-159,32,21,4,-97,96,-15,-1,167,318,-141,177,0,-166,29
6176,-249,53,109,-9,-205,313,-33,128,10,-51,202,75,270,-106,-8,196,-357,-124,52,36,-39,-68,119,15,23,170,314,-154,199,0,-189,11
6177,-219,72,118,8,-209,300,-44,255,36,-82,156,-164,321,-125,-34,107,-414,-84,46,4,-69,-83,48,-16,-17,123,278,-342,80,-110,-273,-65
6178,-264,58,62,21,-220,304,-114,239,15,-105,125,-14,290,-142,-49,76,-485,-113,19,8,-82,-172,44,-51,-53,108,248,-412,22,-118,-281,-61
6179,-254,1,70,-10,-229,333,-103,238,17,-96,194,-10,300,-131,-26,18,-523,-67,31,-3,-78,-161,96,-35,-21,116,255,-369,61,-88,-264,-51
6180,-226,-59,88,-15,-232,339,-101,203,14,-103,202,-116,296,-126,-29,-172,-535,-58,42,-4,-76,-119,109,-30,-23,105,223,-319,63,-104,-280,-88
6181,-201,-72,98,4,-217,328,-85,108,9,-92,196,-6,279,-133,-5,-45,-517,-86,32,5,-75,-169,103,-13,-24,100,233,-330,77,-116,-287,-86
6182,-168,-8,145,16,-215,319,-33,168,13,-87,227,173,300,-137,9,31,-524,-42,29,22,-37,-166,165,30,-21,120,266,-286,118,-87,-260,-55
6183,-175,25,116,-18,-212,304,-19,174,23,-90,243,277,293,-117,26,37,-485,-61,57,34,-20,-167,200,50,-2,148,268,-205,155,-41,-234,-40
6184,-204,37,82,-56,-209,303,-62,118,3,-93,210,191,263,-122,14,118,-471,-128,43,32,-33,-172,170,30,18,140,255,-224,151,-39,-229,-22
6185,-235,58,98,-84,-233,287,-54,24,2,-105,153,104,261,-120,3,110,-474,-123,39,2,-76,-139,131,25,0,131,239,-206,138,-60,-240,-59
6186,-230,79,108,-57,-220,275,-61,26,9,-85,149,15,257,-123,6,76,-450,-126,37,16,-77,-167,126,10,-10,141,226,-257,124,-63,-255,-92
6187,-244,67,99,-42,-227,288,-86,114,-7,-87,199,-14,268,-128,-1,-85,-518,-124,43,2,-74,-218,126,-2,-9,121,217,-255,105,-86,-261,-78
6188,-237,17,63,-24,-227,289,-168,212,2,-91,172,130,279,-133,0,33,-584,-109,18,-13,-93,-204,67,-34,-22,106,204,-321,46,-127,-294,-104
6189,-228,15,30,-93,-236,294,-159,110,-26,-85,182,157,245,-142,9,14,-541,-130,12,5,-66,-194,73,-26,-28,122,208,-304,82,-95,-266,-52
6190,-222,59,40,-126,-212,323,-103,40,-16,-74,200,68,257,-130,17,-229,-537,-116,38,33,-38,-264,105,-3,10,168,216,-260,120,-73,-243,-75
6191,-238,40,91,-59,-207,312,-201,157,7,-81,158,-127,271,-111,5,-159,-519,-110,41,17,-83,-252,155,0,11,154,194,-202,122,-74,-270,-94
6192,-204,5,128,-52,-220,311,-193,99,-8,-86,163,24,280,-133,-4,73,-516,-61,36,11,-80,-190,467,34,0,117,183,-255,135,-63,-255,-94
6193,-201,-63,131,-52,-210,313,-150,107,22,-88,178,-74,294,-137,-4,75,-566,-79,48,-11,-72,-197,86,0,-10,114,174,-404,75,-109,-289,-122
6194,-207,27,148,-48,-193,344,-111,134,7,-76,216,63,274,-120,0,-219,-544,-87,21,0,-86,-147,-179,-37,-15,110,188,-374,39,-147,-289,-89
6195,-222,99,144,-44,-194,347,-128,121,-4,-65,248,201,223,-122,36,-369,-540,-140,11,14,-74,-130,-99,-42,-21,129,236,-302,64,-111,-276,-69
6196,-253,60,183,-36,-195,342,-96,77,-18,-61,259,82,244,-143,16,85,-580,-120,10,0,-72,-159,-1,-37,-5,139,233,-264,71,-97,-273,-67
6197,-254,40,110,-45,-193,325,-114,55,-27,-79,196,-110,253,-144,-13,321,-549,-98,23,-2,-87,-148,1,-20,-5,131,175,-232,80,-83,-267,-63
6198,-244,7,10,-103,-206,326,-120,84,-2,-85,167,-120,274,-112,-22,340,-495,-115,40,28,-59,-116,33,-4,7,153,235,-181,99,-61,-232,-7
6199,-217,-7,67,-57,-190,380,-194,134,9,-75,248,-129,272,-113,-21,297,-556,-134,23,18,-47,-148,-18,-65,-13,129,223,-350,2,-150,-311,-64
6200,-204,37,69,-49,-206,437,-192,120,-5,-87,294,-67,269,-130,-10,245,-576,-126,11,8,-32,-205,-2,-69,-30,113,219,-396,-10,-141,-292,-40
6201,-204,52,61,-66,-224,291,-56,140,-9,-111,70,143,259,-123,-22,203,-564,-107,43,34,-41,-176,61,-22,-6,172,257,-284,71,-41,-193,122
6202,-235,13,54,-80,-224,276,-57,142,-3,-76,97,229,244,-95,17,201,-496,-117,70,62,-12,-99,112,16,55,222,304,-160,150,28,-116,202
6203,-265,-29,48,-53,-244,259,-71,189,-8,-104,145,357,242,-114,0,148,-493,-157,44,46,-50,-162,67,-13,34,178,239,-294,76,-76,-263,-44
6204,-251,-43,80,-33,-246,267,-82,217,-6,-93,168,175,267,-111,6,88,-514,-142,34,47,0,-224,39,-33,8,167,461,-374,17,-151,-362,-256
6205,-188,55,134,33,-213,332,-12,304,18,-64,200,-12,297,-89,10,116,-487,-70,70,50,-32,-164,66,7,39,180,154,-284,90,-58,-246,-153
6206,-207,114,128,3,-223,309,-51,322,10,-78,224,-27,310,-115,5,104,-501,-42,52,5,-95,-152,78,-9,15,110,-18,-237,67,-121,-308,-189
6207,-246,105,138,-40,-222,317,-32,182,20,-74,236,-258,282,-114,53,57,-465,-85,42,19,15,-86,124,-13,19,183,251,-199,82,-105,-269,-134
6208,-269,45,124,-50,-229,318,-33,175,-10,-85,260,-149,282,-117,37,-118,-514,-84,31,32,-1,-116,141,-28,3,164,191,-218,57,-126,-301,-140
6209,-243,45,77,-108,-234,324,-70,179,-23,-54,302,-20,274,-117,46,-24,-543,-113,18,34,-19,-128,65,-64,-6,161,201,-459,-58,-175,-316,-123
6210,-191,69,111,-89,-216,322,-45,101,-35,-59,269,-23,231,-132,33,-24,-494,-154,10,38,-39,-154,114,-58,-13,163,193,-304,12,-133,-291,-98
6211,-150,95,150,-42,-203,318,-21,98,-4,-62,203,339,253,-121,29,-30,-418,-78,30,53,-26,-166,225,-7,14,168,223,-88,140,-19,-236,-24
6212,-111,120,203,-39,-191,349,7,115,28,-48,228,343,261,-106,43,171,-397,-46,42,49,22,-71,231,13,38,208,276,-123,159,21,-140,62
6213,-121,127,177,-25,-181,366,32,103,0,-58,220,217,261,-117,27,222,-399,-47,48,29,21,-80,207,0,18,179,262,-169,103,-40,-219,-20
6214,-148,121,136,-13,-195,357,7,104,2,-61,176,218,283,-115,28,198,-398,-59,50,32,35,-54,236,19,17,197,319,-106,175,8,-186,37
6215,-163,83,163,5,-205,355,-35,134,1,-81,217,193,264,-115,37,143,-386,-75,26,23,28,-41,211,-1,7,205,302,-116,161,-4,-166,50
6216,-122,64,203,10,-192,360,-13,148,1,-62,246,150,268,-131,64,194,-361,-46,35,44,57,-20,248,29,33,231,348,-50,205,36,-134,127
6217,-151,38,209,17,-206,344,-14,229,17,-70,236,201,296,-127,59,93,-410,-4,46,61,58,-60,222,18,34,241,374,-234,156,17,-145,140
6218,-155,45,220,43,-185,338,-3,300,25,-72,292,175,312,-123,84,-24,-448,-48,41,50,56,-85,176,-2,10,223,311,-346,111,-15,-200,-26
6219,-168,64,200,8,-187,348,13,265,32,-48,306,140,320,-117,89,229,-348,-61,45,62,91,-43,252,18,30,248,362,-174,165,15,-171,54
6220,-167,44,185,2,-203,355,32,171,25,-65,319,108,346,-120,84,288,-327,1,76,81,74,-62,295,66,55,238,307,-35,193,21,-175,-57
6221,-164,29,123,-11,-215,340,-3,157,25,-84,190,93,332,-106,57,118,-391,27,88,93,54,-9,261,72,68,276,329,-150,221,55,-136,52
6222,-194,32,106,-58,-222,348,25,126,11,-79,157,125,291,-100,63,158,-372,-39,71,84,68,36,222,61,64,288,367,-237,204,68,-99,111
6223,-228,24,134,-65,-232,342,-94,233,5,-77,202,101,329,-115,81,131,-388,15,85,101,62,-58,272,110,96,309,372,-20,295,108,-98,57
6224,-242,27,159,-104,-228,340,-41,264,27,-54,268,112,331,-102,108,-164,-408,13,102,116,74,-41,298,122,113,327,385,-8,303,145,-62,114
6225,-239,44,114,-157,-228,383,9,14,0,-45,317,278,269,-99,130,-55,-370,-19,87,123,88,-16,281,89,107,323,388,-54,257,114,-66,99
6226,-243,54,157,-12,-198,406,1,125,9,-46,349,314,284,-93,135,244,-401,-11,85,103,85,-34,242,57,101,304,379,-172,197,61,-104,69
6227,-257,44,111,15,-211,392,-1,196,-3,-48,301,225,253,-109,82,423,-400,-89,67,100,90,-15,191,32,82,296,437,-377,119,31,-118,120
6228,-264,74,83,-7,-215,347,-13,166,3,-55,197,273,265,-116,52,362,-369,-73,82,82,63,-24,256,55,71,278,384,-195,208,53,-120,29
6229,-257,43,115,-5,-215,347,10,210,9,-57,203,186,278,-112,39,301,-400,-42,84,74,39,-45,249,62,77,263,358,-76,250,67,-112,79
6230,-218,-41,120,-58,-216,349,-22,146,8,-64,208,132,282,-100,43,208,-344,-8,87,64,32,-60,290,71,71,270,378,-72,250,85,-119,125
6231,-227,-9,105,-95,-239,340,-20,105,-16,-67,215,52,243,-124,45,67,-387,-54,55,51,35,-107,184,14,32,244,373,-231,196,43,-131,112
6232,-220,40,112,-140,-250,355,-43,72,-32,-83,210,131,215,-157,28,-12,-484,-107,39,71,31,-69,116,-7,20,247,363,-207,194,60,-119,128
6233,-171,75,122,-170,-234,373,-8,68,-28,-70,248,9,226,-134,44,-44,-456,-103,36,56,30,-65,148,4,21,234,350,-209,155,35,-169,49
6234,-201,67,102,-100,-235,348,-69,113,-13,-79,222,48,227,-133,24,161,-420,-111,36,30,2,-84,141,-17,7,207,327,-267,136,-4,-194,2
6235,-252,80,24,-42,-226,376,-92,111,1,-78,248,212,245,-125,38,301,-429,-129,55,57,37,-41,176,11,39,238,408,-187,186,61,-129,151
6236,-242,46,49,-34,-227,377,-63,159,3,-67,239,181,260,-122,27,168,-439,-65,49,46,15,-55,195,20,38,226,380,-119,219,72,-150,82
6237,-233,14,70,-72,-219,414,-33,263,15,-59,341,-3,265,-118,13,70,-501,-79,30,36,-25,-127,213,10,10,189,325,-202,182,29,-201,-2
6238,-241,-21,46,-86,-226,418,-151,242,11,-51,423,-58,284,-123,35,75,-556,-29,44,27,-25,-174,471,36,10,192,334,-322,137,17,-208,44
6239,-230,32,48,-59,-230,352,6,181,-12,-78,190,-245,287,-120,20,165,-493,-80,55,26,-19,-106,157,21,25,191,353,-257,172,27,-172,63
6240,-230,46,95,-57,-241,330,26,249,13,-69,126,-237,308,-118,17,152,-467,-62,55,43,2,-47,-43,33,47,210,385,-109,214,71,-156,107
6241,-239,39,95,-61,-238,349,-45,214,11,-67,222,-126,286,-115,39,60,-478,-86,49,63,18,-68,25,36,49,208,387,-105,225,82,-156,159
6242,-277,29,123,-61,-226,379,-20,168,11,-73,309,149,275,-101,59,-150,-486,-92,44,56,27,-113,141,38,40,200,347,-147,210,78,-157,118
6243,-281,27,132,-66,-226,361,-33,12,5,-71,299,144,236,-113,57,-59,-412,-119,25,53,-4,-210,180,22,47,200,312,-56,247,96,-185,-10
6244,-225,74,145,-69,-218,338,-31,28,4,-75,246,238,262,-110,33,177,-409,-105,42,35,-1,-175,170,-3,23,180,323,-146,160,27,-219,-9
6245,-195,89,135,-35,-219,319,1,120,17,-80,191,310,251,-128,-4,185,-479,-115,14,-7,-31,-90,109,-47,-11,136,279,-388,22,-71,-258,8
6246,-163,60,118,-7,-235,328,-34,169,10,-77,173,96,247,-153,-10,208,-464,-115,-3,-25,-57,-90,137,-50,-22,128,270,-239,111,-35,-247,-8
6247,-150,90,151,-23,-217,364,-47,210,14,-93,193,-1,240,-149,-22,139,-439,-144,-6,-23,-84,-211,155,-43,-37,102,205,-193,117,-59,-324,-124
6248,-208,60,123,33,-232,361,-78,229,26,-80,188,-99,254,-138,-19,130,-469,-146,-5,-21,-75,-227,119,-45,-28,126,239,-213,128,-44,-292,-67
6249,-290,17,123,81,-244,324,-147,218,21,-96,145,-67,251,-135,-23,139,-462,-132,4,-6,-73,-167,128,-44,-27,142,254,-270,108,-31,-259,-38
6250,-301,32,101,55,-229,330,-159,129,8,-103,104,79,236,-138,-14,120,-465,-95,5,10,-30,-112,154,-16,-13,167,272,-272,126,-24,-252,-1
6251,-249,31,156,-24,-221,337,-130,81,8,-71,162,238,252,-129,-1,92,-453,-48,38,41,-30,-143,175,26,18,193,279,-225,158,2,-219,-7
6252,-175,51,156,-93,-225,339,-125,132,8,-81,174,203,281,-107,-3,94,-413,-33,71,40,-31,-154,239,51,60,225,319,-96,204,54,-162,117
6253,-150,28,101,-89,-245,352,-126,105,6,-99,250,264,275,-120,-9,63,-403,-41,76,52,-49,-222,270,62,61,242,322,-28,246,89,-139,134
6254,-130,27,112,-84,-228,335,-151,146,9,-69,262,318,295,-107,29,101,-372,-38,77,74,-25,-258,282,75,62,249,286,-95,233,57,-185,-63
6255,-129,40,92,-63,-224,321,-206,202,5,-60,212,252,281,-121,31,78,-402,-41,103,78,-12,-198,242,71,78,243,330,-262,195,45,-158,9
6256,-223,24,54,-82,-236,348,-136,207,1,-61,216,195,280,-114,36,51,-412,-39,96,91,-12,-125,252,92,104,264,376,-159,253,133,-113,53
6257,-291,-25,83,-46,-230,334,-80,238,-7,-52,221,231,278,-112,33,2,-399,-61,78,79,-4,-107,238,86,104,256,366,-138,234,81,-165,26
6258,-230,-58,134,-21,-210,334,-68,336,3,-61,231,241,302,-98,49,-270,-333,6,104,90,2,-159,255,121,122,263,341,-39,292,98,-171,37
6259,-226,-23,172,-13,-222,363,1,291,10,-79,264,85,322,-101,90,-122,-431,11,94,86,19,-144,189,94,84,237,313,-171,233,38,-197,-20
6260,-229,13,185,26,-235,323,-76,268,19,-77,258,92,324,-110,88,-228,-434,-16,80,69,37,-144,208,93,73,228,352,-171,216,31,-214,-9
6261,-231,84,181,78,-218,329,-27,276,33,-54,271,130,305,-105,85,-195,-337,5,84,95,45,-169,297,122,88,245,395,-71,270,82,-164,22
6262,-270,66,139,45,-220,322,-70,303,24,-60,255,168,321,-115,64,25,-343,18,79,82,18,-208,303,108,84,246,347,-116,247,61,-178,-5
6263,-313,43,95,12,-232,319,-121,381,31,-87,244,16,319,-122,43,25,-383,-12,82,59,-5,-171,268,92,73,234,341,-107,217,37,-204,25
6264,-178,59,149,-79,-203,372,-52,205,26,-71,278,-173,324,-137,69,308,-341,-64,81,84,66,-126,274,89,73,273,683,-111,219,56,-179,-12
6265,-101,110,226,-110,-180,387,-18,168,24,-36,267,-40,340,-120,46,324,-387,14,99,103,4,-62,305,106,90,247,304,-119,255,103,-137,90
6266,-82,117,257,-44,-193,388,-100,250,37,-58,256,344,333,-104,44,186,-424,37,93,83,-12,-86,331,120,63,223,178,-132,229,62,-175,109
6267,-77,45,278,5,-200,351,-206,293,20,-95,199,389,312,-123,26,133,-403,42,93,84,-6,-183,352,115,89,251,337,-60,256,54,-205,-8
6268,-119,-17,233,-34,-219,318,-199,195,12,-92,134,405,320,-125,-6,161,-400,39,93,69,1,-188,355,124,72,243,378,37,284,110,-151,85
6269,-129,-11,210,0,-227,304,-163,236,12,-78,120,267,322,-109,17,-98,-359,1,90,63,-19,-182,323,85,56,229,324,-99,197,13,-235,-90
6270,-147,-14,212,17,-219,321,-101,261,7,-72,206,236,336,-113,12,-167,-377,24,96,65,-61,-230,324,82,56,190,234,-180,171,-22,-266,-100
6271,-140,-30,193,-41,-227,344,-114,218,2,-74,232,-3,347,-111,0,-29,-411,28,110,61,-50,-248,311,106,69,193,265,-10,240,32,-231,37
6272,-136,-17,178,-50,-210,344,-116,181,4,-63,209,36,323,-91,28,152,-369,-4,106,55,-17,-217,283,110,90,231,330,-33,267,72,-165,65
6273,-130,34,148,-31,-226,345,-67,129,6,-90,155,365,291,-104,-7,284,-370,-19,93,45,-26,-199,241,79,55,195,310,-239,155,-23,-251,-43
6274,-167,70,135,-27,-229,318,-54,182,23,-104,142,238,298,-112,-10,257,-391,-3,93,48,-33,-226,272,91,61,202,296,-128,176,-7,-260,-67
6275,-166,85,161,-9,-197,347,-6,241,21,-84,170,203,287,-105,5,95,-442,-12,81,44,-21,-210,233,69,61,211,290,-201,150,-10,-270,-51
6276,-154,93,149,-54,-213,334,-14,103,-9,-92,172,259,268,-124,1,5,-455,-4,68,27,-39,-157,241,70,45,184,261,-195,167,6,-247,-22
6277,-128,68,123,-81,-186,349,-113,75,-11,-72,177,203,264,-131,-3,72,-430,-52,59,2,-65,-215,249,54,39,170,251,-174,158,-12,-233,-15
6278,-128,11,174,-55,-192,381,-190,111,-4,-64,239,216,266,-142,-4,58,-458,-22,53,14,-95,-307,257,79,31,154,230,-73,203,-1,-259,-23
6279,-189,35,111,-50,-214,357,-210,121,-5,-65,243,83,251,-176,-20,13,-497,-61,24,9,-118,-321,215,43,-23,125,192,-146,141,-66,-344,-143
6280,-206,55,84,-48,-200,281,-107,204,8,-103,-8,141,268,-185,-84,-25,-465,-82,7,-12,-131,-306,146,-6,-34,122,184,-423,47,-111,-371,-178
