,Fp1,Fp2,F7,F3,Fz,F4,F8,FC5,FC1,FC2,FC6,T7,C3,Cz,C4,T8,TP9,CP5,CP1,CP2,CP6,TP10,P7,P3,Pz,P4,P8,PO9,O1,Oz,O2,PO10
176393,66,-22,555,-216,-79,154,105,285,147,81,171,183,128,-5,234,162,629,-119,271,214,124,356,260,355,255,141,313,114,369,351,197,441
176394,49,-40,543,-220,-87,143,103,292,148,68,159,179,130,-24,208,157,619,-124,275,199,101,339,280,370,250,121,272,229,412,395,203,267
176395,73,-28,578,-206,-95,128,96,300,134,47,136,169,116,-45,199,127,594,-148,263,186,80,270,245,337,241,134,263,232,440,415,221,270
176396,109,-7,625,-164,-73,147,101,327,143,56,139,180,124,-29,189,131,633,-156,260,199,80,256,208,330,250,113,260,141,362,325,151,291
176397,99,-3,605,-155,-74,149,108,318,161,44,130,155,113,-33,185,108,622,-147,240,196,84,202,189,320,224,120,264,73,309,311,193,380
176398,110,-15,566,-157,-81,132,93,313,144,38,90,101,90,-66,165,91,615,-192,204,179,63,226,122,263,159,105,243,-59,185,201,125,420
176399,139,-17,603,-138,-72,136,53,330,159,35,84,128,119,-61,154,77,611,-190,216,168,51,198,146,284,169,77,201,14,240,218,71,266
176400,137,-37,615,-153,-85,123,0,311,162,14,51,121,124,-59,134,48,557,-163,220,160,19,138,153,282,164,49,139,77,273,227,6,56
176401,115,-58,602,-151,-67,115,7,297,153,34,54,91,109,-54,146,25,512,-204,182,147,14,149,87,230,145,27,126,-107,181,147,-64,106
176402,132,-39,597,-130,-56,148,45,296,159,46,84,83,83,-56,165,51,507,-234,178,150,5,165,66,210,133,34,131,-169,143,115,-67,97
176403,138,-31,597,-141,-57,149,56,276,151,32,105,88,54,-76,158,40,496,-263,147,136,14,174,50,193,103,14,141,-193,118,104,-43,142
176404,154,-37,599,-151,-57,148,52,246,129,36,78,88,41,-103,155,20,459,-275,135,121,6,155,17,182,94,12,135,-205,115,118,-12,201
176405,157,-41,595,-134,-36,153,61,237,135,55,80,74,53,-79,171,57,469,-249,162,161,38,170,47,204,123,45,167,-142,156,174,27,263
176406,116,-72,562,-164,-57,113,39,211,112,33,69,29,32,-74,153,39,471,-279,168,143,26,158,37,207,137,62,188,-113,180,204,67,338
176407,125,-47,567,-178,-57,114,19,243,124,29,79,16,45,-85,148,27,455,-269,159,129,34,138,64,211,122,57,170,-73,211,204,53,344
176408,164,-14,586,-150,-31,137,46,279,133,40,86,69,58,-74,157,56,497,-240,170,132,45,170,90,228,131,58,200,-17,247,237,65,349
176409,171,-26,587,-137,-35,141,31,274,128,30,69,82,55,-82,129,42,507,-234,140,117,8,172,95,208,114,33,172,-32,204,213,44,281
176410,152,-62,577,-154,-46,124,5,263,137,28,46,73,49,-93,116,24,516,-241,150,130,-16,147,112,212,114,11,113,-8,229,215,-4,107
176411,134,-75,568,-169,-58,123,10,246,123,42,50,74,44,-82,136,27,515,-246,156,136,-13,134,96,204,104,18,118,-30,240,224,-20,134
176412,139,-79,594,-165,-57,113,13,241,112,19,51,60,31,-75,131,6,520,-287,145,117,-6,133,70,167,99,9,106,-96,184,187,-13,178
176413,150,-62,610,-174,-73,132,45,222,105,7,47,50,29,-96,127,19,505,-283,132,111,-19,134,79,144,84,13,113,-84,177,185,-11,205
176414,146,-37,618,-163,-48,152,78,239,127,46,74,99,53,-62,143,44,547,-255,150,135,4,155,106,187,106,43,130,21,225,234,15,236
176415,124,-60,575,-203,-61,129,22,220,109,22,64,87,23,-93,122,24,557,-255,153,118,-4,126,129,201,102,18,129,72,252,266,64,265
176416,106,-86,548,-207,-70,122,16,204,100,16,53,73,29,-73,122,35,569,-243,156,122,2,120,125,210,109,35,143,36,264,264,79,295
176417,120,-72,560,-206,-88,113,34,211,118,28,74,96,23,-73,133,43,560,-258,168,127,-2,173,71,189,111,27,134,-128,168,197,42,282
176418,134,-58,555,-215,-91,105,58,221,102,18,59,104,29,-76,117,31,565,-259,159,111,-19,172,72,187,107,11,135,-149,157,152,28,274
176419,122,-49,538,-205,-78,112,66,243,103,19,50,109,67,-82,113,22,543,-232,172,103,-20,163,100,228,122,29,162,-83,229,222,79,319
176420,135,-43,573,-203,-79,124,52,252,122,30,36,118,96,-64,100,10,556,-187,217,123,-7,140,145,272,157,59,160,44,313,315,144,375
176421,128,-60,569,-193,-68,103,26,256,122,13,32,107,100,-71,121,0,537,-158,238,131,-7,131,175,310,177,53,175,101,348,385,209,440
176422,118,-77,593,-193,-59,88,-3,274,130,6,28,124,118,-73,104,-22,538,-137,235,127,-37,93,181,332,173,48,127,76,357,354,176,371
176423,120,-90,592,-198,-52,97,-19,249,137,2,4,104,122,-73,72,-53,510,-160,209,115,-68,42,161,301,151,4,68,0,277,239,33,258
176424,73,-78,587,-194,-49,85,-28,248,155,2,-8,87,128,-71,90,-49,514,-168,228,101,-75,17,144,300,154,-10,70,2,261,229,42,285
176425,57,-73,580,-190,-43,68,-42,258,144,9,-16,80,120,-73,91,-55,471,-168,205,95,-98,36,133,295,123,-38,25,41,269,193,-22,150
176426,57,-110,563,-184,-37,68,-67,250,131,17,-22,68,105,-89,72,-69,417,-205,183,76,-114,39,90,251,85,-55,0,-38,191,129,-100,1
176427,59,-115,566,-194,-27,70,-59,237,139,5,-19,45,118,-110,59,-74,388,-241,169,53,-98,7,6,203,37,-67,-16,-265,48,10,-173,-5
176428,23,-122,535,-177,-8,83,-68,234,148,6,-4,25,111,-112,64,-77,402,-264,161,49,-113,-16,-35,182,31,-99,-46,-364,-45,-86,-245,-115
176429,9,-139,489,-176,-16,72,-96,219,141,-3,-27,-14,87,-119,44,-113,403,-296,123,41,-135,-42,-60,159,26,-107,-64,-322,-22,-48,-232,-116
176430,0,-174,482,-179,-23,80,-122,195,125,-16,-61,-48,52,-144,36,-140,356,-318,93,30,-142,-59,-62,147,9,-98,-45,-285,10,18,-119,10
176431,-20,-215,450,-195,-27,54,-151,164,100,-8,-72,-70,11,-165,17,-161,306,-355,64,4,-166,-78,-108,92,-28,-121,-43,-323,-27,-8,-136,18
176432,17,-173,468,-162,4,80,-135,145,119,20,-52,-56,24,-152,29,-146,284,-347,78,8,-180,-88,-100,98,-28,-126,-66,-292,19,14,-188,-24
176433,-12,-180,423,-176,2,77,-169,128,123,1,-77,-95,10,-146,19,-194,274,-352,82,-1,-203,-131,-99,114,-17,-143,-95,-230,66,77,-155,-36
176434,-24,-176,407,-193,-1,60,-182,113,115,4,-93,-144,-19,-158,8,-229,237,-395,49,-15,-227,-152,-150,86,-40,-169,-128,-204,65,58,-186,-47
176435,-15,-147,421,-182,20,61,-162,127,111,10,-94,-130,-31,-172,8,-204,224,-399,22,-21,-229,-128,-162,82,-65,-190,-147,-212,14,-10,-236,-103
176436,-26,-185,373,-181,-10,21,-205,114,106,-19,-134,-121,-40,-186,-34,-268,217,-383,23,-45,-279,-155,-110,81,-83,-225,-199,-129,42,-51,-306,-189
176437,-31,-227,354,-174,-6,40,-239,116,115,-16,-148,-113,-29,-189,-46,-274,222,-367,-4,-52,-277,-155,-113,76,-103,-231,-210,-228,16,-87,-336,-166
176438,26,-200,408,-162,9,59,-212,134,119,-12,-117,-96,-5,-164,-28,-239,249,-371,25,-29,-277,-137,-136,50,-67,-224,-185,-351,-46,-93,-285,-75
176439,36,-202,404,-171,6,54,-215,109,99,-25,-124,-119,-34,-190,-29,-270,223,-407,28,-40,-279,-192,-156,40,-79,-232,-170,-378,-37,-36,-212,-3
176440,44,-166,401,-174,11,87,-170,110,123,-4,-102,-119,-26,-170,13,-248,218,-401,29,-17,-236,-212,-129,71,-35,-155,-74,-353,66,143,-19,300
176441,84,-123,417,-173,16,94,-137,126,124,10,-86,-110,-45,-184,16,-208,228,-427,9,-26,-212,-203,-140,37,-51,-145,-53,-372,25,142,-16,344
176442,103,-113,452,-161,11,90,-122,113,126,-3,-89,-101,-67,-204,-6,-210,281,-449,-42,-60,-248,-203,-185,-7,-107,-201,-116,-449,-113,-73,-213,158
176443,110,-122,478,-153,13,97,-98,153,112,10,-65,-60,-77,-210,-2,-206,303,-441,-44,-68,-286,-207,-162,-16,-134,-281,-234,-478,-196,-242,-500,-253
176444,95,-89,486,-155,19,97,-78,156,107,5,-44,-44,-60,-182,32,-187,322,-429,-15,-29,-226,-101,-109,18,-95,-231,-137,-350,-133,-190,-406,-109
176445,106,-69,521,-137,15,108,-50,171,135,-4,-40,-11,-45,-171,12,-153,367,-402,7,0,-193,-75,-95,45,-53,-201,-136,-345,-88,-123,-326,-204
176446,119,-71,539,-142,20,89,-33,207,124,-5,-26,17,-23,-157,20,-137,384,-376,28,-17,-205,-55,-35,85,-37,-196,-165,-259,22,-26,-270,-395
176447,132,-43,553,-155,0,99,-15,231,134,1,-20,33,5,-162,40,-107,407,-351,40,0,-196,-16,6,130,-11,-154,-87,-128,154,116,-165,-217
176448,140,-5,526,-146,0,119,1,239,140,8,1,57,19,-157,43,-83,421,-336,62,21,-162,13,19,153,11,-118,-47,-85,191,155,-110,-84
176449,113,-22,502,-182,-9,98,-11,237,137,-3,-15,41,19,-143,34,-67,403,-324,86,12,-154,-18,46,192,18,-100,-12,14,285,260,-22,12
176450,119,-25,473,-164,-4,88,-10,247,145,-3,0,65,38,-117,39,-57,436,-292,101,49,-129,15,80,217,44,-75,47,37,312,300,53,151
176451,139,-14,506,-133,3,105,-19,265,160,10,11,78,56,-110,53,-36,450,-292,95,44,-91,66,58,213,63,-55,80,-54,235,253,57,265
176452,168,-7,569,-125,4,108,-2,284,155,-3,11,108,40,-141,56,-34,464,-304,81,10,-105,69,47,189,36,-70,49,-165,155,171,-57,200
176453,198,32,624,-112,15,122,39,315,149,2,45,153,46,-148,44,-21,512,-286,68,9,-115,98,35,149,4,-97,39,-299,49,42,-164,83
176454,177,30,636,-120,21,147,61,312,150,2,61,161,48,-145,57,-2,551,-268,74,18,-102,114,49,157,33,-83,48,-276,107,91,-91,83
176455,206,48,633,-130,12,157,81,323,148,16,82,154,46,-142,71,1,564,-261,77,27,-101,96,60,177,33,-82,33,-174,143,128,-82,23
176456,217,37,652,-136,7,158,73,333,151,21,72,161,59,-148,84,3,586,-228,92,24,-110,76,44,180,50,-83,37,-109,140,128,-84,47
176457,179,0,656,-141,1,150,72,329,145,14,61,140,59,-144,81,-7,565,-226,97,24,-108,76,43,189,49,-62,56,-70,184,188,-6,143
176458,185,10,660,-138,14,161,82,312,146,29,82,144,52,-130,77,21,584,-203,109,44,-76,108,86,208,51,-42,97,0,237,254,60,235
176459,169,18,657,-143,-2,158,96,302,141,12,84,151,41,-161,75,26,570,-237,59,13,-75,145,55,173,18,-36,105,-173,155,205,59,305
176460,165,48,667,-131,15,173,128,296,146,20,107,184,26,-149,94,48,554,-231,68,11,-64,154,59,165,24,-42,119,-222,143,166,37,293
176461,207,57,703,-108,37,180,102,307,149,24,106,187,44,-126,88,35,571,-210,74,21,-68,144,91,173,12,-73,95,-106,195,190,-4,228
176462,196,44,706,-112,21,176,76,304,157,30,98,167,38,-148,72,33,522,-235,79,25,-77,107,116,180,5,-75,95,-65,236,240,19,260
176463,208,69,698,-93,32,169,67,316,148,13,96,199,38,-140,89,22,545,-234,80,33,-78,119,116,186,26,-62,94,-88,208,233,38,287
176464,213,73,698,-74,31,177,78,356,155,13,92,188,46,-127,72,5,578,-242,81,24,-85,108,96,147,-2,-104,44,-131,141,137,-59,154
176465,206,53,679,-89,15,160,54,345,141,7,63,170,41,-146,55,-4,574,-250,74,5,-120,90,77,128,-11,-140,-16,-99,150,118,-124,-25
176466,217,49,682,-70,21,156,69,350,165,7,59,170,41,-143,50,10,558,-253,74,-3,-106,86,63,145,-18,-117,6,-102,144,101,-115,37
176467,217,21,681,-54,25,155,68,376,182,8,54,182,62,-128,69,-2,572,-250,87,16,-100,101,69,157,-1,-97,30,-97,139,114,-91,108
176468,180,-21,646,-87,5,124,25,340,168,-5,30,158,39,-126,59,-41,556,-271,93,16,-121,78,46,134,-10,-106,19,-138,96,99,-99,134
176469,185,14,659,-67,10,146,52,366,167,10,57,181,75,-117,67,-18,569,-244,116,29,-84,78,76,165,41,-69,73,-105,147,149,-6,259
176470,185,4,664,-64,24,139,41,372,174,25,72,191,100,-98,93,-12,615,-202,154,63,-68,79,133,226,80,-18,129,-1,239,260,94,388
176471,174,-28,647,-73,13,137,-7,366,188,24,32,198,108,-91,100,-33,625,-179,167,84,-46,75,155,244,93,7,158,94,321,346,135,439
176472,170,-34,626,-80,4,143,-2,364,199,28,55,179,108,-94,94,-22,553,-197,173,83,-42,96,138,232,97,2,109,76,276,265,35,278
176473,164,-83,614,-105,0,106,-25,333,167,14,45,171,93,-104,80,-50,498,-233,139,75,-67,82,87,202,61,-50,47,-49,186,171,-79,95
176474,171,-89,626,-92,-11,96,-46,307,188,24,38,159,91,-93,101,-39,529,-228,146,104,-57,52,87,215,57,-20,90,-103,170,208,0,162
176475,171,-59,629,-104,4,127,-22,311,186,44,56,156,109,-78,107,-21,527,-221,170,124,-29,64,109,249,70,20,115,-85,221,262,80,228
176476,148,-87,610,-120,-6,122,-17,284,175,42,42,160,94,-78,100,-42,519,-209,183,103,-54,59,111,231,72,-11,89,-57,208,212,12,209
176477,117,-106,574,-141,-31,100,-47,261,164,17,15,145,72,-84,79,-61,519,-224,140,76,-95,23,92,197,54,-55,47,-80,137,93,-83,107
176478,84,-126,538,-161,-51,100,-57,253,159,16,25,114,85,-105,84,-75,525,-238,125,84,-91,56,53,182,38,-42,74,-209,41,33,-98,194
176479,86,-122,524,-142,-26,105,-47,247,176,24,52,125,82,-85,100,-50,539,-225,142,87,-79,110,32,171,42,-28,66,-328,2,-6,-127,126
176480,81,-116,541,-146,-17,100,-28,257,150,4,38,132,59,-104,91,-70,533,-225,127,53,-113,59,26,180,27,-83,-6,-244,39,7,-189,-65
176481,90,-114,543,-163,-29,125,-49,262,132,11,47,137,59,-93,109,-40,530,-220,148,69,-75,78,54,213,55,-51,28,-182,107,76,-71,51
176482,57,-137,488,-181,-28,118,-65,218,129,36,37,130,65,-78,107,-22,546,-203,163,107,-50,89,118,252,87,-3,91,-76,232,188,9,173
176483,46,-151,475,-204,-5,132,-69,208,130,36,34,125,54,-71,127,1,560,-174,173,112,-52,96,143,268,95,5,87,44,312,272,6,150
176484,30,-197,449,-217,-44,113,-78,182,114,14,42,113,45,-95,121,-16,544,-174,161,101,-29,131,140,274,118,16,119,36,323,306,62,260
176485,44,-152,478,-196,-31,125,-42,210,117,24,33,154,64,-87,125,-4,557,-184,149,84,-29,141,150,269,101,5,118,-1,260,231,18,252
176486,72,-123,493,-201,-39,137,-7,228,115,18,44,162,59,-80,113,9,562,-164,140,92,-14,143,167,266,72,9,127,-12,264,221,20,256
176487,75,-106,482,-195,-23,138,-13,218,133,39,66,178,73,-60,132,17,576,-150,160,102,-1,163,204,271,92,40,169,4,310,291,72,343
176488,74,-100,495,-191,-31,149,-4,246,137,32,64,188,75,-64,138,22,604,-167,150,94,0,211,168,270,91,26,166,-54,262,253,53,367
176489,90,-72,532,-160,-18,151,47,264,142,21,92,184,66,-85,138,46,626,-198,122,83,-6,246,122,207,74,-26,131,-152,101,68,-107,302
176490,86,-54,541,-149,-7,153,38,280,130,13,75,191,68,-92,128,34,640,-191,135,73,-39,175,183,227,83,-17,94,-23,181,123,-91,159
176491,113,-45,600,-145,8,183,34,302,138,32,71,218,67,-94,107,20,662,-181,135,63,-59,72,171,223,48,-46,49,-9,170,109,-124,-36
176492,127,-19,600,-164,-10,166,27,303,131,21,88,199,43,-98,106,12,619,-205,133,68,-54,126,152,212,33,-25,91,7,177,141,-64,161
176493,117,-36,574,-159,-21,178,23,292,112,11,89,153,23,-109,104,4,619,-212,111,57,-60,131,161,206,52,-27,97,20,212,175,-16,147
176494,131,-31,565,-168,-5,188,31,267,115,38,103,127,16,-116,103,0,597,-231,94,58,-55,93,114,190,25,-53,61,-87,175,141,-59,68
176495,106,-23,507,-189,-29,181,20,219,82,21,101,95,-1,-146,108,-14,557,-252,51,35,-79,62,90,176,0,-71,48,-125,166,136,-50,61
176496,125,-19,533,-170,-3,207,40,227,116,48,116,107,24,-141,130,20,575,-238,85,66,-61,94,115,195,31,-27,79,-17,231,202,-20,103
176497,145,-34,534,-169,8,205,55,225,118,45,117,109,28,-138,136,-2,549,-242,95,48,-72,115,114,195,32,-49,77,18,225,148,-100,88
176498,112,-65,542,-189,-4,195,10,229,103,29,102,109,27,-122,125,-22,520,-226,104,49,-57,109,135,222,26,-30,98,64,265,227,-17,258
176499,85,-84,514,-198,-25,159,0,210,97,19,76,116,37,-119,104,-24,531,-222,120,46,-45,97,145,245,47,-7,148,101,323,327,133,440
176500,115,-66,527,-176,-16,189,3,224,123,36,81,126,54,-105,110,-16,553,-193,153,65,-48,129,194,287,73,4,189,210,397,361,185,507
176501,130,-52,527,-165,3,174,-11,238,143,18,80,120,60,-130,78,-45,561,-191,121,26,-84,98,171,262,36,-47,127,125,324,253,53,298
176502,113,-71,520,-168,0,154,-35,239,131,2,42,81,21,-163,33,-91,542,-247,56,-42,-170,44,52,165,-55,-153,-2,-226,102,48,-154,-32
176503,137,-74,522,-131,19,170,-57,256,143,12,30,65,56,-168,16,-127,564,-255,72,-44,-189,32,27,154,-56,-146,-38,-247,105,38,-182,-19
176504,112,-91,506,-130,4,154,-64,248,149,10,5,38,53,-173,6,-152,548,-276,72,-53,-198,-18,21,154,-48,-160,-60,-204,123,69,-176,-15
176505,94,-131,490,-141,-15,125,-90,242,151,3,-9,8,54,-156,18,-157,490,-286,71,-54,-199,-36,0,157,-52,-169,-45,-221,84,47,-169,-19
176506,63,-142,466,-168,-9,127,-109,215,136,4,-16,-24,61,-146,34,-141,404,-302,85,-14,-178,-24,-33,140,-34,-135,-7,-241,67,65,-121,75
176507,81,-142,474,-133,-6,145,-95,224,145,5,1,-17,73,-146,37,-135,426,-274,103,2,-150,14,-11,171,-11,-100,3,-217,115,85,-92,128
176508,97,-142,482,-134,-15,149,-87,217,132,2,6,-23,55,-150,47,-153,430,-314,96,-14,-152,7,-28,144,-19,-107,7,-210,93,84,-103,127
176509,86,-154,479,-141,5,135,-107,205,143,25,-2,-27,22,-149,52,-142,433,-334,84,-4,-169,22,-32,130,-28,-103,29,-217,65,48,-124,117
176510,97,-147,495,-149,4,127,-120,218,144,30,4,-24,31,-144,39,-144,425,-317,87,19,-145,-5,0,163,7,-72,55,-171,126,106,-63,149
176511,76,-179,485,-151,5,119,-123,209,139,8,-17,-29,21,-111,32,-138,410,-325,83,35,-128,-27,8,170,12,-50,45,-153,158,157,9,240
176512,74,-174,494,-136,7,113,-147,145,135,10,-18,-17,25,-111,46,-127,428,-332,78,40,-124,-36,1,174,30,-31,74,-151,206,231,94,353
176513,60,-168,482,-172,-25,93,-148,56,111,-10,-21,-37,-13,-142,26,-155,419,-359,66,16,-144,-52,-2,162,7,-38,72,-116,228,256,78,309
176514,49,-187,469,-196,-18,90,-164,35,105,-19,-51,-34,-26,-126,38,-155,391,-342,91,29,-124,-15,27,167,40,-15,116,-54,278,306,152,400
176515,55,-183,504,-176,-14,97,-148,66,126,-2,-55,11,-14,-139,45,-126,417,-317,100,28,-143,2,53,186,57,-27,46,-27,264,268,31,134
176516,68,-170,519,-172,-31,101,-123,68,112,4,-16,15,5,-122,55,-116,447,-299,113,45,-143,30,71,209,62,-31,37,-17,256,198,-39,138
176517,83,-139,533,-157,-33,110,-98,85,110,-5,5,17,-18,-111,79,-111,495,-278,121,63,-93,47,102,235,62,-8,81,-10,282,216,-10,247
176518,101,-76,569,-159,-14,120,-69,95,120,1,22,62,-17,-97,83,-55,531,-256,124,84,-59,72,116,237,88,0,107,9,307,188,-11,313
176519,123,-59,579,-164,-11,123,-56,68,94,13,36,101,-12,-118,83,-38,583,-242,130,82,-68,81,156,246,111,6,102,57,332,209,-12,285
176520,137,-60,589,-159,11,151,-1,87,119,24,59,105,19,-98,103,-15,642,-219,162,102,-54,116,227,302,138,36,116,157,417,335,65,251
176521,168,-16,584,-162,3,180,35,95,115,20,80,128,27,-93,104,-3,625,-210,141,105,-51,114,217,300,127,11,80,150,396,297,12,80
176522,164,-11,601,-165,8,182,45,93,122,37,101,127,17,-109,120,15,589,-235,137,110,-40,157,182,277,109,27,111,33,339,252,45,127
176523,153,-26,600,-164,16,185,22,75,109,49,79,121,10,-110,116,2,601,-235,150,106,-24,189,168,279,118,41,145,-37,292,259,101,199
176524,158,-32,567,-153,8,172,-5,86,112,34,80,116,23,-100,101,-6,633,-214,150,92,-58,172,178,287,118,0,56,59,310,204,-5,48
176525,118,-68,514,-178,-2,158,-36,61,109,11,41,87,10,-122,70,-58,597,-234,138,54,-105,132,139,258,71,-61,0,55,256,108,-178,-46
176526,123,-72,535,-171,-9,153,-32,42,105,18,41,93,42,-94,77,-70,593,-219,148,81,-109,127,175,286,96,-45,40,68,299,176,-94,59
176527,116,-79,557,-205,-32,129,-28,45,92,5,26,85,42,-98,82,-76,599,-204,180,97,-96,143,201,326,115,-11,72,111,363,263,-24,156
176528,153,-50,568,-181,-15,134,-39,42,123,19,30,109,69,-78,90,-61,623,-164,198,116,-82,151,233,354,144,16,124,187,420,334,57,314
176529,163,-41,574,-178,-37,121,-45,56,128,21,39,128,70,-80,82,-64,605,-175,176,91,-88,133,204,338,127,-12,74,116,345,251,36,218
176530,139,-66,565,-182,-31,123,-48,48,115,1,31,120,53,-83,81,-86,580,-206,147,75,-97,127,150,280,97,-16,64,-69,260,201,8,183
176531,122,-73,542,-185,-18,112,-57,21,113,-6,24,78,26,-83,54,-78,558,-248,139,67,-96,90,107,235,76,-20,85,-115,182,142,-25,199
176532,117,-68,542,-205,-12,118,-56,15,109,4,11,67,42,-86,43,-93,578,-253,131,66,-89,65,143,264,88,-21,58,-7,273,219,-3,137
176533,107,-88,535,-199,-32,94,-83,-2,106,-31,-15,77,3,-120,12,-141,581,-273,97,26,-143,2,103,217,28,-81,-4,-57,214,141,-95,14
176534,106,-114,506,-202,-41,75,-105,-1,99,-20,-22,67,6,-129,-10,-126,570,-285,86,7,-151,27,72,180,3,-92,5,-104,171,101,-99,73
176535,73,-139,478,-211,-31,50,-117,-8,105,-15,-49,42,11,-115,-8,-126,552,-285,88,20,-149,15,94,191,18,-81,39,-21,245,192,-31,141
176536,46,-148,457,-195,-36,51,-121,-6,138,-24,-57,17,18,-102,-23,-128,521,-265,97,16,-157,26,86,209,26,-81,24,-14,274,233,2,139
176537,37,-172,438,-187,-40,29,-158,-17,129,-36,-94,32,18,-114,-49,-181,506,-270,97,-5,-189,-5,96,225,36,-115,-34,49,315,226,-59,38
176538,32,-188,442,-191,-54,10,-180,-46,126,-41,-111,33,7,-117,-55,-192,478,-295,82,-12,-213,-18,103,190,-16,-150,-67,20,265,160,-124,27
176539,39,-189,447,-198,-66,3,-159,-54,131,-51,-108,15,-3,-120,-51,-198,495,-303,80,-28,-235,-32,49,156,-32,-154,-72,6,196,107,-138,34
176540,19,-211,444,-195,-75,14,-165,-27,116,-45,-83,13,-5,-134,-40,-170,500,-320,67,-38,-212,-18,15,123,-42,-143,-32,-77,111,62,-150,88
176541,33,-183,461,-173,-34,46,-143,-15,127,-44,-72,28,-15,-128,-28,-154,467,-338,55,-24,-193,21,-16,111,-54,-144,-22,-178,53,-2,-179,79
176542,0,-218,427,-193,-47,48,-170,-46,116,-42,-82,3,-41,-133,-24,-168,460,-350,40,-22,-212,-13,-46,113,-45,-142,-27,-203,86,49,-124,108
