,Fp1,Fp2,F7,F3,Fz,F4,F8,FC5,FC1,FC2,FC6,T7,C3,Cz,C4,T8,TP9,CP5,CP1,CP2,CP6,TP10,P7,P3,Pz,P4,P8,PO9,O1,Oz,O2,PO10
175006,176,555,519,111,164,367,-42,411,231,207,190,-11,122,1,50,296,-2,-175,-96,18,-55,54,-6,127,26,120,270,-138,109,-16,-192,177
175007,196,560,523,126,169,371,-4,409,241,222,217,14,115,-3,55,334,-1,-171,-111,24,-14,123,-46,118,32,125,298,-278,44,-39,-171,234
175008,205,538,549,133,154,356,-13,441,229,223,206,34,138,0,60,330,26,-146,-102,33,-30,130,-15,106,47,138,298,-265,56,-38,-187,242
175009,215,523,554,138,165,370,-10,471,236,215,203,62,167,0,74,318,65,-101,-63,36,-25,123,17,133,41,139,274,-141,75,-80,-281,75
175010,184,527,543,134,152,369,-17,466,236,214,229,52,179,10,78,348,101,-109,-46,56,-21,150,29,159,78,174,290,-126,100,-58,-244,60
175011,189,549,547,154,162,364,10,489,241,198,233,55,205,17,66,360,79,-108,-30,67,-2,139,35,173,83,184,294,-118,126,-31,-225,45
175012,184,532,533,148,172,369,13,485,259,219,246,69,234,36,95,366,78,-72,1,85,30,109,45,224,115,219,332,-118,166,28,-175,135
175013,165,515,512,139,144,352,-2,454,256,207,225,52,236,31,79,370,64,-75,1,96,20,133,48,238,123,246,342,-107,161,24,-148,185
175014,158,515,531,132,144,352,-19,473,276,214,215,69,233,24,84,359,83,-76,12,99,37,147,38,217,130,251,356,-130,136,23,-113,191
175015,160,530,509,127,158,362,-30,489,268,216,226,35,240,39,84,358,46,-70,13,92,40,152,26,237,137,249,392,-158,128,16,-115,188
175016,184,524,516,126,139,333,-15,476,245,208,203,45,239,23,67,354,56,-62,7,68,13,127,17,243,121,232,335,-224,116,-31,-176,69
175017,185,512,521,126,136,347,-28,484,267,231,201,71,245,42,79,355,72,-62,36,98,29,159,30,255,142,239,339,-220,120,-28,-181,71
175018,143,501,510,123,136,344,-66,475,266,221,174,64,244,57,69,357,32,-77,47,115,26,140,46,268,181,236,375,-153,118,15,-147,133
175019,145,478,469,102,120,323,-73,445,249,195,158,26,231,51,53,337,17,-77,44,90,18,120,38,272,172,245,364,-129,137,2,-143,133
175020,138,503,445,118,132,338,-47,437,258,206,178,32,220,57,39,346,29,-72,54,99,19,120,28,272,176,241,367,-152,114,-30,-166,185
175021,137,527,456,130,145,342,-78,464,278,213,158,44,236,49,47,333,73,-42,68,108,25,107,48,306,188,254,385,-132,144,16,-131,205
175022,147,499,467,129,143,324,-94,478,266,209,154,51,241,55,51,297,60,-38,65,114,33,101,75,308,221,261,398,-144,170,62,-85,258
175023,144,474,453,110,121,311,-99,460,235,191,113,54,216,40,27,291,36,-54,57,93,-10,66,28,277,202,220,357,-228,123,6,-138,170
175024,162,494,497,111,125,311,-114,479,253,200,134,77,231,55,27,294,24,-51,68,100,-17,67,38,301,220,226,329,-222,143,-6,-164,58
175025,164,509,524,119,143,312,-131,507,258,203,135,99,258,56,32,290,45,-11,94,122,-7,99,84,337,243,245,341,-173,169,22,-147,83
175026,133,445,496,98,119,285,-192,489,232,192,100,89,267,53,43,277,78,2,113,123,-4,101,118,360,264,274,358,-117,222,82,-89,162
175027,90,386,465,81,97,259,-214,485,234,192,95,114,298,66,49,273,105,34,135,136,0,100,159,392,295,268,372,-67,273,146,-45,216
175028,54,376,456,78,115,267,-177,493,252,205,114,149,317,83,71,312,159,52,145,146,38,127,207,438,316,315,421,12,359,215,39,331
175029,97,442,484,94,125,316,-86,513,272,201,159,165,311,93,78,339,164,73,138,158,67,136,213,460,341,354,473,42,400,300,134,440
175030,160,530,510,109,140,343,3,540,269,199,179,159,284,74,51,353,137,62,117,131,57,163,200,414,311,321,441,-10,348,245,53,279
175031,237,638,566,131,164,386,93,562,272,224,231,175,292,64,75,378,161,65,114,123,38,185,208,420,289,287,402,10,327,175,-27,108
175032,223,602,534,111,150,377,47,548,268,218,213,184,278,64,68,357,148,71,105,118,26,162,198,410,281,266,363,63,313,144,-102,40
175033,178,549,485,104,144,377,50,517,255,218,220,153,276,60,73,359,167,41,103,125,51,184,191,388,266,282,393,6,302,129,-100,153
175034,172,542,511,127,157,386,48,519,251,212,230,141,267,44,85,358,187,19,87,117,72,202,153,364,248,272,407,-140,237,75,-76,203
175035,141,514,475,102,127,358,28,507,243,211,218,140,246,39,69,342,154,12,69,100,41,177,122,345,227,260,394,-109,223,80,-80,184
175036,136,569,462,80,130,363,45,509,252,198,207,135,242,37,60,343,123,6,62,90,34,162,133,348,237,239,384,-55,256,124,-63,191
175037,193,625,487,86,148,363,67,520,248,219,224,125,237,41,59,355,117,14,49,87,41,180,152,333,213,242,409,-51,267,128,-56,213
175038,183,617,472,79,144,359,58,493,231,206,214,102,228,25,64,336,116,-13,34,78,13,160,113,295,181,231,375,-86,227,91,-95,155
175039,218,639,507,103,152,367,66,501,251,200,226,104,209,36,45,347,130,-28,23,51,5,153,103,268,161,229,355,-96,175,28,-127,142
175040,210,613,502,104,132,359,62,499,237,197,210,98,217,21,35,331,152,-30,11,54,18,165,117,286,177,238,371,0,221,92,-95,214
175041,205,589,504,105,141,372,48,510,254,213,204,120,228,23,64,334,149,-4,40,89,37,172,139,316,188,239,388,9,252,150,-54,220
175042,191,596,492,98,148,379,68,518,278,231,215,131,243,27,60,354,108,-10,43,78,31,179,96,307,181,227,368,-118,182,73,-101,198
175043,149,592,444,87,140,374,52,484,266,214,196,90,242,35,42,336,64,-23,40,70,9,137,70,280,162,212,336,-149,149,13,-136,170
175044,166,611,427,114,169,393,65,491,285,236,213,94,271,48,66,340,99,8,61,91,14,155,100,290,183,216,346,-95,179,65,-116,178
175045,157,591,415,103,144,360,42,499,270,204,181,106,260,28,35,318,98,-9,46,65,-8,119,91,291,142,186,325,-108,170,55,-147,155
175046,168,604,429,116,139,364,37,511,266,204,192,139,281,24,47,334,105,15,58,78,5,120,117,316,156,177,340,-75,213,71,-122,165
175047,160,608,436,132,145,354,52,516,286,210,206,149,327,32,49,344,130,60,82,87,34,161,171,356,193,223,381,20,256,96,-84,220
175048,132,571,426,103,122,328,34,509,276,196,173,156,332,42,27,318,147,90,93,78,0,172,154,358,186,215,402,-25,228,52,-106,228
175049,131,580,454,111,157,358,48,550,309,215,205,196,366,83,76,361,186,141,124,113,45,191,197,387,197,232,406,-8,216,49,-98,235
175050,117,572,457,107,133,346,50,530,301,194,195,182,349,63,70,366,177,116,112,91,47,176,156,339,173,226,394,-20,189,24,-137,207
175051,138,582,493,127,140,344,63,548,306,198,207,200,345,69,92,390,195,108,100,87,54,205,143,344,174,232,404,-76,175,15,-139,220
175052,149,580,508,137,131,341,46,540,300,191,181,189,340,54,95,391,175,93,78,78,52,183,152,338,177,243,401,-92,164,7,-152,222
175053,168,563,499,138,159,327,26,535,312,199,173,196,348,60,88,379,162,122,98,101,64,187,203,374,184,258,426,-24,232,72,-131,234
175054,142,516,457,112,131,314,-1,521,302,186,173,187,321,46,74,351,139,95,86,98,51,184,211,382,199,258,410,-20,273,85,-97,238
175055,136,523,444,118,121,329,3,512,303,189,175,173,332,42,92,376,169,111,107,105,58,166,232,400,219,269,408,4,292,127,-51,231
175056,140,540,476,132,143,326,7,522,300,189,190,207,351,83,120,390,196,153,128,134,66,191,265,445,259,279,412,86,357,186,-4,238
175057,130,526,467,134,130,320,-10,515,293,198,174,227,331,79,104,359,188,155,144,120,52,195,264,455,265,289,420,83,417,223,6,244
175058,159,532,472,131,113,327,-6,513,294,191,183,202,333,68,73,352,192,160,164,142,60,186,277,494,265,312,433,90,449,251,6,271
175059,186,555,480,155,142,348,48,538,286,198,216,241,338,82,94,375,229,168,182,160,94,207,277,504,305,333,453,34,406,212,3,294
175060,171,558,470,151,126,360,49,533,291,218,227,219,344,77,119,386,232,153,201,185,109,222,265,521,328,357,496,25,405,221,14,325
175061,167,558,470,126,120,351,74,514,289,218,234,215,332,78,118,395,208,147,196,197,114,233,258,519,346,365,507,25,405,223,19,332
175062,186,557,482,125,122,362,79,546,294,230,249,229,336,94,132,403,226,163,213,194,121,234,296,530,362,363,504,35,426,250,30,339
175063,196,582,490,140,126,377,114,547,297,238,267,233,345,100,137,412,236,176,216,210,134,260,333,546,393,379,520,98,487,289,78,348
175064,222,577,494,152,146,392,106,539,294,236,260,249,361,103,127,394,238,198,225,208,103,244,354,575,416,400,494,173,549,354,109,340
175065,227,572,526,158,159,385,93,541,305,240,269,270,348,95,122,388,283,191,202,181,97,226,362,571,394,374,481,171,534,310,82,326
175066,228,575,531,151,161,408,109,554,294,226,297,248,340,92,133,404,291,171,174,168,94,229,327,533,365,352,475,108,456,232,33,323
175067,170,506,504,120,134,394,56,536,247,210,262,217,310,53,110,366,233,122,154,157,66,197,272,503,335,321,437,25,362,182,-7,296
175068,157,502,503,119,142,374,57,545,270,225,235,206,299,68,85,369,247,119,140,151,40,186,268,485,332,299,426,28,351,155,-35,274
175069,180,513,496,115,138,374,20,548,287,224,202,208,308,80,85,382,234,124,138,137,35,189,238,462,320,270,409,-27,309,127,-74,256
175070,185,515,506,116,126,360,18,543,270,221,200,199,275,69,65,340,208,71,112,114,-6,155,196,415,277,241,362,-54,255,61,-135,200
175071,177,500,507,132,136,360,26,523,285,196,195,194,290,69,48,336,198,75,107,96,-42,166,179,409,273,227,349,-68,242,71,-114,212
175072,152,499,482,126,130,352,13,497,295,183,153,170,284,53,12,312,207,53,82,72,-67,152,156,383,244,211,336,-121,205,38,-141,209
175073,133,531,446,114,129,355,17,471,287,201,171,160,246,41,3,275,191,26,63,56,-84,129,159,352,217,182,320,-84,190,31,-154,176
175074,104,490,420,97,127,330,-19,442,277,173,152,137,242,31,-33,271,167,9,45,36,-92,116,141,328,207,170,308,-64,190,25,-146,146
175075,98,487,440,93,124,318,-4,472,284,193,156,141,243,40,-24,281,171,23,49,53,-72,146,144,328,214,185,324,-16,231,59,-122,186
175076,105,487,453,110,126,324,15,467,276,193,133,156,247,27,-4,294,165,14,52,62,-60,153,127,327,205,183,325,-7,189,56,-96,195
175077,104,485,464,119,138,259,2,457,278,184,156,157,252,28,3,317,116,10,38,62,-68,164,108,329,199,173,343,-5,160,20,-130,190
175078,134,516,476,110,130,187,20,470,273,189,187,129,247,46,7,326,137,8,46,80,-51,156,108,331,223,194,352,-44,175,43,-119,189
175079,134,494,483,94,117,330,21,466,258,209,184,125,232,46,24,334,170,-18,34,71,-51,168,79,281,196,202,350,-223,104,-12,-136,196
175080,119,483,492,83,120,349,-21,457,253,200,177,119,232,36,30,334,129,-8,32,65,-33,180,73,293,195,200,342,-237,86,-24,-138,196
175081,130,466,468,84,123,342,-24,468,267,201,187,155,248,52,49,337,132,-4,51,90,-16,166,126,324,222,228,353,-111,154,57,-116,201
175082,129,470,463,93,129,347,15,475,270,207,198,158,252,40,64,350,146,14,61,97,-18,188,141,340,226,240,382,-60,203,93,-87,219
175083,131,502,458,110,127,312,33,479,266,199,240,155,263,43,74,357,158,30,55,110,2,210,150,346,204,246,388,-34,237,107,-58,234
175084,160,508,474,109,126,348,54,460,272,195,242,169,256,57,94,393,171,22,70,104,28,220,176,364,218,272,380,10,275,155,-35,237
175085,161,532,503,114,138,360,65,474,267,230,251,182,253,54,106,402,189,44,89,123,58,228,194,365,251,272,410,-24,307,184,1,258
175086,154,525,475,106,139,365,35,470,270,231,247,193,250,50,120,392,165,46,84,115,68,234,185,356,240,264,416,-67,305,198,28,280
175087,154,514,455,114,137,355,47,463,255,220,257,195,237,42,109,427,92,41,56,98,68,260,129,360,209,280,436,-91,292,190,9,271
175088,150,501,480,117,153,365,64,498,256,238,247,209,237,55,121,436,127,53,56,115,62,253,149,369,221,280,435,-76,320,205,15,269
175089,173,515,505,136,147,386,94,529,271,250,279,214,235,63,141,442,151,55,83,132,76,279,179,379,229,287,439,-29,330,233,42,306
175090,176,481,509,135,150,395,92,506,274,236,278,211,211,55,130,446,119,34,39,117,62,270,165,351,208,288,431,-37,290,196,21,298
175091,165,434,499,106,145,400,65,493,248,250,289,215,192,42,109,439,128,4,25,107,49,245,137,330,164,258,402,-79,220,108,-43,243
175092,125,466,484,83,129,374,54,486,241,233,279,169,195,39,98,402,113,-13,19,105,42,211,119,312,180,265,407,-67,246,149,-18,234
175093,85,456,452,66,125,355,17,455,237,207,227,173,190,41,74,370,109,-5,40,104,11,184,125,324,192,227,394,-38,285,173,-25,217
175094,80,427,437,72,120,341,7,453,245,205,212,168,217,53,75,392,125,9,69,114,28,185,172,357,206,269,414,-9,363,214,0,227
175095,117,455,470,77,125,318,32,471,265,216,214,166,249,51,82,381,150,43,87,120,37,169,205,383,227,272,397,47,404,262,52,227
175096,132,484,477,92,138,317,18,476,270,219,200,182,260,41,84,367,150,52,92,117,27,158,231,374,231,283,390,81,453,312,87,252
175097,151,500,488,109,135,326,37,493,282,244,223,175,286,69,79,380,121,62,109,124,41,129,232,411,257,303,416,117,477,340,106,269
175098,105,476,463,82,112,314,-11,459,261,207,184,148,260,40,73,343,100,30,83,116,2,109,202,404,233,271,368,92,417,275,38,228
175099,90,479,446,75,119,316,-8,461,264,212,178,137,292,53,49,345,105,19,87,122,9,136,161,396,235,288,376,51,353,212,-2,194
175100,90,452,443,77,126,306,-9,464,278,207,181,126,314,71,41,342,88,43,129,134,14,145,161,436,276,300,411,90,415,239,60,210
175101,82,431,449,76,123,311,-18,470,289,208,191,134,309,93,81,341,88,62,145,149,26,130,162,451,293,310,406,-24,397,242,53,243
175102,69,404,409,46,103,295,-36,462,280,210,166,128,308,87,74,298,59,56,128,147,0,92,152,458,286,304,376,-28,410,266,52,208
175103,36,386,382,33,80,265,-73,430,272,179,139,82,293,79,34,266,29,52,132,133,-25,59,146,451,299,303,360,37,449,283,56,173
175104,26,369,370,30,96,275,-56,424,279,194,150,86,296,97,50,296,15,60,142,133,-15,80,125,449,300,285,341,-12,411,243,25,170
175105,22,363,349,31,78,279,-70,427,278,185,142,96,299,89,52,277,5,25,132,130,-31,93,97,438,284,279,353,-98,351,202,-1,191
175106,24,372,364,23,76,287,-63,441,277,179,136,95,296,85,36,257,50,30,115,137,-34,98,68,421,295,270,355,-135,322,174,-10,227
175107,19,351,365,15,77,287,-64,408,265,169,137,70,270,62,31,268,24,7,96,118,-32,114,39,383,270,242,366,-223,241,92,-49,223
175108,37,354,376,52,95,283,-62,445,269,180,146,89,287,85,47,290,11,12,119,131,-17,132,73,418,288,265,367,-98,329,155,-15,250
175109,33,348,352,38,94,273,-73,427,285,187,151,87,278,75,59,275,-18,23,122,124,-32,135,101,421,295,288,360,-31,383,235,14,253
175110,44,377,359,48,96,288,-63,447,297,194,163,89,293,62,53,286,-21,29,91,114,-34,111,98,419,267,281,363,-52,357,217,25,245
175111,53,401,393,61,109,306,-25,474,287,218,187,111,279,49,75,306,7,30,82,116,-12,155,83,411,265,280,378,-116,312,171,-14,235
175112,60,425,433,85,107,314,-2,464,288,213,198,128,261,55,97,307,16,21,98,111,0,170,94,398,267,285,372,-102,331,195,-6,252
175113,78,412,411,87,110,314,-30,455,285,202,184,114,262,47,96,299,10,7,71,106,0,156,87,409,255,267,394,-78,343,214,29,280
175114,92,393,412,79,115,305,-46,448,267,196,182,123,243,39,57,320,-2,-15,52,93,-13,150,83,377,246,271,402,-115,306,200,18,336
175115,97,408,423,90,124,311,-24,451,277,203,175,127,244,40,60,320,25,-2,68,90,-8,131,98,407,264,267,393,-33,345,251,55,343
175116,101,413,446,103,129,318,-15,473,268,198,200,131,252,12,70,324,46,-19,64,66,-43,145,16,328,209,218,340,-295,157,72,-84,231
175117,139,433,469,112,125,322,22,479,284,223,210,142,261,35,69,321,57,-16,64,75,-21,162,-12,320,224,216,355,-360,127,47,-63,287
175118,135,431,479,120,131,311,21,504,280,209,198,145,267,45,66,327,60,-19,56,67,-8,179,-11,318,224,239,402,-342,80,-3,-55,410
175119,115,395,450,119,116,315,-3,496,285,191,191,143,248,16,55,328,57,-28,43,54,-19,164,-1,293,197,222,382,-372,31,-48,-84,377
175120,101,376,431,120,101,303,-29,476,313,192,185,150,261,37,53,302,88,-34,50,75,-47,160,26,303,213,220,353,-327,48,-29,-92,272
175121,108,420,469,108,134,305,-13,507,306,210,204,177,284,62,54,331,123,3,86,84,-44,149,68,338,233,229,387,-249,114,-5,-96,253
175122,100,403,464,113,133,323,-2,480,300,196,182,162,257,34,45,325,114,-10,64,77,-46,114,52,316,223,208,333,-244,101,-8,-116,203
175123,101,399,457,126,121,320,-4,479,290,187,181,142,255,33,52,297,89,-4,68,76,-52,108,48,311,212,188,298,-204,141,-3,-145,102
175124,77,424,452,105,132,314,-26,457,283,189,168,129,254,61,60,265,60,-7,67,96,-52,115,29,321,238,214,312,-176,180,42,-119,163
175125,56,421,401,84,117,301,-57,411,279,180,155,89,246,59,56,283,18,-24,88,111,-18,132,32,342,252,262,408,-142,225,135,20,439
175126,59,390,388,63,101,294,-63,413,301,189,127,84,250,69,41,296,26,-34,75,97,-38,113,41,336,232,258,399,-144,202,132,17,377
175127,83,418,419,66,115,296,-27,416,311,198,145,111,249,68,44,301,85,-35,64,106,-53,125,30,331,227,231,298,-181,174,76,-94,74
175128,86,427,423,69,126,295,-25,440,294,182,142,128,230,52,44,303,149,-33,43,92,-64,145,10,298,201,193,251,-204,129,-19,-229,-103
175129,123,452,460,117,120,301,-16,463,293,169,157,134,251,51,24,305,190,-14,36,77,-92,128,46,292,180,159,196,-138,107,-104,-355,-307
175130,134,470,462,115,118,292,-11,487,293,167,138,163,277,32,20,292,163,0,34,74,-99,128,88,298,172,133,149,-80,125,-129,-419,-444
175131,87,407,412,103,119,267,-42,486,294,168,120,148,277,36,44,277,146,-2,46,89,-73,129,110,323,195,188,222,-23,177,-22,-292,-226
175132,104,441,430,135,123,286,-18,508,316,178,135,147,287,54,54,303,168,12,77,120,-38,137,100,349,229,226,272,-99,188,28,-196,-95
175133,117,439,447,138,124,286,-18,520,304,182,133,141,295,49,48,305,147,5,66,101,-37,145,64,344,222,217,276,-175,181,19,-191,-38
175134,107,434,435,134,121,285,-34,530,284,187,128,141,284,39,34,291,154,13,43,85,-56,117,66,359,227,220,277,-78,243,63,-169,9
175135,134,437,454,155,124,291,-34,537,294,188,114,119,269,41,23,286,132,17,53,88,-61,103,102,379,231,214,271,-26,291,91,-156,22
175136,122,414,448,140,118,267,-65,510,281,165,112,107,250,17,32,277,97,6,62,95,-44,93,112,370,237,237,319,-20,337,188,-63,182
175137,127,431,473,153,120,287,-44,529,292,186,126,142,246,18,42,292,126,17,66,97,-69,107,118,372,237,222,313,9,336,194,-64,149
175138,143,439,509,153,139,294,-42,521,287,175,114,151,248,20,32,277,145,23,56,88,-93,101,118,374,244,200,291,3,325,160,-81,55
175139,135,447,516,171,154,312,-14,516,289,186,150,150,241,26,31,264,156,37,51,81,-76,115,121,356,226,200,280,-25,291,117,-99,-29
175140,142,482,497,178,141,330,19,532,298,194,178,155,251,22,40,294,151,11,41,77,-76,122,88,322,198,191,261,-94,188,43,-201,-110
175141,170,496,501,190,154,375,45,542,316,205,197,167,258,47,59,335,149,17,60,86,-50,155,102,351,213,174,293,-87,214,36,-227,-72
175142,137,470,480,169,145,353,42,507,287,226,202,175,256,44,52,322,139,8,39,79,-41,157,114,354,202,200,295,-86,244,69,-157,6
175143,123,448,486,150,148,342,30,464,292,221,188,174,260,47,56,307,133,16,49,80,-47,134,124,365,208,192,305,-64,258,90,-125,74
175144,129,437,494,135,144,343,13,463,264,189,159,154,238,18,26,289,92,17,49,58,-72,83,100,330,190,175,294,-63,232,71,-155,74
175145,150,463,510,159,163,357,24,510,284,213,191,179,252,25,40,295,123,43,53,85,-53,109,140,373,201,185,298,-24,266,104,-93,143
175146,121,457,489,130,173,349,39,511,275,204,192,176,237,14,34,311,113,27,32,62,-68,127,117,365,189,185,305,-71,253,95,-106,158
175147,115,456,483,114,154,344,43,508,276,205,178,158,241,3,13,285,94,21,18,42,-94,106,105,362,168,158,264,-68,265,69,-150,69
175148,92,419,446,106,124,324,-24,485,277,203,162,165,239,3,-2,248,105,31,19,42,-112,74,105,391,180,128,253,-51,286,82,-152,29
175149,72,410,435,108,134,357,-27,491,277,197,155,160,259,17,2,253,117,49,48,43,-109,79,128,394,207,149,262,23,325,137,-110,73
175150,80,406,461,112,147,362,-12,511,280,199,152,165,276,17,11,244,103,45,53,31,-132,73,119,375,183,142,222,42,301,116,-145,12
175151,72,429,462,118,143,358,8,519,275,199,155,183,291,8,8,234,91,39,44,38,-137,56,108,377,178,115,224,29,279,88,-169,-5
175152,97,440,466,112,157,358,30,529,286,177,166,174,262,10,-2,229,72,20,34,31,-129,65,71,357,179,115,217,-129,210,62,-169,43
175153,78,424,443,103,148,355,10,492,284,193,140,161,257,14,-10,244,59,21,34,33,-125,77,40,329,173,113,246,-201,168,35,-192,64
175154,56,404,428,83,134,336,-16,475,280,198,133,150,258,0,2,237,28,17,37,32,-123,73,43,340,175,128,268,-172,195,64,-133,114
175155,74,392,429,85,124,318,-11,473,280,191,137,155,259,1,-1,235,55,20,34,29,-118,73,57,320,172,132,254,-135,211,82,-123,135
