,Fp1,Fp2,F7,F3,Fz,F4,F8,FC5,FC1,FC2,FC6,T7,C3,Cz,C4,T8,TP9,CP5,CP1,CP2,CP6,TP10,P7,P3,Pz,P4,P8,PO9,O1,Oz,O2,PO10
105248,-519,-302,-508,-200,-88,152,-367,-27,48,-146,57,-701,42,200,-97,-136,-190,-144,45,65,-383,-139,-2,-170,-249,-78,-105,-171,-15,-242,-178,-214
105249,-496,-275,-496,-212,-79,163,-331,-46,30,-147,69,-724,15,180,-104,-113,-186,-181,10,35,-395,-108,-4,-193,-274,-87,-147,-286,-98,-275,-233,-174
105250,-485,-262,-481,-209,-78,159,-320,-36,19,-141,95,-731,9,188,-111,-135,-122,-215,-2,32,-363,-125,7,-181,-308,-101,-164,-381,-140,-319,-260,-223
105251,-485,-265,-454,-198,-69,162,-330,-23,20,-137,100,-730,17,188,-102,-121,-105,-195,-7,30,-338,-108,-28,-205,-335,-118,-136,-365,-134,-359,-308,-329
105252,-498,-280,-467,-217,-75,172,-320,-47,18,-154,98,-748,-6,176,-96,-140,-144,-205,-5,26,-331,-76,-54,-224,-335,-116,-121,-312,-122,-347,-320,-286
105253,-513,-271,-471,-221,-76,160,-303,-34,20,-137,85,-754,3,186,-77,-142,-154,-202,7,44,-332,-57,-12,-209,-328,-92,-96,-254,-108,-351,-325,-240
105254,-530,-266,-506,-256,-88,147,-320,-66,-4,-150,72,-766,1,173,-92,-168,-145,-206,7,28,-354,-71,5,-225,-331,-106,-98,-244,-122,-361,-338,-288
105255,-561,-304,-547,-264,-114,139,-335,-120,-12,-162,58,-772,-18,174,-96,-181,-140,-209,-1,2,-356,-150,-27,-215,-329,-131,-134,-248,-113,-350,-350,-285
105256,-570,-324,-558,-277,-121,110,-375,-93,2,-156,28,-773,4,159,-118,-159,-150,-196,-13,11,-382,-231,-54,-236,-335,-132,-156,-255,-119,-372,-335,-294
105257,-583,-325,-502,-262,-103,111,-414,-33,11,-159,17,-752,26,150,-130,-235,-168,-170,-4,-13,-434,-267,64,-221,-348,-139,-224,-306,-133,-400,-356,-352
105258,-608,-363,-529,-292,-122,85,-440,-67,16,-169,16,-778,0,160,-140,-433,-184,-192,-9,-23,-452,-229,38,-221,-355,-181,-237,-340,-141,-397,-359,-322
105259,-637,-384,-546,-308,-128,68,-426,-56,9,-195,-27,-800,3,145,-167,-378,-202,-224,-25,-11,-461,-137,-138,-240,-371,-166,-172,-245,-102,-364,-298,-270
105260,-600,-360,-510,-292,-96,105,-383,-34,17,-182,10,-757,27,156,-139,-325,-137,-179,11,5,-393,-130,-52,-194,-335,-130,-86,-214,-46,-317,-251,-221
105261,-584,-359,-501,-287,-126,103,-383,-27,25,-176,26,-723,59,155,-124,-275,-142,-134,38,19,-366,-123,0,-167,-318,-95,-55,-204,-26,-287,-254,-241
105262,-562,-319,-486,-277,-118,128,-350,11,36,-153,38,-726,78,174,-102,-204,-149,-99,40,44,-344,-134,83,-163,-302,-117,-124,-180,-3,-267,-250,-215
105263,-541,-304,-477,-265,-111,136,-331,0,9,-159,54,-759,64,170,-88,-180,-156,-144,32,38,-336,-157,38,-162,-326,-122,-97,-187,31,-223,-209,-195
105264,-525,-296,-497,-282,-131,131,-342,-30,9,-164,48,-769,52,152,-103,-210,-171,-169,32,27,-354,-181,-6,-153,-321,-106,-59,-125,76,-193,-170,-181
105265,-534,-296,-492,-284,-144,109,-390,-49,12,-155,40,-756,44,166,-87,-239,-193,-159,37,27,-374,-152,65,-132,-325,-110,-60,-135,90,-173,-175,-197
105266,-560,-323,-530,-284,-146,111,-410,-55,-10,-160,37,-777,30,157,-90,-202,-202,-167,6,9,-399,-127,-5,-186,-364,-159,-77,-269,-1,-256,-246,-198
105267,-544,-317,-520,-264,-113,110,-378,-46,-1,-155,55,-767,51,150,-97,-119,-177,-169,-9,-6,-375,-163,-73,-228,-397,-175,-90,-431,-176,-414,-361,-248
105268,-518,-292,-478,-237,-95,124,-375,-20,15,-155,49,-738,57,145,-92,-105,-165,-169,-1,0,-381,-87,-81,-242,-419,-171,-61,-406,-233,-478,-404,-254
105269,-498,-263,-490,-221,-87,139,-368,6,31,-117,80,-719,62,168,-53,-105,-135,-147,24,19,-338,-6,-45,-210,-362,-138,-26,-293,-129,-390,-373,-187
105270,-483,-278,-482,-215,-103,145,-351,-6,37,-125,97,-702,77,166,-51,-91,-128,-119,44,24,-342,-40,-9,-163,-347,-114,-36,-239,-26,-317,-315,-197
105271,-483,-298,-457,-234,-89,126,-383,-12,14,-137,51,-668,89,154,-83,-124,-85,-97,68,28,-364,-93,39,-118,-294,-113,-65,-148,46,-255,-281,-221
105272,-514,-319,-470,-256,-108,108,-389,-23,13,-151,62,-698,76,183,-71,-115,-108,-116,62,51,-349,-89,73,-87,-285,-103,-33,-127,94,-206,-232,-172
105273,-526,-341,-479,-247,-107,107,-402,-12,18,-153,67,-715,98,205,-56,-104,-83,-91,81,68,-337,-85,98,-70,-268,-92,1,-111,144,-162,-228,-140
105274,-521,-356,-486,-275,-132,92,-412,-35,-1,-172,32,-710,74,179,-56,-90,-79,-95,73,46,-342,-58,76,-81,-269,-95,-2,-132,83,-196,-229,-142
105275,-503,-333,-470,-263,-128,103,-369,-29,7,-164,49,-705,88,196,-61,-91,-70,-68,79,52,-327,-47,116,-54,-251,-72,-9,-134,110,-147,-186,-122
105276,-471,-302,-426,-237,-106,127,-331,9,25,-163,61,-675,107,197,-55,-61,-101,-52,84,77,-300,-58,126,-50,-226,-52,16,-161,102,-152,-178,-125
105277,-462,-260,-416,-201,-102,122,-309,30,36,-139,82,-656,88,200,-25,-41,-109,-51,102,109,-260,-75,142,-59,-213,-29,53,-196,65,-139,-164,-97
105278,-459,-269,-443,-236,-112,116,-321,20,32,-147,62,-693,81,192,-23,-69,-83,-73,107,113,-264,-86,142,-29,-180,-14,36,-202,63,-119,-135,-111
105279,-510,-306,-474,-249,-109,101,-338,5,43,-138,76,-718,94,200,-14,-84,-78,-92,113,137,-267,-73,87,-27,-163,13,62,-157,93,-119,-92,-87
105280,-535,-348,-505,-282,-117,91,-368,-3,14,-149,42,-695,105,205,-43,-97,-91,-73,114,136,-274,-106,144,-24,-159,29,65,-143,102,-134,-113,-164
105281,-572,-376,-525,-307,-149,73,-405,-32,2,-163,20,-744,65,200,-59,-132,-98,-115,104,117,-300,-197,132,-48,-170,10,0,-83,148,-102,-105,-137
105282,-562,-364,-524,-292,-163,95,-391,-52,-3,-155,25,-758,56,205,-54,-128,-108,-140,98,140,-285,-154,72,-76,-184,24,36,-63,148,-96,-101,-118
105283,-503,-314,-479,-266,-130,117,-344,-24,20,-120,73,-732,81,225,-29,-89,-151,-108,106,156,-263,-85,90,-64,-181,45,106,-104,166,-78,-81,-135
105284,-504,-272,-464,-266,-126,125,-337,-23,16,-139,88,-737,65,218,-25,-98,-207,-115,112,143,-303,-86,50,-89,-161,7,-2,-187,88,-120,-132,-157
105285,-493,-249,-499,-260,-111,155,-317,-16,5,-125,113,-741,62,218,-8,-128,-183,-141,99,148,-290,-117,11,-126,-190,-20,-97,-288,-15,-234,-187,-181
105286,-474,-253,-496,-273,-100,162,-303,-34,12,-123,132,-743,46,190,-10,-121,-189,-164,69,129,-287,-63,-1,-152,-226,-29,-41,-300,-76,-303,-245,-272
105287,-506,-252,-511,-274,-94,155,-325,-66,6,-119,115,-741,10,178,-20,-120,-163,-184,41,107,-303,-67,3,-165,-213,-44,-68,-271,-47,-280,-241,-275
105288,-469,-268,-505,-275,-98,140,-316,-28,2,-115,107,-783,2,165,-20,-131,-223,-203,19,97,-317,-114,15,-182,-250,-65,-114,-296,-61,-272,-248,-273
105289,-471,-291,-525,-260,-106,143,-321,-12,4,-125,94,-817,-13,168,-10,-251,-221,-206,12,93,-324,-161,-93,-208,-256,-76,-131,-216,0,-229,-228,-276
105290,-543,-308,-550,-271,-112,118,-342,-39,3,-139,75,-780,0,190,-32,-334,-214,-169,26,93,-360,-210,31,-187,-259,-89,-174,-262,-28,-281,-253,-280
105291,-536,-322,-537,-277,-116,115,-319,-70,10,-142,104,-776,-7,188,-29,-120,-199,-195,39,101,-349,-209,-1,-188,-265,-94,-130,-263,-91,-342,-323,-308
105292,-548,-337,-542,-290,-118,127,-321,-68,0,-137,116,-792,15,206,1,-96,-182,-200,47,120,-352,-208,-75,-178,-255,-97,-136,-196,-76,-340,-318,-344
105293,-522,-313,-513,-265,-123,161,-323,-24,-3,-147,107,-762,62,197,-14,-118,-151,-163,66,126,-381,-165,-45,-165,-248,-84,-186,-221,-73,-354,-344,-358
105294,-490,-285,-505,-264,-117,156,-328,-7,-5,-143,102,-739,44,188,-33,-163,-168,-186,52,113,-400,-161,-44,-194,-265,-119,-217,-275,-116,-399,-388,-344
105295,-500,-304,-494,-291,-105,137,-334,-15,22,-158,87,-760,32,192,-37,-215,-214,-186,63,91,-414,-169,1,-184,-289,-148,-192,-240,-103,-411,-404,-371
105296,-544,-326,-522,-293,-117,115,-351,-46,15,-167,84,-735,21,173,-52,-207,-158,-156,53,63,-415,-169,97,-181,-337,-170,-208,-326,-166,-485,-487,-450
105297,-581,-342,-534,-319,-130,104,-383,-64,-1,-154,72,-767,36,194,-69,-182,-165,-168,56,66,-439,-169,-1,-176,-312,-190,-268,-416,-222,-500,-493,-409
105298,-601,-354,-556,-338,-141,116,-372,-77,-6,-125,41,-788,34,197,-72,-185,-200,-163,73,63,-461,-175,-66,-181,-297,-198,-296,-368,-209,-507,-481,-395
105299,-601,-369,-558,-346,-160,88,-403,-72,0,-136,43,-762,37,217,-60,-156,-230,-136,77,67,-482,-167,11,-187,-306,-201,-254,-316,-165,-468,-465,-373
105300,-607,-379,-555,-359,-178,73,-434,-78,-13,-164,27,-801,42,213,-89,-164,-232,-172,74,54,-473,-176,19,-184,-326,-198,-237,-287,-135,-437,-449,-363
105301,-600,-374,-528,-353,-177,80,-397,-71,0,-146,50,-787,40,220,-74,-261,-216,-174,74,53,-423,-175,-7,-177,-330,-174,-236,-299,-138,-437,-451,-389
105302,-605,-386,-522,-356,-180,62,-409,-70,-5,-156,39,-792,27,205,-90,-254,-204,-194,62,30,-429,-256,-87,-217,-353,-203,-276,-294,-171,-493,-545,-465
105303,-614,-343,-523,-339,-165,98,-396,-35,19,-128,59,-753,76,225,-72,-161,-191,-166,98,66,-414,-219,-41,-185,-319,-170,-242,-247,-138,-484,-541,-409
105304,-600,-358,-560,-328,-176,95,-415,-32,7,-155,20,-746,90,208,-95,-148,-167,-158,102,58,-408,-209,-35,-162,-304,-172,-197,-242,-142,-499,-533,-445
105305,-605,-384,-554,-323,-168,59,-421,-27,9,-179,-2,-738,97,220,-109,-169,-189,-145,93,47,-462,-197,-49,-177,-336,-193,-252,-277,-165,-518,-549,-416
105306,-611,-345,-552,-310,-153,46,-417,-14,10,-173,25,-752,107,221,-107,-194,-199,-113,108,44,-487,-166,19,-145,-318,-176,-275,-330,-155,-490,-479,-346
105307,-586,-347,-550,-305,-139,56,-419,15,19,-172,20,-721,119,225,-112,-228,-155,-81,136,71,-466,-147,59,-104,-275,-144,-257,-280,-68,-408,-419,-323
105308,-602,-352,-545,-302,-159,63,-450,-8,6,-178,1,-716,121,220,-107,-196,-201,-119,146,76,-467,-153,16,-110,-261,-140,-240,-243,-44,-386,-407,-311
105309,-573,-346,-505,-277,-144,69,-439,3,24,-181,14,-715,133,228,-81,-216,-202,-80,151,72,-428,-99,61,-106,-254,-112,-201,-272,-58,-359,-350,-293
105310,-553,-359,-503,-285,-153,45,-437,3,16,-193,26,-698,138,208,-69,-233,-223,-49,126,89,-411,-95,58,-98,-281,-115,-179,-264,-61,-359,-354,-313
105311,-594,-370,-537,-316,-181,25,-451,-25,12,-233,-7,-749,116,207,-123,-301,-234,-91,123,82,-443,-133,24,-118,-293,-131,-214,-250,-40,-370,-387,-336
105312,-581,-345,-549,-296,-166,39,-443,-37,18,-216,-26,-776,107,224,-127,-323,-189,-113,129,82,-439,-167,13,-111,-267,-121,-208,-224,-36,-356,-381,-322
105313,-590,-353,-559,-316,-180,45,-456,-49,0,-204,-17,-806,81,220,-105,-266,-191,-160,104,73,-452,-150,-6,-138,-281,-152,-189,-245,-70,-366,-387,-342
105314,-552,-341,-513,-291,-145,65,-429,-26,13,-198,4,-788,117,255,-85,-234,-180,-104,134,94,-438,-150,69,-107,-258,-138,-208,-172,-33,-312,-338,-338
105315,-548,-344,-526,-260,-140,61,-436,-36,21,-191,11,-764,100,245,-86,-267,-179,-77,142,92,-427,-196,60,-103,-289,-109,-218,-192,-35,-292,-335,-316
105316,-553,-327,-539,-264,-139,62,-456,-36,9,-169,33,-735,110,239,-47,-384,-170,-103,137,125,-389,-173,64,-125,-262,-79,-172,-271,-87,-334,-319,-309
105317,-561,-335,-520,-269,-151,64,-475,-52,3,-172,16,-720,100,243,-44,-279,-191,-112,142,131,-396,-161,127,-115,-258,-89,-155,-359,-108,-353,-331,-329
105318,-559,-317,-546,-271,-160,63,-436,-52,-2,-169,22,-697,119,244,-39,-214,-216,-76,156,139,-380,-164,107,-75,-211,-69,-126,-260,-32,-300,-263,-259
105319,-523,-296,-525,-255,-135,83,-416,16,17,-164,16,-692,132,252,-23,-213,-192,-52,157,146,-351,-192,170,-44,-195,-40,-115,-227,18,-245,-235,-285
105320,-480,-278,-451,-221,-118,111,-409,59,16,-145,56,-701,131,276,-19,-141,-120,-102,176,180,-326,-115,37,-34,-171,-2,-87,-94,81,-166,-177,-165
105321,-476,-253,-458,-235,-129,123,-348,37,12,-136,82,-680,156,276,16,-136,-45,-41,214,197,-320,-73,152,27,-104,22,-47,-59,151,-117,-124,-132
105322,-489,-256,-479,-279,-141,120,-360,5,11,-142,83,-664,129,261,-4,-165,-74,-21,208,170,-345,-80,173,35,-94,9,-68,-62,176,-116,-110,-173
105323,-487,-273,-507,-288,-112,121,-378,5,22,-133,127,-656,137,268,11,-155,-54,1,229,194,-298,-63,201,59,-70,36,-51,-28,203,-79,-74,-102
105324,-500,-280,-523,-290,-131,129,-348,13,18,-138,139,-671,152,267,23,-127,22,6,225,212,-259,2,200,50,-59,65,-2,-10,215,-73,-58,-72
105325,-513,-284,-512,-300,-133,119,-337,20,3,-149,136,-676,153,258,25,-61,-17,11,225,196,-221,0,247,46,-104,74,74,-81,181,-89,-102,-108
105326,-503,-290,-497,-313,-133,122,-340,21,4,-144,117,-670,152,258,21,-22,-69,31,206,198,-236,-43,219,54,-83,64,55,-54,207,-80,-110,-150
105327,-507,-295,-515,-306,-163,108,-366,1,-19,-135,92,-710,105,247,4,-57,-38,-66,199,194,-272,-27,145,32,-93,62,4,-6,238,-55,-89,-108
105328,-546,-325,-517,-328,-166,93,-384,-16,-23,-144,62,-700,100,234,-8,-73,-47,-67,185,190,-270,-51,194,33,-90,74,26,-23,253,-24,-58,-81
105329,-552,-341,-506,-341,-166,92,-393,-16,-27,-151,71,-681,104,245,-4,-73,-94,-30,179,201,-242,-45,208,28,-94,84,94,-49,228,-38,-68,-109
105330,-533,-323,-528,-358,-162,93,-378,-45,-31,-164,87,-703,85,239,-31,-94,-75,-40,158,170,-256,-43,210,7,-139,34,-11,-70,201,-84,-122,-160
105331,-523,-328,-510,-340,-163,82,-383,-51,-39,-155,65,-725,62,232,-42,-160,-69,-93,131,139,-300,-59,103,-37,-170,0,-103,-133,125,-160,-177,-163
105332,-535,-326,-495,-337,-143,70,-397,-37,-46,-141,41,-736,44,226,-45,-161,-122,-121,126,138,-311,-47,36,-67,-184,-5,-65,-177,47,-215,-204,-186
105333,-526,-307,-501,-346,-166,93,-363,-36,-40,-153,63,-714,61,204,-36,-122,-133,-74,143,150,-313,-28,172,-27,-185,8,-78,-173,95,-140,-168,-156
105334,-532,-302,-490,-322,-149,110,-344,-22,-34,-123,105,-708,79,219,-13,-56,-95,-83,133,157,-280,47,101,-32,-168,26,-30,-131,142,-123,-150,-143
105335,-509,-301,-494,-312,-150,132,-346,0,-39,-128,118,-692,95,201,-22,-45,-100,-75,114,155,-270,29,78,-40,-178,32,-10,-108,146,-98,-131,-106
105336,-479,-278,-466,-310,-135,145,-340,13,-30,-147,95,-680,86,214,-31,-30,-98,-67,116,163,-282,-7,100,-46,-190,23,18,-162,99,-115,-111,-90
105337,-480,-280,-440,-297,-141,115,-331,10,-15,-148,93,-687,88,206,-45,-59,-162,-77,125,148,-292,-28,67,-65,-209,27,13,-175,77,-139,-78,-54
105338,-457,-276,-435,-269,-134,112,-355,25,0,-153,98,-662,94,205,-51,-153,-89,-104,124,139,-344,-49,66,-77,-230,27,-52,-158,77,-139,-133,-117
105339,-427,-259,-424,-261,-107,126,-334,38,8,-148,109,-680,97,198,-35,-182,-58,-119,121,134,-339,-69,59,-120,-221,-20,-98,-189,11,-211,-245,-234
105340,-386,-208,-370,-198,-81,151,-284,71,36,-152,130,-676,100,198,-46,-226,-50,-105,103,113,-332,-12,-10,-141,-243,-51,-92,-187,-33,-290,-296,-267
105341,-399,-203,-380,-193,-88,119,-327,76,34,-162,117,-689,111,186,-45,-244,-17,-108,97,113,-318,51,6,-124,-242,-20,-38,-143,0,-251,-251,-183
105342,-383,-183,-364,-179,-71,135,-313,112,38,-148,128,-666,124,188,-34,-77,-44,-78,98,133,-315,24,73,-113,-238,-6,-43,-117,-10,-211,-205,-125
105343,-382,-204,-373,-171,-55,155,-303,111,48,-143,114,-633,132,205,-33,-81,-71,-57,109,146,-327,-14,112,-98,-237,-19,-61,-126,29,-185,-195,-133
105344,-380,-212,-414,-176,-45,163,-326,85,60,-144,128,-647,104,221,-24,-80,-30,-106,109,132,-337,-29,106,-99,-216,-35,-88,-104,-4,-251,-265,-208
105345,-436,-218,-451,-207,-79,144,-341,20,41,-152,107,-694,71,210,-41,-102,-104,-126,87,102,-372,-63,70,-132,-246,-93,-158,-177,-57,-338,-329,-242
105346,-444,-224,-433,-214,-68,154,-345,40,50,-140,110,-672,88,209,-41,-97,-152,-78,93,114,-358,-26,46,-130,-240,-94,-111,-243,-51,-354,-335,-275
105347,-445,-237,-425,-207,-74,167,-331,45,47,-142,124,-657,89,217,-38,-75,-86,-83,93,111,-359,-49,98,-99,-234,-79,-155,-221,-25,-325,-320,-207
105348,-431,-241,-438,-189,-60,176,-328,57,40,-133,133,-686,95,204,-16,-70,-48,-72,111,119,-329,-68,156,-70,-227,-78,-140,-161,51,-253,-283,-216
105349,-402,-227,-414,-206,-66,177,-295,53,45,-119,147,-665,114,210,0,-29,-68,-42,116,146,-297,-29,126,-54,-210,-47,-95,-89,87,-256,-268,-205
105350,-357,-177,-385,-197,-62,195,-263,62,57,-102,165,-625,143,232,5,33,-17,15,160,169,-305,73,236,-4,-190,-23,-79,-75,74,-280,-275,-197
105351,-361,-184,-387,-207,-90,195,-255,56,59,-114,174,-638,127,227,19,-19,-28,4,165,181,-272,60,198,16,-181,-11,-64,-110,30,-298,-291,-191
105352,-369,-215,-408,-221,-89,173,-282,45,44,-107,156,-636,142,260,27,-31,-39,-1,184,200,-231,44,146,22,-130,25,-12,-68,73,-253,-202,-144
105353,-397,-208,-397,-215,-71,183,-282,46,42,-100,170,-633,156,266,13,-40,-22,1,188,194,-236,57,173,35,-100,52,9,-14,142,-194,-176,-95
105354,-474,-245,-427,-255,-107,158,-327,7,17,-136,126,-671,120,248,-25,-114,-9,-17,155,165,-270,-30,211,17,-139,26,-13,31,203,-153,-163,-122
105355,-463,-277,-435,-264,-117,153,-359,-12,4,-133,105,-684,98,231,-28,-151,-59,-28,162,137,-300,-60,204,8,-167,-7,-78,40,230,-129,-142,-187
105356,-471,-261,-459,-273,-87,160,-362,-2,19,-109,101,-711,98,236,-48,-197,-76,-11,157,148,-319,-47,227,17,-166,2,-87,74,290,-85,-144,-183
105357,-502,-282,-477,-277,-105,130,-384,-18,-9,-141,58,-745,74,233,-61,-213,-93,-42,132,133,-327,-76,213,13,-182,16,-40,115,317,-55,-125,-215
105358,-465,-267,-454,-225,-88,140,-348,1,-8,-128,93,-741,61,232,-34,-148,-87,-62,103,131,-303,-55,142,-42,-219,6,-5,-123,115,-190,-169,-159
105359,-430,-247,-420,-217,-66,154,-319,2,-3,-119,129,-729,41,220,-26,-76,-129,-111,61,118,-318,-51,39,-122,-286,-19,-3,-345,-128,-384,-258,-143
105360,-424,-257,-418,-241,-56,136,-338,3,-21,-118,131,-729,39,212,-26,-74,-126,-119,62,119,-304,-78,70,-136,-275,-47,-15,-311,-153,-437,-284,-212
105361,-467,-270,-485,-270,-74,116,-377,-35,-14,-147,102,-735,32,212,-16,-104,-143,-122,62,126,-315,-69,99,-123,-273,-56,-20,-290,-111,-387,-286,-201
105362,-486,-269,-510,-288,-104,104,-378,-62,-23,-159,78,-765,12,208,-17,-76,-167,-142,53,99,-344,-67,41,-140,-293,-60,2,-244,-110,-367,-295,-233
105363,-497,-293,-498,-273,-114,101,-414,-41,-21,-143,70,-732,10,206,-25,-124,-167,-134,72,94,-348,-114,75,-148,-275,-71,-74,-252,-87,-378,-311,-256
105364,-503,-313,-505,-303,-112,97,-416,-55,-43,-143,54,-750,0,199,-45,-202,-178,-180,22,90,-326,-149,30,-169,-293,-96,-131,-244,-92,-376,-333,-244
105365,-500,-311,-511,-292,-101,85,-408,-55,-26,-141,74,-758,2,202,-14,-315,-191,-156,37,77,-315,-120,56,-170,-307,-83,-72,-245,-103,-362,-285,-214
105366,-482,-320,-498,-274,-89,84,-436,-37,-15,-145,40,-738,16,209,-60,-284,-143,-108,34,67,-350,-89,85,-162,-319,-89,-82,-267,-99,-351,-280,-205
105367,-490,-331,-484,-278,-105,45,-454,-16,2,-162,-3,-778,29,191,-108,-228,-193,-132,18,43,-408,-113,-20,-181,-325,-118,-160,-202,-52,-335,-280,-169
105368,-493,-327,-469,-267,-103,67,-481,-25,14,-173,-7,-772,26,182,-91,-219,-135,-148,9,34,-388,-114,24,-184,-355,-109,-127,-184,-37,-301,-249,-161
105369,-480,-354,-471,-274,-105,55,-478,-37,-8,-193,-13,-765,15,179,-92,-207,-145,-150,-1,22,-413,-147,30,-189,-374,-146,-164,-191,-38,-310,-267,-227
105370,-492,-369,-476,-268,-116,36,-481,-37,-5,-182,-9,-769,-1,159,-120,-180,-174,-136,0,4,-408,-96,19,-179,-371,-139,-147,-202,-21,-309,-272,-226
105371,-517,-387,-494,-286,-123,12,-490,-41,-15,-173,-7,-746,14,155,-113,-184,-162,-141,-4,4,-371,-71,53,-165,-349,-118,-113,-203,-14,-303,-259,-221
105372,-501,-371,-485,-284,-111,41,-446,-26,1,-165,28,-743,8,167,-99,-150,-156,-125,-11,24,-354,-67,90,-160,-345,-113,-76,-214,0,-279,-247,-211
105373,-520,-360,-490,-283,-125,39,-447,-13,0,-185,6,-723,24,146,-111,-144,-175,-127,-6,13,-360,-92,94,-151,-335,-121,-55,-182,24,-261,-224,-180
105374,-540,-383,-482,-280,-120,18,-487,-19,1,-195,-7,-700,33,135,-112,-179,-162,-130,-1,-10,-388,-153,99,-149,-352,-161,-94,-240,8,-278,-257,-213
105375,-544,-390,-505,-258,-104,30,-489,-4,23,-196,-29,-722,48,136,-128,-220,-139,-121,-7,-9,-405,-110,39,-146,-348,-172,-133,-282,-34,-314,-249,-207
105376,-546,-389,-478,-244,-108,22,-496,18,29,-204,-56,-733,34,141,-133,-277,-133,-148,-18,-31,-427,-131,12,-171,-347,-175,-108,-246,-60,-339,-314,-255
105377,-542,-387,-457,-250,-119,28,-498,16,24,-212,-82,-712,36,142,-159,-284,-112,-148,-25,-47,-445,-158,70,-182,-370,-202,-158,-207,-36,-330,-333,-303
105378,-543,-400,-482,-244,-129,0,-509,28,24,-212,-76,-710,48,137,-171,-305,-104,-124,-7,-52,-477,-149,59,-177,-369,-228,-191,-210,-31,-346,-357,-309
105379,-545,-389,-493,-237,-103,0,-503,19,13,-197,-54,-727,50,148,-160,-291,-138,-138,4,-21,-462,-176,26,-186,-367,-213,-174,-150,-15,-347,-346,-306
105380,-554,-395,-483,-245,-116,-6,-538,6,7,-204,-66,-732,47,145,-147,-271,-172,-120,15,1,-433,-154,63,-164,-357,-186,-140,-174,14,-290,-278,-252
105381,-545,-401,-501,-252,-133,-7,-519,-15,11,-202,-59,-745,43,154,-161,-256,-160,-148,11,-10,-427,-174,9,-171,-365,-173,-119,-172,35,-249,-230,-197
105382,-547,-426,-507,-275,-128,-14,-528,5,5,-205,-66,-726,31,161,-145,-256,-95,-156,19,4,-418,-179,31,-171,-350,-157,-101,-135,46,-225,-187,-157
105383,-523,-409,-528,-298,-146,-12,-534,-9,8,-202,-52,-729,34,161,-137,-287,-105,-97,30,19,-418,-153,97,-132,-348,-173,-109,-131,41,-254,-238,-248
105384,-507,-404,-487,-290,-137,-1,-503,-2,9,-201,-60,-735,39,153,-145,-293,-113,-107,39,-17,-437,-144,115,-135,-341,-196,-160,-207,-27,-361,-332,-338
105385,-498,-383,-449,-258,-124,18,-469,22,20,-202,-36,-704,61,197,-120,-266,-57,-117,44,17,-424,-138,61,-139,-319,-186,-166,-179,-42,-392,-385,-317
105386,-530,-415,-471,-258,-131,21,-498,-19,9,-181,-35,-694,44,207,-108,-226,-53,-136,68,34,-401,-130,28,-131,-280,-129,-133,-180,-14,-349,-345,-278
105387,-549,-456,-514,-291,-145,2,-538,-37,-21,-204,-87,-725,48,184,-126,-238,-99,-121,57,11,-431,-192,92,-140,-288,-150,-134,-219,-50,-354,-338,-355
105388,-546,-421,-526,-303,-125,1,-518,-30,-3,-200,-60,-778,34,176,-128,-266,-164,-134,54,40,-443,-204,19,-139,-292,-164,-139,-267,-127,-443,-383,-317
105389,-508,-383,-503,-295,-127,30,-493,-31,3,-184,-32,-769,44,200,-114,-457,-172,-128,80,42,-425,-181,8,-122,-282,-151,-123,-255,-112,-427,-347,-299
105390,-530,-375,-512,-286,-127,33,-477,-41,3,-170,-25,-756,69,210,-88,-415,-140,-109,110,82,-381,-155,78,-79,-240,-122,-150,-149,20,-295,-254,-243
105391,-531,-353,-500,-273,-131,45,-463,-35,-2,-176,-5,-759,78,199,-80,-169,-136,-116,110,86,-374,-59,75,-77,-212,-81,-183,-137,76,-224,-202,-161
105392,-510,-342,-493,-260,-129,45,-473,-33,-1,-179,-17,-765,58,210,-93,-163,-165,-107,130,96,-372,21,69,-48,-176,-69,-121,-127,101,-203,-191,-141
105393,-474,-308,-472,-250,-109,53,-461,8,25,-157,3,-720,83,231,-65,-197,-119,-68,154,125,-367,-39,151,-4,-139,-56,-122,-144,95,-239,-226,-199
105394,-443,-271,-426,-205,-108,96,-412,40,40,-143,30,-702,135,250,-46,-167,-52,-45,185,141,-334,-9,122,33,-90,-20,-87,-136,83,-253,-203,-164
105395,-405,-251,-382,-214,-100,100,-380,67,39,-139,60,-660,158,263,-43,-176,-19,13,214,170,-321,37,167,62,-53,5,-106,-36,181,-149,-131,-88
105396,-383,-231,-382,-207,-106,105,-373,63,42,-131,59,-639,164,283,-26,-153,-8,37,234,187,-305,20,289,93,-13,49,-37,62,292,-45,-41,-39
105397,-431,-257,-447,-261,-125,95,-354,11,5,-151,61,-687,104,258,-36,-126,-32,-48,210,190,-301,0,257,57,-52,50,26,-1,251,-70,-51,-100
