,Fp1,Fp2,F7,F3,Fz,F4,F8,FC5,FC1,FC2,FC6,T7,C3,Cz,C4,T8,TP9,CP5,CP1,CP2,CP6,TP10,P7,P3,Pz,P4,P8,PO9,O1,Oz,O2,PO10
99153,-261,-182,206,11,-238,262,-415,-15,154,3,10,99,278,22,104,-100,-54,-179,112,48,-43,225,108,6,90,215,142,-283,25,-86,-48,93
99154,-241,-227,145,98,-240,211,-566,72,165,29,59,84,304,24,96,-163,-52,-162,129,52,-58,199,129,9,97,200,121,-221,54,-74,-55,49
99155,-260,-181,122,81,-247,302,-551,83,154,32,124,103,299,32,95,-91,-69,-175,110,32,-48,138,116,-16,65,176,73,-215,50,-85,-60,37
99156,-303,-130,135,109,-233,266,-470,55,171,-2,4,102,290,28,47,-38,-121,-165,110,3,-85,146,121,-13,44,169,36,-195,53,-86,-61,45
99157,-298,-108,169,108,-235,184,-496,-16,157,13,-44,48,277,28,63,-248,-131,-190,87,-3,-103,141,86,-27,29,143,15,-255,6,-108,-91,52
99158,-281,-113,182,57,-236,260,-418,-36,140,11,-32,65,275,15,62,-301,-125,-181,96,9,-97,170,80,-27,33,134,16,-229,22,-112,-73,73
99159,-326,-138,71,18,-241,170,-353,-86,146,-3,-54,117,273,22,66,-251,-154,-166,93,5,-85,159,94,-16,51,159,46,-187,58,-79,-55,74
99160,-379,-156,14,0,-254,-60,-402,-22,132,-10,-146,148,238,23,34,-337,-157,-210,91,1,-121,4,97,-36,38,139,2,-202,50,-107,-116,-42
99161,-407,-266,28,-14,-245,11,-445,-34,131,-12,-153,-23,235,10,22,-371,-149,-209,77,-9,-164,-28,80,-44,30,116,-80,-282,-15,-160,-135,-164
99162,-434,-257,28,-28,-264,187,-316,-29,115,-12,-64,-114,231,-12,9,-216,-157,-211,63,-31,-172,7,70,-32,25,74,-99,-239,-23,-138,-143,-135
99163,-298,-190,87,-5,-239,258,-211,-65,128,-4,-26,-17,228,4,41,-117,-204,-189,68,-34,-134,7,120,-21,21,99,-41,-126,64,-100,-117,-54
99164,-201,-106,199,49,-200,262,-159,-65,135,-9,0,50,245,5,60,-196,-130,-168,78,-10,-114,33,126,-9,32,111,-43,-155,75,-110,-154,-84
99165,-204,-65,239,40,-212,226,-185,-87,129,-4,-6,93,256,6,43,-177,-89,-141,89,3,-120,64,105,3,56,133,-33,-125,109,-73,-130,-124
99166,-216,-72,247,40,-203,160,-216,-83,154,33,-28,97,260,3,44,-91,-102,-134,104,-2,-115,121,111,15,68,125,-43,-213,78,-96,-127,-86
99167,-259,-84,209,28,-205,251,-188,-47,136,21,-4,51,248,9,59,-20,-97,-172,91,-17,-133,206,91,-21,59,97,-48,-325,-26,-150,-159,-25
99168,-179,-59,221,48,-205,297,-183,-43,133,28,-25,12,263,11,46,-57,-96,-181,83,-14,-108,182,121,-17,51,104,-42,-222,30,-106,-106,-8
99169,-136,37,146,31,-206,245,-218,-95,117,14,-5,2,216,-11,50,-144,-85,-234,72,-22,-113,110,149,-19,41,104,-73,-190,39,-121,-127,-66
99170,-121,55,123,53,-189,66,-273,-88,125,37,56,-30,218,-6,69,-139,-104,-227,63,-6,-121,41,123,-19,49,112,-29,-239,17,-116,-138,-60
99171,-164,-8,124,60,-230,-76,-323,-94,127,56,56,-4,230,0,56,-129,-124,-204,75,0,-140,88,116,-17,31,113,-26,-231,13,-127,-160,-83
99172,-271,-90,63,13,-251,205,-386,-116,111,37,-36,11,238,3,45,-165,-236,-195,79,-8,-141,96,91,-15,26,108,-32,-174,46,-92,-141,-83
99173,-362,-176,94,-6,-234,406,-394,-94,98,28,10,-10,233,1,67,-190,-257,-201,71,-8,-145,-4,-2,-31,26,111,-33,-283,1,-119,-173,-121
99174,-389,-198,94,-17,-216,427,-293,-110,112,40,69,33,236,11,94,-173,-170,-182,85,3,-141,29,-26,-4,48,130,-13,-305,1,-106,-112,-55
99175,-295,-192,27,22,-207,522,-276,-101,125,73,173,21,242,18,107,-176,-82,-184,87,1,-122,94,58,-14,62,136,34,-185,33,-101,-115,-45
99176,-211,-144,58,62,-187,502,-321,-70,134,81,272,75,256,17,129,-177,-87,-174,87,17,-80,82,102,-12,42,153,89,-192,30,-113,-142,-73
99177,-98,-40,109,69,-167,391,-219,-30,144,63,170,198,260,3,115,-157,-61,-166,78,17,-63,144,112,-9,42,137,20,-186,32,-112,-133,-66
99178,-13,83,129,94,-160,299,-143,1,157,40,-5,106,283,-9,72,-94,-123,-163,79,-16,-83,172,58,-34,42,108,-33,-194,37,-122,-146,-43
99179,-54,181,132,57,-160,372,-196,6,133,55,119,-30,251,3,82,-143,-173,-201,94,5,-93,71,53,-45,30,100,-5,-246,-11,-135,-170,-87
99180,-61,168,148,108,-150,386,-206,-31,156,60,153,-32,234,22,111,-117,-197,-231,94,10,-72,103,52,-57,44,133,31,-320,-27,-145,-135,-45
99181,-110,-2,138,121,-147,390,-262,-7,165,49,108,-1,235,5,91,-122,-157,-184,113,7,-63,125,69,-30,51,144,57,-277,3,-111,-88,15
99182,-108,-13,182,106,-166,249,-259,18,178,37,55,78,264,0,80,-121,-118,-134,109,16,-55,108,117,-1,63,146,72,-192,53,-47,-60,64
99183,-103,41,192,110,-179,293,-186,62,163,28,86,140,283,5,95,-169,-136,-150,82,7,-64,162,114,-14,54,145,65,-219,1,-95,-81,49
99184,-180,103,116,96,-176,369,-67,30,151,57,187,200,246,29,121,-115,-136,-193,88,16,-48,168,104,-24,56,164,106,-218,19,-86,-62,87
99185,-153,122,119,140,-155,349,-41,136,183,58,225,54,297,38,126,18,-129,-154,125,38,-24,144,143,5,78,182,155,-137,89,-12,-25,133
99186,-114,68,34,169,-175,355,-143,122,164,49,139,-96,277,13,92,-58,-175,-163,95,25,-76,127,94,-6,43,137,64,-180,26,-80,-99,-61
99187,-87,84,14,99,-192,329,-328,-39,150,58,128,-8,282,19,113,-146,-157,-158,87,21,-53,147,104,-11,40,148,74,-149,56,-49,-72,31
99188,-50,106,104,68,-191,423,-469,-153,132,44,135,77,270,20,131,-105,-147,-155,89,26,-23,114,118,-1,50,141,103,-128,82,-40,-60,55
99189,-82,88,105,169,-189,454,-337,42,137,49,81,61,280,41,120,-92,-185,-138,111,25,-36,69,115,-1,42,146,92,-187,32,-83,-92,5
99190,-54,124,152,192,-195,287,-283,42,165,72,42,80,317,45,136,-143,-58,-91,127,52,-45,-4,133,7,55,127,57,-207,60,-62,-103,-69
99191,-30,84,153,136,-202,247,-401,12,169,66,126,94,292,27,129,-161,-7,-131,107,32,-42,86,142,-24,40,105,4,-175,47,-63,-64,-26
99192,-36,60,132,87,-185,238,-319,-13,169,67,124,65,306,39,121,-66,-37,-149,106,12,1,158,134,-22,37,130,168,-159,20,-58,-28,16
99193,4,120,198,68,-181,144,-172,-16,175,30,109,82,319,27,104,-14,16,-103,106,8,-26,192,178,-1,40,130,10,-51,72,-31,-38,-22
99194,10,129,241,77,-182,247,-130,12,179,23,24,127,331,5,76,-44,113,-71,107,-10,-106,234,227,-13,15,73,-170,-79,56,-115,-145,-109
99195,-44,85,224,126,-164,334,-168,65,183,27,-9,145,320,11,64,-174,14,-112,84,-23,-122,191,217,-21,16,56,-110,-223,-1,-118,-137,-33
99196,-63,36,178,177,-173,402,-115,115,180,7,28,177,330,24,79,-262,-43,-117,84,-22,-111,204,176,-14,24,66,-115,-196,13,-108,-138,-71
99197,-91,42,146,158,-164,417,-67,263,178,16,52,187,342,23,87,-153,-83,-139,96,-7,-81,148,67,-24,27,84,-88,-84,58,-88,-122,-44
99198,-33,135,198,163,-154,398,-98,399,189,36,15,48,345,32,70,-63,-79,-119,117,2,-118,59,136,6,43,104,-93,-16,64,-95,-104,-45
99199,-25,130,154,121,-161,343,-142,221,166,17,0,67,319,32,61,-126,-15,-89,145,13,-136,163,201,31,56,108,-102,-42,68,-96,-121,-34
99200,-41,46,175,138,-189,309,-178,40,155,22,29,140,331,42,103,-152,-1,-86,142,34,-117,223,179,33,83,131,-85,-194,42,-89,-84,33
99201,-55,69,166,120,-202,356,-197,-42,140,54,105,187,344,43,138,-105,-8,-51,144,67,-84,203,205,56,108,169,-33,-218,69,-24,-47,64
99202,-84,139,118,78,-191,369,-136,-73,145,63,133,156,344,47,140,-51,-71,-32,162,68,-59,129,194,74,135,184,-32,-117,131,27,-7,76
99203,-121,165,175,48,-199,290,-61,1,151,39,164,133,337,53,151,-85,-26,-48,168,73,-59,164,234,84,151,199,-33,-62,144,44,8,57
99204,-95,117,241,17,-203,343,-82,45,140,60,397,140,325,47,167,-233,51,-78,170,79,-73,140,266,80,141,183,-41,-82,116,-21,-52,32
99205,-84,60,197,66,-210,379,-183,27,138,87,340,153,338,49,170,-308,2,-49,165,80,-93,98,259,99,140,171,-59,-13,107,-41,-89,-35
99206,-33,94,240,117,-193,406,-215,26,144,79,165,230,366,73,177,-137,-29,9,193,109,-46,123,306,128,167,189,-33,38,167,21,-39,-46
99207,17,75,228,93,-190,470,-396,-12,129,77,194,235,348,64,173,8,48,-5,169,95,-30,132,287,99,146,193,-15,-42,130,-10,-62,-4
99208,9,118,119,62,-189,410,-320,15,127,77,130,212,345,58,174,15,56,-21,167,84,-6,130,276,102,152,206,3,-146,89,-56,-82,4
99209,11,149,163,92,-184,366,-224,62,147,92,151,263,364,74,204,-48,39,-6,202,119,17,190,311,130,179,228,77,-40,138,-9,-30,95
99210,-22,122,126,90,-182,386,-191,3,146,75,198,308,363,71,218,-89,71,-38,203,119,49,297,330,152,204,243,104,11,196,57,16,129
99211,17,188,126,87,-162,369,-204,102,156,74,252,259,378,65,187,-8,182,6,216,130,29,289,313,157,218,252,80,-41,198,67,26,158
99212,11,260,221,95,-169,259,-159,202,169,89,193,102,396,92,210,69,181,59,233,159,35,329,354,186,247,283,120,63,247,123,41,140
99213,-32,208,235,83,-204,258,-89,139,155,70,45,74,388,78,192,22,120,26,211,131,30,285,348,173,241,290,99,38,217,68,-10,-104
99214,-22,140,240,37,-196,398,-107,90,156,76,40,147,368,70,200,49,79,-1,223,150,30,233,337,185,247,293,82,28,223,96,18,-33
99215,-15,187,242,73,-191,382,-39,57,138,52,52,198,358,67,195,37,96,-10,214,155,45,174,364,177,253,291,135,90,243,112,42,97
99216,-28,179,240,125,-196,288,42,6,150,38,65,215,344,73,185,28,70,0,228,148,61,79,373,172,247,298,176,126,261,114,76,121
99217,-58,83,219,126,-195,119,-81,10,131,47,61,207,351,82,173,12,36,4,233,146,41,211,353,185,238,302,168,135,262,135,71,81
99218,-82,66,174,97,-202,112,-85,25,118,21,80,169,329,66,156,-3,-50,-24,200,120,30,270,324,153,227,291,143,67,222,99,77,94
99219,-47,29,183,101,-182,307,-97,25,150,34,104,142,348,73,149,107,25,2,227,145,20,295,338,163,241,293,160,145,241,109,92,151
99220,-64,-3,176,96,-194,399,-180,49,141,58,128,136,364,82,137,42,96,-14,215,138,0,191,385,155,228,296,161,123,214,80,58,167
99221,-101,118,144,127,-188,467,-142,116,142,60,136,145,325,62,152,-65,100,-45,186,122,20,175,584,129,198,277,164,-220,92,13,11,108
99222,-106,148,157,143,-190,507,-94,6,143,75,197,149,342,67,180,-22,95,-32,205,122,50,259,270,123,211,281,143,-276,94,10,23,47
99223,-53,122,149,160,-180,409,-147,108,155,46,128,247,393,68,169,-50,109,-4,209,125,22,400,56,130,216,296,115,-52,152,36,17,30
99224,4,149,248,160,-169,354,-132,171,159,34,126,266,394,58,155,-8,75,-36,204,128,26,398,69,102,208,297,127,-56,136,53,19,77
99225,-5,146,227,96,-165,365,-83,71,169,56,158,166,369,78,168,2,180,-54,211,132,54,434,242,139,214,321,205,10,224,136,102,184
99226,-5,92,205,71,-192,404,-127,9,149,45,206,148,340,47,185,-8,129,-66,210,121,67,382,220,135,197,320,209,21,241,130,105,215
99227,4,7,184,71,-187,432,-150,71,142,46,311,106,347,50,180,-5,130,-33,186,121,70,332,235,140,173,310,199,43,264,138,120,212
99228,-49,-72,105,18,-197,484,-251,-29,138,68,319,108,329,55,189,-58,20,-33,170,124,86,339,255,142,182,309,196,63,245,135,86,222
99229,-81,-64,128,-24,-191,516,-350,-102,112,78,300,187,338,41,195,-9,10,-14,168,106,88,334,257,128,166,278,175,24,225,86,44,158
99230,-63,80,207,-7,-197,181,-317,-42,106,109,317,248,347,28,212,167,143,-11,182,113,116,412,273,138,167,286,232,4,252,115,126,258
99231,26,214,245,54,-201,29,-273,-12,120,118,274,231,339,46,206,175,97,-28,187,120,106,374,248,157,180,308,232,15,255,157,150,234
99232,12,163,236,92,-185,357,-210,78,126,102,240,245,361,54,204,90,74,-15,171,124,103,324,261,164,180,297,208,30,241,153,97,153
99233,-162,153,214,99,-163,481,-167,69,119,91,195,208,338,16,208,64,34,-47,141,95,81,321,238,98,138,268,171,-33,152,70,38,120
99234,-128,253,232,77,-147,386,53,43,125,85,362,175,338,21,234,29,3,-31,118,80,66,302,213,65,90,226,126,-64,122,-6,-4,88
99235,-45,279,225,69,-146,347,106,71,117,69,294,207,331,0,202,26,88,-63,100,66,62,304,243,58,62,195,122,-28,136,-2,-34,43
99236,6,287,272,77,-168,239,232,55,118,39,91,236,299,-15,194,36,158,-96,103,67,74,324,289,56,82,218,165,1,180,78,44,196
99237,-4,229,248,79,-137,517,119,71,134,86,233,215,310,15,211,95,162,-31,131,77,73,353,310,95,114,243,219,55,243,135,111,304
99238,-48,196,181,102,-140,555,12,178,129,79,166,293,339,26,196,199,96,11,141,100,94,403,312,130,115,259,273,83,294,170,149,401
99239,-29,276,187,105,-164,312,-52,133,109,62,140,300,320,-13,188,256,43,-18,105,71,53,354,252,89,75,203,193,1,204,31,-24,161
99240,39,300,217,100,-132,147,-19,128,116,90,133,159,334,1,213,140,41,13,116,79,69,281,290,101,83,200,155,8,208,18,-75,-34
99241,88,280,274,92,-121,309,45,149,152,66,174,229,348,33,236,77,99,34,159,96,147,353,290,123,114,253,227,95,270,73,10,131
99242,101,270,297,114,-116,467,91,97,153,100,275,269,339,46,274,110,114,28,141,122,182,395,281,118,110,277,282,73,237,47,9,107
99243,87,251,303,50,-120,527,61,89,151,110,349,239,327,37,257,145,127,4,148,126,154,379,350,151,117,270,262,185,314,122,81,246
99244,62,196,292,76,-150,519,-63,39,142,91,294,234,317,6,244,119,103,4,130,107,143,399,364,128,99,245,265,225,273,81,36,240
99245,9,196,194,109,-142,528,-106,-154,124,90,295,219,305,-4,230,155,48,-14,96,73,135,385,245,72,49,215,302,41,190,2,-37,145
99246,-18,203,170,99,-131,479,-84,-156,115,97,278,177,272,3,225,170,68,-61,86,75,141,301,211,37,38,223,299,-58,164,0,-20,190
99247,0,163,260,112,-133,403,-101,40,117,85,228,115,272,-13,230,119,9,-91,66,65,119,351,235,39,29,205,267,-85,141,-9,-9,251
99248,-6,176,161,108,-142,450,-78,10,108,89,228,84,261,-24,219,128,-71,-91,55,43,101,366,258,32,-2,181,237,15,161,-28,-4,208
99249,6,158,177,130,-129,510,-33,14,96,81,254,160,265,-43,204,136,-15,-93,56,25,86,294,269,25,4,180,181,70,179,-22,-18,168
99250,55,125,214,69,-120,501,60,74,107,70,248,253,264,-42,180,57,83,-124,44,13,58,283,226,-2,-25,145,188,-47,116,-64,-59,137
99251,33,170,219,39,-121,472,125,124,142,93,245,150,299,-18,190,74,70,-126,56,5,78,288,195,7,-20,145,177,-91,100,-79,-105,83
99252,12,166,252,60,-122,456,36,163,129,95,276,45,294,-45,179,57,28,-108,44,-5,78,310,169,-21,-33,161,160,-127,63,-78,-94,95
99253,27,156,177,82,-122,453,-35,121,122,71,290,112,289,-41,180,-65,28,-94,45,-12,54,299,203,1,-37,166,162,-52,70,-94,-101,106
99254,-60,148,99,136,-123,484,-94,151,137,75,251,115,309,-16,172,-20,66,-95,62,3,25,225,187,2,-35,139,149,-40,85,-91,-89,55
99255,-72,114,170,160,-113,590,-173,187,134,88,392,74,298,-27,167,65,-11,-95,46,-30,-18,162,148,-28,-46,102,109,-146,59,-116,-142,-6
99256,-81,150,166,144,-155,493,-174,165,143,75,268,116,292,-32,163,105,-57,-100,56,-23,18,210,164,-24,-44,129,148,-148,25,-128,-145,83
99257,-73,199,195,139,-123,474,-53,118,152,77,203,154,330,-20,196,126,52,-70,80,22,92,340,242,20,5,190,217,-67,88,-70,-74,110
99258,-36,194,185,106,-82,561,37,-62,134,115,414,121,292,-2,226,54,46,-113,76,54,103,341,246,42,45,217,227,-65,115,-17,-28,136
99259,33,141,218,-11,-121,552,-54,-144,101,100,362,117,292,-14,223,92,60,-91,80,63,101,362,234,45,54,200,126,-67,92,-37,-58,81
99260,14,105,209,27,-121,518,-172,-95,121,100,268,178,310,0,225,109,16,-63,100,63,79,276,236,54,65,193,122,-53,114,-56,-98,11
99261,-37,156,193,73,-103,473,-126,57,128,90,258,270,314,18,215,47,-23,-74,105,68,58,321,227,56,54,177,84,-77,98,-63,-118,-2
99262,-67,120,134,105,-118,449,-26,125,131,79,218,276,309,26,215,22,1,-107,107,81,74,306,255,56,73,182,80,-58,99,-53,-82,31
99263,-15,92,34,105,-132,414,33,81,141,72,212,71,342,12,215,81,-7,-60,118,68,92,309,247,58,73,193,112,-62,102,-63,-85,49
99264,3,106,147,102,-121,417,31,129,143,80,291,58,343,24,218,168,8,-53,140,72,97,314,243,65,79,211,185,-34,97,-63,-113,58
99265,6,202,173,121,-123,358,-40,141,132,105,381,147,352,23,226,146,3,-49,122,73,89,292,265,58,70,215,169,-6,102,-55,-89,25
99266,11,298,151,161,-125,232,56,72,158,87,293,199,360,32,226,163,14,-27,131,74,101,276,294,66,77,209,145,21,132,-31,-44,94
99267,-45,341,245,101,-140,225,103,-45,146,89,123,168,354,18,217,179,5,-27,139,80,123,270,323,77,82,202,186,60,173,16,-18,215
99268,-10,339,290,48,-122,318,-29,-47,150,81,251,204,363,35,206,134,56,-19,142,73,93,372,348,66,81,194,149,51,159,-10,-25,200
99269,92,335,327,148,-126,338,-5,28,164,66,322,248,377,34,202,238,154,25,138,73,116,408,409,79,86,205,206,114,161,8,0,275
99270,88,259,284,127,-136,512,-42,68,151,94,275,301,381,25,191,298,153,38,118,58,96,335,402,77,69,208,197,63,128,-30,-56,186
99271,62,214,224,73,-145,449,-33,88,142,94,278,272,367,4,197,134,73,-4,103,45,59,284,267,42,42,178,153,62,116,-43,-66,96
99272,82,184,249,65,-154,488,22,81,164,91,265,280,363,6,204,92,15,-38,89,52,66,318,239,39,29,182,145,-13,103,-44,-83,16
99273,84,191,293,77,-128,483,182,85,152,58,286,257,350,-6,184,133,29,-31,89,42,63,267,327,50,27,173,131,49,134,-30,-73,-71
99274,54,222,307,65,-154,435,165,99,142,51,246,270,357,-12,177,137,101,8,100,45,32,298,373,60,43,193,162,128,176,24,-26,97
99275,96,236,296,77,-143,467,88,80,138,66,255,296,356,18,177,117,167,21,97,53,72,340,376,60,50,217,187,104,180,52,-2,163
99276,114,284,275,98,-140,478,139,141,139,69,309,262,363,14,195,74,110,20,108,59,95,267,318,43,47,209,202,54,153,26,2,165
99277,110,255,232,121,-164,485,70,213,141,68,270,225,358,23,207,118,73,-4,119,67,94,351,330,58,59,210,225,32,153,34,24,198
99278,96,183,315,128,-142,441,-62,199,127,63,314,203,341,25,200,181,77,-62,112,56,84,420,352,48,62,203,234,63,138,50,27,204
99279,76,200,302,78,-166,421,-133,112,105,68,375,224,345,-3,184,127,85,-29,118,49,56,322,345,80,65,201,192,88,164,31,-6,168
99280,54,296,283,54,-151,399,-67,10,115,79,379,276,348,24,216,117,151,12,136,87,78,357,379,98,93,240,218,120,225,73,21,156
99281,59,257,371,94,-124,530,-42,36,146,108,374,307,344,44,237,112,106,9,145,84,108,373,373,88,105,246,219,84,172,26,13,114
99282,55,185,359,97,-137,512,101,50,135,70,283,313,342,17,224,199,96,-16,120,55,118,415,321,46,69,233,214,-3,101,-18,-4,193
99283,84,209,229,65,-165,467,60,103,127,39,238,337,345,6,208,173,134,-37,91,40,92,348,308,33,40,214,178,-34,76,-40,-47,70
99284,136,217,215,88,-155,477,-40,209,159,67,250,342,367,16,200,14,186,-44,114,54,76,288,357,57,70,228,178,22,111,-2,-17,98
99285,162,268,296,204,-153,433,67,321,182,81,288,287,431,29,191,9,258,57,167,58,50,451,437,111,86,223,228,83,159,45,59,233
99286,129,279,301,222,-149,484,32,196,166,62,351,274,410,43,207,135,218,42,162,60,71,476,439,113,93,239,235,72,203,75,74,235
99287,116,298,350,210,-144,381,14,75,150,65,379,322,400,42,219,173,180,39,163,70,157,454,379,129,118,260,310,149,252,116,113,329
99288,148,335,412,167,-145,279,-10,110,144,70,450,417,399,33,206,146,207,65,166,61,108,521,414,131,117,266,305,177,258,135,124,341
99289,68,326,403,148,-133,511,43,156,143,84,475,445,394,23,236,165,178,45,166,75,125,487,402,122,107,271,294,162,257,141,108,293
99290,-37,329,329,85,-166,469,111,161,139,48,164,310,397,6,191,103,123,44,133,62,135,405,358,101,89,256,300,85,187,103,108,265
99291,-45,277,302,45,-187,464,53,145,136,47,173,189,398,4,205,56,110,59,145,77,134,351,372,138,102,262,292,143,269,178,189,365
99292,17,289,355,72,-155,446,60,161,162,62,235,262,407,31,210,71,195,82,166,88,141,362,482,144,122,282,323,244,310,218,202,436
99293,72,298,324,81,-157,418,2,204,179,63,207,279,428,25,177,118,158,96,154,41,90,363,707,106,83,207,267,101,219,63,36,294
99294,143,251,273,92,-171,447,-46,236,129,52,213,251,405,15,166,182,112,8,124,26,68,385,271,45,47,174,228,20,153,0,-36,187
99295,195,208,253,154,-153,538,56,186,116,90,241,243,362,36,197,227,146,-20,112,54,84,412,81,43,50,194,218,-73,105,-2,-29,81
99296,143,207,294,78,-155,494,81,167,117,72,214,241,327,11,183,192,179,-43,104,34,62,306,148,32,27,163,153,34,138,-9,-80,-29
99297,188,244,314,84,-129,532,103,128,132,91,273,291,337,22,212,220,124,-21,123,52,90,352,247,46,33,188,186,96,166,28,-33,89
99298,240,254,399,100,-102,509,171,24,128,105,402,292,357,46,228,213,136,11,122,74,105,420,245,74,50,211,223,29,150,20,-28,94
99299,222,313,363,106,-107,363,153,55,131,86,357,259,366,45,242,191,117,29,128,81,112,395,225,68,72,203,227,-33,129,31,5,151
99300,134,295,291,167,-125,323,48,216,134,88,389,240,332,7,234,173,75,-35,117,58,91,318,230,42,30,191,214,26,124,25,6,157
99301,169,304,353,141,-149,291,1,228,133,90,382,215,337,19,216,124,94,-31,104,44,83,370,272,65,34,207,205,137,198,41,0,150
99302,197,295,425,115,-145,358,14,166,140,93,332,333,354,14,216,250,149,5,133,68,124,457,320,103,68,249,274,218,289,138,72,220
