,Fp1,Fp2,F7,F3,Fz,F4,F8,FC5,FC1,FC2,FC6,T7,C3,Cz,C4,T8,TP9,CP5,CP1,CP2,CP6,TP10,P7,P3,Pz,P4,P8,PO9,O1,Oz,O2,PO10
68701,9,111,228,-148,-37,482,15,179,39,35,390,-48,501,247,225,454,-97,65,173,240,338,360,205,249,246,400,364,9,48,-67,48,-10
68702,-69,90,199,-214,-51,397,-74,82,-45,-55,339,-109,415,167,155,448,-153,-30,80,146,264,242,103,168,148,289,253,-55,-17,-165,-64,-102
68703,-122,70,102,-279,-8,370,-57,88,-82,-95,228,-143,366,126,86,372,-166,-66,32,101,222,247,82,122,93,221,220,-83,-66,-203,-87,-199
68704,-161,22,43,-316,-27,292,-121,64,-125,-167,113,-193,326,71,7,135,-174,-94,-15,33,117,175,92,96,35,151,175,-99,-76,-224,-137,-249
68705,-145,50,69,-288,-39,330,-101,86,-110,-143,88,-230,344,73,7,57,-100,-68,19,32,113,210,121,117,43,169,215,-110,-67,-218,-137,-171
68706,-71,109,147,-227,-46,348,-76,170,-67,-125,135,-136,403,100,28,151,-79,9,42,44,143,268,170,162,74,180,269,-171,-75,-184,-70,-92
68707,29,141,213,-134,-31,416,30,282,19,-49,243,6,485,186,99,287,-24,130,134,101,219,171,312,265,153,289,365,31,76,-44,73,50
68708,34,125,216,-88,-43,467,111,344,71,5,294,123,543,229,167,393,49,180,182,169,272,150,350,296,206,333,458,75,108,-9,124,84
68709,73,174,332,-34,-60,491,159,438,114,24,281,235,584,247,150,399,52,219,189,155,273,241,373,311,193,288,390,70,86,-65,-20,-230
68710,125,173,388,16,-38,494,115,438,127,33,234,260,610,264,136,277,87,249,210,157,225,335,428,344,220,304,378,210,193,41,107,-3
68711,87,32,330,-37,-30,422,26,368,74,-24,146,171,574,216,71,90,68,201,177,97,112,253,422,316,184,220,202,261,187,35,115,55
68712,-23,-23,219,-132,-46,333,-77,281,-19,-105,86,33,481,126,7,24,21,154,99,25,49,193,382,255,106,160,130,284,159,10,94,18
68713,-85,-15,194,-212,-50,271,-105,208,-98,-175,54,-33,412,40,-58,32,-52,57,19,-37,-5,176,180,142,13,110,130,-131,-31,-125,4,-63
68714,-86,13,187,-245,-41,237,-108,181,-132,-214,25,-93,354,26,-83,62,-135,5,-2,-42,-7,186,118,105,-9,106,162,-275,-118,-159,36,-14
68715,-44,42,213,-217,-44,262,-78,226,-102,-198,20,3,401,56,-83,134,-37,88,49,4,28,247,248,179,56,166,232,-62,-22,-67,84,19
68716,13,80,288,-150,-38,343,16,289,-41,-136,132,146,477,121,15,212,15,176,130,88,125,245,365,261,137,267,298,28,7,-75,33,-77
68717,53,128,368,-93,-42,372,25,373,38,-70,197,265,580,203,70,343,-5,257,221,184,216,360,487,358,221,372,374,-7,31,-24,66,-11
68718,55,181,428,-34,-47,395,12,452,101,-19,276,351,647,261,145,376,130,352,272,251,292,404,621,445,310,458,473,26,154,98,216,41
68719,103,216,444,-12,-46,474,77,468,120,18,329,300,661,285,198,366,236,359,294,317,347,425,495,447,354,531,535,275,257,147,276,56
68720,117,155,432,-26,-47,518,164,441,109,69,414,250,637,296,224,344,226,303,297,338,390,402,358,394,350,555,533,236,228,156,298,109
68721,120,144,367,-48,-35,491,117,428,74,19,390,280,632,278,202,391,198,310,288,311,372,400,457,416,369,555,540,221,241,155,290,100
68722,63,136,309,-127,-35,403,74,355,3,-52,237,214,573,199,119,374,118,284,236,273,320,332,419,384,340,524,521,176,206,124,264,93
68723,35,100,289,-183,-13,336,73,264,-57,-114,143,105,497,132,55,280,-3,178,166,211,279,235,304,307,262,472,455,93,100,28,176,18
68724,0,98,258,-229,-22,299,4,218,-91,-146,126,17,452,101,31,237,-100,111,117,179,248,201,210,247,216,431,427,-13,41,-47,152,-21
68725,42,169,324,-207,-30,312,15,210,-78,-133,147,38,475,127,46,277,-23,115,131,185,265,255,230,269,221,445,436,0,48,-49,164,9
68726,89,220,375,-141,-43,343,-5,266,-38,-122,151,98,514,155,97,309,47,161,169,188,278,254,308,300,244,447,426,73,99,-4,168,39
68727,157,224,427,-57,-23,398,57,376,50,-38,195,189,610,226,178,527,71,253,255,292,405,338,391,388,319,562,661,132,201,137,324,227
68728,175,280,467,-11,-39,460,149,419,96,22,361,221,662,288,245,580,44,301,301,376,532,377,400,434,388,703,926,126,220,209,434,291
68729,192,318,490,9,-53,478,196,448,102,37,331,295,667,307,270,540,46,342,309,400,541,364,432,461,411,689,882,148,221,161,368,149
68730,258,337,457,-1,-41,462,120,415,100,45,307,312,666,293,267,519,57,351,297,367,498,336,440,430,390,595,660,134,195,114,291,151
68731,240,247,389,-71,-50,449,-8,377,48,3,287,251,601,244,219,503,43,272,238,280,403,284,332,350,309,524,475,52,130,44,267,154
68732,153,164,318,-122,-45,421,-135,341,-23,-54,197,169,533,162,133,350,-45,201,154,181,275,205,231,243,186,384,320,-91,-23,-144,23,-138
68733,74,78,249,-190,-21,350,-162,242,-91,-142,219,52,468,91,89,299,-183,98,85,142,233,306,134,162,113,324,347,-169,-129,-211,-30,-90
68734,63,-21,190,-238,-23,336,-127,163,-138,-171,193,-102,391,27,41,200,-192,34,27,78,204,315,89,124,58,258,355,-182,-192,-255,-68,-122
68735,128,35,260,-212,-38,368,15,178,-114,-151,159,-62,381,36,30,167,-209,63,29,91,180,289,130,112,49,266,358,-260,-166,-223,-61,-169
68736,123,155,303,-130,-36,391,87,234,-59,-118,172,29,456,86,98,190,-171,113,97,151,203,265,195,182,124,301,310,-166,-57,-133,18,-118
68737,143,260,307,-65,-22,419,155,254,-11,-55,230,78,502,160,150,311,-116,167,136,197,289,379,187,270,192,381,362,-56,49,-48,131,69
68738,241,349,363,-9,-28,473,226,328,41,5,280,106,563,233,202,463,4,223,221,250,355,460,257,322,264,457,460,-28,83,1,188,100
68739,258,364,395,14,-27,505,245,412,94,41,302,177,615,260,246,634,85,283,271,313,449,434,324,380,333,505,547,57,165,77,271,204
68740,225,395,395,4,-31,500,282,407,94,31,447,162,607,238,269,581,88,277,251,318,472,496,342,395,309,505,569,99,200,140,301,225
68741,177,318,335,-50,-54,449,205,337,28,-22,358,122,557,192,195,399,36,237,214,260,432,526,302,334,263,487,553,15,155,74,296,262
68742,120,167,264,-123,-42,402,-15,244,-36,-90,218,37,492,131,105,247,-47,165,139,179,304,343,229,253,187,385,441,-57,68,-47,155,61
68743,65,82,160,-184,-32,351,-153,163,-100,-129,198,-9,444,74,48,245,-118,119,87,121,231,254,206,204,137,340,426,-106,35,-53,113,86
68744,28,-10,97,-232,-29,302,-195,122,-134,-173,136,-27,412,46,7,281,-225,80,42,75,245,125,166,183,70,282,412,-161,-27,-94,56,-2
68745,51,39,135,-215,-32,344,-86,186,-92,-148,149,34,463,69,50,327,-157,148,81,107,275,4,247,210,108,294,411,-52,19,-66,40,-110
68746,83,131,200,-168,-41,386,37,210,-54,-117,159,79,506,106,74,369,-31,201,122,125,295,85,339,261,144,311,346,32,81,-83,-19,-170
68747,149,196,268,-123,-39,411,94,262,-6,-64,147,120,563,147,109,341,22,244,165,149,315,285,375,310,191,346,343,43,144,-14,58,-134
68748,172,217,332,-69,-39,470,111,350,35,-9,183,128,602,180,160,330,65,300,214,173,307,343,391,359,230,374,385,59,182,44,151,31
68749,207,231,356,-36,-50,485,100,370,67,-3,215,137,605,224,173,354,29,306,253,212,323,323,367,375,258,388,379,98,188,23,144,15
68750,203,241,320,-39,-59,475,92,351,68,10,200,148,605,209,165,344,-101,289,225,220,328,275,363,374,248,389,381,53,159,13,142,31
68751,157,188,232,-77,-40,466,-3,290,12,-44,167,116,553,159,137,283,-164,220,180,178,276,276,327,319,207,362,392,-28,111,-21,124,60
68752,54,99,168,-155,-42,394,-127,215,-66,-115,102,39,474,81,69,164,-148,147,106,109,185,217,269,247,135,285,319,-169,-10,-137,41,-85
68753,0,16,118,-221,-50,324,-161,123,-148,-193,19,-34,385,7,-39,131,-209,90,18,28,90,55,235,169,52,206,228,-268,-120,-222,-56,-214
68754,-10,11,55,-248,-22,322,-169,88,-172,-220,31,-88,331,-43,-64,83,-265,27,-40,-35,50,116,109,96,12,180,195,-260,-181,-303,-111,-290
68755,63,107,81,-211,-18,343,-144,139,-137,-191,31,-28,364,-13,-10,21,-228,54,-15,-14,68,144,101,116,34,210,225,-221,-156,-287,-71,-247
68756,104,154,135,-153,-59,358,-155,186,-94,-159,-8,19,423,30,6,55,-119,102,17,37,95,12,199,181,71,241,255,-60,-59,-199,-4,-188
68757,158,170,191,-102,-52,393,-105,231,-38,-116,90,47,487,83,56,117,-35,157,95,116,162,156,289,258,145,327,382,72,60,-79,103,-47
68758,212,232,262,-44,-28,443,-35,301,26,-71,172,91,568,160,85,110,0,241,175,177,231,305,393,320,204,416,504,106,93,-19,157,-42
68759,245,254,316,16,-43,469,-1,387,79,-16,214,186,654,203,123,175,77,338,228,224,276,280,484,387,272,451,560,131,158,7,198,-38
68760,264,206,321,15,-42,480,40,366,77,-21,221,186,655,184,123,209,54,342,228,222,251,186,426,396,257,417,463,156,169,1,194,-7
68761,199,162,313,-25,-32,419,19,330,24,-98,102,160,609,148,36,159,9,307,182,171,192,185,421,366,216,378,432,161,157,-28,188,15
68762,89,151,226,-75,-26,355,-60,281,-18,-152,52,105,557,93,5,139,-73,275,149,117,177,132,429,345,182,338,425,37,80,-93,173,-58
68763,37,140,157,-155,-39,278,-185,211,-95,-217,8,-28,459,20,-23,193,-138,135,54,69,151,7,253,232,112,287,407,-90,-39,-172,91,-50
68764,14,60,139,-177,-40,249,-211,186,-116,-254,12,-32,447,-2,-15,223,-139,128,46,69,158,55,252,206,91,283,373,7,9,-171,38,24
68765,67,101,183,-138,-40,278,-150,250,-87,-206,62,83,506,29,23,171,-124,193,95,95,182,98,300,256,144,289,289,-83,25,-132,68,-4
68766,151,168,234,-89,-32,313,-159,311,-34,-151,96,188,570,107,40,160,5,252,161,146,211,65,401,329,179,332,291,-107,30,-128,10,-219
68767,209,240,322,-76,-34,366,-119,345,9,-96,178,146,607,158,116,289,118,301,204,198,319,305,462,388,248,419,471,-51,74,-117,13,-70
68768,233,255,411,-12,-49,453,-58,398,48,-45,266,88,611,188,180,367,198,287,221,233,350,314,415,380,255,427,473,92,104,-81,33,-69
68769,264,280,444,29,-43,489,-8,465,93,0,301,218,624,201,212,467,266,312,221,261,392,334,466,419,283,426,477,184,188,-6,138,18
68770,272,300,462,23,-49,494,48,432,49,-8,307,231,610,197,199,510,222,329,212,256,387,395,535,417,280,448,472,198,204,19,144,0
68771,239,286,395,-22,-48,460,23,383,4,-69,270,184,578,173,172,477,122,319,179,217,339,357,598,405,237,417,393,195,208,28,141,-49
68772,179,248,325,-112,-50,374,-22,356,-35,-114,229,165,535,114,126,419,77,296,132,163,300,242,593,387,182,346,367,124,184,4,130,-41
68773,102,171,267,-170,-37,335,-67,307,-89,-155,215,98,490,63,87,389,-18,217,107,151,290,98,411,318,145,340,384,120,142,-1,130,-21
68774,55,126,254,-197,-20,292,-34,280,-106,-178,148,49,489,55,51,233,49,186,112,145,248,225,321,310,148,348,397,97,145,24,146,13
68775,106,182,307,-157,-16,310,43,319,-60,-136,167,133,538,101,84,254,122,249,165,173,306,348,379,346,193,405,468,103,191,63,195,81
68776,116,153,349,-106,-16,357,106,408,-11,-108,240,248,608,150,126,337,222,329,207,224,375,391,482,408,229,431,570,189,264,130,313,160
68777,168,241,402,-51,-20,423,225,484,50,-53,330,356,677,194,169,383,347,405,260,275,433,385,566,480,300,494,647,257,326,182,368,173
68778,201,317,466,-3,-45,450,228,544,91,-32,317,379,723,244,190,403,340,437,300,295,425,470,591,541,312,509,589,235,308,148,261,66
68779,214,259,477,14,-45,446,167,573,119,-5,342,403,761,280,222,438,283,472,354,332,452,476,644,547,352,528,612,313,331,209,357,223
68780,225,231,460,21,-31,474,99,606,133,9,390,423,759,286,236,494,326,477,362,332,475,391,675,523,370,547,659,370,382,247,392,342
68781,158,204,423,-24,-42,414,102,567,79,-62,313,388,713,232,180,415,250,409,290,272,420,394,596,463,302,515,676,275,332,198,363,268
68782,96,175,385,-65,-37,339,77,511,48,-114,204,407,670,179,147,363,178,352,220,227,377,437,523,420,254,470,694,185,262,156,345,205
68783,31,166,304,-99,-27,259,0,481,8,-149,147,386,609,111,98,309,149,317,170,169,291,325,467,370,211,391,601,94,167,48,211,99
68784,25,131,312,-118,-24,250,-27,472,-28,-208,145,301,585,85,43,295,126,291,141,119,220,151,412,331,141,314,376,57,105,-67,20,-215
68785,74,126,337,-102,-17,286,10,458,-16,-168,200,251,605,123,78,339,183,323,156,164,266,189,436,363,190,367,439,104,157,25,165,-41
68786,75,146,354,-97,-42,329,79,500,-2,-143,221,346,620,149,94,339,252,344,200,188,301,246,496,382,215,398,442,154,187,74,218,75
68787,53,190,427,-67,-43,359,129,570,45,-86,243,411,656,187,127,391,317,396,228,257,340,420,544,425,284,457,506,204,232,127,275,143
68788,125,252,483,-6,-45,405,142,605,93,-50,298,429,698,223,184,385,320,430,251,288,390,552,567,447,304,498,586,193,258,122,304,208
68789,220,324,497,47,-40,424,202,657,132,-12,325,438,725,261,227,389,326,441,299,312,430,550,589,465,328,532,625,212,271,150,356,270
68790,247,295,518,45,-28,431,170,664,135,-10,332,462,724,267,219,398,361,457,293,301,409,485,594,447,299,506,609,215,261,136,317,211
68791,214,267,471,-32,-63,372,24,591,82,-68,284,390,662,202,138,323,291,400,220,230,328,253,532,380,215,415,530,137,177,36,196,22
68792,146,205,433,-59,-41,364,-40,533,39,-109,300,390,607,146,109,388,144,327,181,191,290,186,453,325,188,400,479,93,124,29,214,66
68793,85,144,379,-126,-48,302,-105,493,-52,-166,218,320,537,88,70,486,53,263,101,113,260,284,342,244,100,325,418,-35,36,-36,159,83
68794,89,157,407,-142,-29,311,-10,507,-62,-184,157,269,519,73,51,507,43,256,93,110,266,316,345,265,102,312,457,-43,34,-70,134,108
68795,114,168,425,-129,-27,309,-8,545,-29,-138,232,327,563,88,90,338,89,296,138,157,290,388,382,327,159,377,548,33,122,-15,193,202
68796,127,203,443,-84,-34,325,6,619,-5,-122,207,400,618,95,106,247,165,345,165,174,295,307,440,357,206,414,545,88,177,51,276,173
68797,121,226,507,-48,-40,367,79,643,36,-75,255,456,663,153,147,283,185,404,234,238,356,310,497,421,271,484,627,105,215,127,402,281
68798,153,239,555,15,-26,432,122,700,90,-30,301,481,720,193,180,345,283,454,286,268,403,443,571,486,301,510,651,210,247,144,367,357
68799,182,270,568,45,-30,479,132,733,122,1,331,459,739,216,204,420,284,464,325,307,398,429,583,505,302,495,589,148,204,72,230,57
68800,186,229,552,14,-45,477,101,670,80,-19,310,398,707,215,182,414,199,438,294,293,389,467,581,465,286,521,645,118,202,62,217,83
68801,182,147,529,-7,-44,448,54,580,64,-37,255,358,676,191,139,341,222,399,235,260,356,372,548,424,259,458,550,92,161,44,227,46
68802,108,149,445,-67,-61,377,-43,509,4,-100,175,283,592,124,62,264,197,323,156,187,273,283,464,329,173,378,461,91,107,-44,129,64
68803,40,100,381,-104,-30,301,-80,532,-24,-160,147,251,535,76,8,225,100,272,105,125,227,162,410,265,114,330,446,74,54,-100,57,118
68804,64,51,395,-110,-18,267,-55,516,-47,-181,161,197,529,39,-8,233,49,233,80,106,199,130,386,235,75,291,415,23,18,-131,23,-83
68805,123,105,418,-84,-28,323,8,521,-20,-159,192,178,556,58,37,274,67,268,94,110,227,206,391,254,79,307,379,-14,23,-100,61,49
68806,184,148,482,-23,-50,359,58,574,10,-131,226,285,594,82,61,327,58,339,132,129,258,265,431,296,120,347,390,43,99,-73,64,5
68807,238,122,527,17,-46,363,25,604,51,-128,217,356,627,90,40,356,117,358,151,112,228,312,461,316,133,316,369,117,143,-57,72,-30
68808,295,71,561,66,-8,398,46,616,88,-64,265,411,673,151,109,504,196,401,186,158,295,412,514,382,177,370,449,161,200,36,180,132
68809,262,81,544,57,-45,459,66,582,77,-51,327,398,636,158,135,571,137,385,202,186,352,391,512,380,178,392,513,120,189,57,184,110
68810,248,194,522,34,-50,440,11,575,52,-57,251,346,608,133,122,373,112,361,163,184,358,372,503,361,155,378,541,40,148,-13,124,-71
68811,226,262,495,36,-41,389,-20,560,30,-83,206,279,578,105,70,302,-10,296,103,145,306,368,390,310,128,337,523,-24,90,-48,117,38
68812,168,175,437,-52,-39,371,-147,497,-22,-112,233,170,509,58,14,271,-25,194,71,93,254,355,323,263,112,303,482,66,105,-12,138,115
68813,112,54,376,-106,-24,302,-242,395,-85,-157,126,51,452,7,-22,270,-52,139,34,55,211,309,300,221,77,264,411,26,80,-22,103,28
68814,115,85,324,-122,-37,286,-154,360,-99,-184,137,45,433,7,-15,255,-6,153,22,67,234,203,330,218,91,291,387,43,119,12,165,123
68815,152,160,342,-96,-28,320,-53,374,-83,-145,181,83,443,54,26,305,0,156,54,84,253,66,349,246,104,302,335,98,129,10,98,-19
68816,178,168,389,-72,-27,359,-16,384,-50,-124,197,129,469,58,65,309,-41,176,79,115,271,186,353,254,120,306,323,39,126,-8,52,-110
68817,226,188,449,-49,-39,389,68,457,-18,-89,247,201,515,112,101,295,43,225,118,152,276,269,409,287,153,317,332,66,143,-11,20,-200
68818,243,273,472,0,-32,436,108,482,34,-50,259,231,570,169,132,332,145,267,164,191,314,342,446,342,219,373,401,108,201,37,100,-187
68819,258,300,451,7,-36,442,127,481,47,-21,270,199,576,184,145,366,82,268,191,221,365,494,451,368,263,436,513,124,242,108,180,-15
68820,259,314,443,-4,-52,453,141,489,52,-27,277,226,600,204,172,412,39,288,217,251,402,459,512,402,294,492,590,181,262,183,297,165
68821,217,274,405,1,-33,446,99,492,58,-51,198,207,604,207,162,356,21,278,224,243,392,378,510,408,295,512,570,69,218,206,364,256
68822,172,190,306,-57,-21,367,-4,430,-4,-96,136,121,557,132,90,262,-26,218,161,181,304,382,427,318,233,437,507,-3,169,161,359,349
68823,119,116,234,-123,-21,312,-89,356,-62,-167,85,41,484,63,28,210,-65,122,81,94,214,286,309,223,137,343,391,-25,73,-6,106,158
68824,89,64,218,-137,-37,291,-142,335,-85,-190,55,24,449,51,-27,186,-24,102,63,66,171,158,280,218,108,318,378,0,78,-40,71,-1
68825,99,104,204,-112,-27,320,-136,361,-60,-157,120,28,478,74,22,290,-28,132,81,123,237,188,275,280,161,373,499,40,172,84,256,248
68826,117,210,225,-64,-20,355,-60,403,-16,-121,165,103,517,112,61,348,24,184,122,173,286,62,359,314,209,408,482,49,187,104,244,80
68827,171,222,319,-37,-54,362,-58,437,-10,-106,169,171,547,129,55,344,78,212,127,164,262,157,402,321,193,372,370,80,157,17,101,-236
68828,244,273,386,-4,-58,423,-59,467,1,-85,238,237,573,142,101,305,104,241,144,187,277,237,431,359,207,387,422,105,176,53,180,-27
68829,364,394,479,56,-35,490,4,553,28,-63,256,224,596,145,115,300,179,291,171,191,304,338,476,361,228,417,511,136,210,118,303,176
68830,499,502,546,75,-27,486,75,576,38,-64,249,222,590,128,112,286,134,267,145,164,288,352,432,316,166,379,489,81,143,41,211,63
68831,542,524,531,29,-34,456,73,487,-2,-101,237,206,545,109,79,234,36,216,117,150,260,343,411,294,162,382,483,67,147,57,236,167
68832,493,466,370,-18,-51,400,-4,446,-52,-146,183,128,488,49,60,245,-13,177,79,109,243,306,409,274,125,362,477,-45,113,80,299,261
68833,419,423,309,-79,-47,350,-73,400,-118,-216,147,139,459,-9,-3,220,5,166,29,65,176,198,471,259,83,316,400,38,90,-22,165,88
68834,403,460,355,-88,-39,326,-60,399,-136,-228,127,113,456,-9,-47,189,0,164,0,51,164,91,447,232,60,291,449,152,89,-30,123,132
68835,434,517,396,-27,-29,372,32,416,-115,-210,146,140,448,-5,-25,212,-14,138,-15,43,199,67,369,189,44,291,608,-60,28,-81,69,110
68836,527,541,454,5,-38,415,56,466,-86,-204,169,187,466,-3,2,264,-8,166,10,39,224,210,363,191,43,293,666,-16,10,-137,-2,-172
68837,665,651,565,45,-41,450,77,530,-50,-150,228,270,500,24,13,284,-94,208,21,40,186,151,336,179,25,254,451,-43,-26,-197,-52,-306
68838,751,732,623,87,-16,488,144,558,-19,-114,265,317,530,50,62,313,-133,230,26,64,226,305,281,200,42,284,400,-85,-4,-129,98,68
68839,741,744,644,100,-42,489,117,607,-16,-112,262,349,541,43,63,265,-67,220,15,67,252,388,240,189,36,270,377,-54,-30,-143,56,117
68840,793,727,692,129,-36,530,138,629,-9,-113,281,325,541,51,83,328,37,243,46,54,253,368,324,227,52,263,373,11,-6,-137,33,70
68841,764,703,664,79,-56,504,161,579,-29,-121,267,230,507,29,40,314,63,200,3,39,232,380,326,194,29,255,370,13,-13,-167,36,91
68842,676,646,586,21,-49,441,138,542,-85,-166,227,213,475,-7,9,288,27,165,-14,40,237,359,290,167,9,263,478,-42,-36,-116,147,358
68843,621,637,511,-20,-23,403,63,486,-128,-214,149,166,425,-62,-35,266,-42,110,-51,-9,163,298,254,134,-30,199,376,-91,-80,-186,13,209
68844,569,638,449,-81,-40,338,-95,414,-170,-263,67,104,381,-122,-106,238,-92,18,-109,-104,50,180,151,21,-145,33,150,-196,-225,-389,-261,-287
68845,592,615,442,-48,-34,355,-110,412,-115,-240,82,101,407,-89,-95,235,-126,10,-114,-116,34,105,117,8,-153,4,89,-257,-274,-428,-320,-470
68846,609,551,439,-17,-20,435,-70,458,-63,-171,72,103,465,-26,-37,184,-141,70,-33,-57,77,203,159,63,-92,58,156,-175,-177,-321,-212,-343
68847,603,605,402,-32,-32,455,-11,490,-55,-145,167,102,488,16,4,187,-146,85,-2,-11,123,215,173,99,-31,103,233,-186,-136,-236,-106,-163
68848,637,697,430,-17,-45,477,51,526,-12,-116,189,171,509,55,42,240,-44,123,41,42,169,197,224,155,17,160,271,-163,-118,-189,-51,-121
68849,684,771,455,15,-35,515,92,566,-4,-80,206,247,548,81,51,302,-36,163,88,77,206,223,269,198,59,200,292,-38,-56,-143,-2,-66
68850,689,746,468,4,-45,498,90,551,-8,-96,239,222,547,72,65,311,-73,160,61,77,191,190,249,199,66,218,292,-134,-38,-99,58,-21
