,Fp1,Fp2,F7,F3,Fz,F4,F8,FC5,FC1,FC2,FC6,T7,C3,Cz,C4,T8,TP9,CP5,CP1,CP2,CP6,TP10,P7,P3,Pz,P4,P8,PO9,O1,Oz,O2,PO10
140305,354,186,343,254,84,594,637,310,142,20,393,-71,237,118,382,303,502,105,164,95,-71,754,437,74,146,285,298,307,75,-140,-73,150
140306,357,194,332,248,81,587,660,298,145,28,383,-82,221,126,383,344,506,100,174,109,-29,819,419,80,180,316,323,303,86,-112,-47,170
140307,365,202,289,249,68,579,630,269,113,32,383,-112,209,143,386,322,489,97,177,105,-14,805,434,75,159,328,337,320,101,-121,-51,159
140308,339,202,287,232,70,603,680,283,123,51,402,-143,212,143,394,305,470,112,164,96,-14,768,541,91,166,319,332,297,112,-126,-53,128
140309,336,204,256,219,61,587,665,219,118,61,391,-140,192,136,399,304,474,34,156,104,-13,770,456,90,177,326,336,349,195,-68,-11,159
140310,341,198,281,226,78,603,666,216,121,56,431,-156,196,138,414,373,513,22,185,135,32,775,390,103,177,347,369,416,224,-8,41,198
140311,337,207,289,203,75,610,679,236,100,46,421,-171,190,152,395,423,466,44,185,114,7,790,384,99,188,333,374,307,145,-45,16,210
140312,330,203,258,171,62,602,655,221,110,46,393,-189,200,150,416,359,403,45,175,111,7,771,345,95,210,320,353,325,160,-46,8,176
140313,298,190,209,188,76,610,685,218,114,42,412,-151,199,159,427,349,424,56,202,129,-12,766,359,112,202,306,348,382,201,-39,8,191
140314,294,173,233,206,86,591,659,246,126,48,376,-149,240,158,431,329,454,79,224,110,-8,759,384,106,200,300,360,301,135,-72,-30,149
140315,313,190,255,225,76,597,675,238,126,30,418,-142,261,149,370,339,443,82,236,123,4,739,400,136,230,320,349,333,177,-48,13,144
140316,328,206,269,256,90,606,712,275,122,30,441,-118,273,142,379,354,421,92,236,142,-7,747,376,145,229,344,335,258,166,-48,18,161
140317,336,221,272,242,83,617,718,228,150,50,443,-151,241,152,381,381,426,48,232,130,21,780,343,127,224,378,371,183,109,-61,4,152
140318,345,226,287,236,85,637,706,160,139,56,458,-181,216,120,407,396,417,36,213,151,51,798,354,118,216,387,413,247,93,-52,46,177
140319,353,234,286,255,96,672,687,218,149,65,524,-158,228,123,442,407,403,90,215,154,88,820,393,141,242,398,472,273,119,-41,81,212
140320,366,253,275,256,95,616,823,238,157,76,495,-134,253,156,442,423,394,97,227,167,95,812,392,147,283,400,476,225,126,-26,94,194
140321,353,222,268,250,78,620,755,224,117,60,478,-182,214,153,463,472,392,46,207,148,92,752,302,101,252,394,469,136,37,-61,68,247
140322,351,210,280,245,91,670,764,203,116,64,504,-236,206,149,470,515,402,-9,215,160,156,750,236,79,238,440,572,128,13,-85,62,198
140323,325,219,249,212,73,649,755,213,124,75,492,-224,209,163,443,454,351,0,227,166,114,807,247,96,249,440,471,165,55,-60,106,220
140324,305,204,231,211,77,644,736,179,136,61,484,-220,175,168,437,382,317,-7,230,173,119,803,261,93,241,414,385,188,82,-8,119,272
140325,310,217,228,211,101,657,748,176,134,58,481,-227,179,161,463,398,280,-6,228,182,118,801,298,110,256,441,413,220,121,25,155,256
140326,292,220,238,209,82,644,747,184,110,44,503,-226,170,156,496,402,253,3,217,191,154,805,325,90,238,441,428,155,108,14,146,216
140327,287,217,242,233,79,650,748,177,95,66,519,-219,172,152,490,418,264,8,214,194,166,813,306,82,244,454,443,187,129,32,140,209
140328,353,229,271,234,99,665,762,219,96,61,490,-192,190,121,451,458,314,10,208,167,94,816,265,76,226,406,418,218,72,-21,88,164
140329,358,238,298,239,100,679,760,243,115,55,502,-171,186,136,439,468,291,6,190,165,56,797,238,60,207,397,422,202,51,-39,85,209
140330,346,257,255,254,86,664,744,218,112,48,469,-203,169,129,439,429,263,6,181,170,56,760,261,49,221,403,425,241,119,18,128,231
140331,376,281,262,249,112,684,753,220,95,57,462,-181,161,122,440,440,316,-12,185,175,49,758,282,48,224,407,414,196,52,-34,124,228
140332,382,268,331,276,128,689,751,248,103,63,470,-163,172,140,439,434,331,-7,187,182,46,742,267,65,211,421,418,136,33,-28,131,235
140333,382,305,297,264,125,683,748,233,104,91,491,-161,170,157,477,468,350,25,201,208,82,765,306,77,244,448,444,169,68,11,186,292
140334,441,365,279,260,120,709,807,206,96,120,510,-185,154,142,494,484,355,16,185,215,115,793,268,49,246,458,459,185,60,-18,161,271
140335,462,373,315,280,128,731,834,220,98,115,541,-159,162,142,468,457,353,10,184,220,110,810,242,48,228,437,450,194,48,-76,58,147
140336,458,347,317,281,127,716,813,232,95,108,515,-142,170,140,472,444,353,29,195,203,69,759,291,69,232,441,422,232,77,-67,33,89
140337,467,338,353,307,115,690,782,289,109,101,488,-103,201,160,451,418,374,61,245,218,82,761,336,109,267,449,416,290,174,16,92,130
140338,478,350,372,301,111,690,757,281,132,78,464,-85,232,154,443,389,433,93,251,207,68,715,389,113,269,411,343,246,173,15,87,67
140339,471,345,395,308,133,689,774,300,136,84,491,-80,227,161,444,413,423,91,248,204,59,704,379,126,262,402,349,134,91,-60,29,26
140340,470,310,403,319,131,676,771,304,135,81,466,-125,223,159,441,408,381,89,262,216,56,690,314,109,286,426,367,148,71,-69,21,83
140341,490,293,401,336,126,686,737,309,153,70,464,-125,235,161,429,408,393,103,257,212,46,655,349,107,287,437,331,175,56,-80,32,132
140342,490,285,367,340,127,675,698,306,148,82,428,-115,252,176,430,343,430,113,284,226,46,623,380,124,298,442,360,199,75,-44,75,176
140343,443,256,332,289,89,632,643,268,115,67,386,-111,227,165,389,300,425,95,301,217,0,576,369,142,310,412,332,282,139,5,90,139
140344,421,231,347,272,77,585,593,291,125,30,346,-93,237,166,349,261,434,87,292,196,-46,544,413,149,307,376,272,358,191,8,46,59
140345,460,232,370,300,91,581,596,308,161,8,329,-68,263,158,310,238,461,127,303,167,-62,536,474,163,310,354,231,359,197,-43,-16,-19
140346,430,237,355,271,68,544,610,276,120,-6,322,-80,224,127,307,212,443,100,250,142,-89,548,421,126,270,308,211,309,132,-100,-100,-44
140347,423,233,385,278,65,540,599,283,129,-2,315,-81,248,132,303,203,471,136,255,138,-84,549,448,128,255,319,221,310,103,-114,-82,34
140348,473,246,400,286,66,569,634,282,154,14,340,-64,268,142,302,244,524,151,274,165,-64,613,514,169,259,346,280,329,150,-55,-14,113
140349,491,269,453,297,57,574,633,297,122,18,346,-77,277,135,352,237,625,150,305,183,-33,664,542,205,282,375,366,427,228,23,39,152
140350,508,296,444,296,96,630,686,321,124,47,385,-59,298,178,402,287,640,193,333,217,2,689,554,242,322,398,343,489,282,62,69,158
140351,504,292,431,293,106,635,710,330,149,51,398,-55,306,174,411,242,618,212,332,218,-10,727,584,253,310,415,329,476,281,66,75,186
140352,498,293,437,284,80,628,659,312,126,55,353,-55,308,176,443,264,561,222,363,223,-2,769,612,276,325,428,402,475,312,110,103,208
140353,517,307,392,273,79,669,630,280,118,66,404,-123,305,178,455,291,511,179,358,208,-8,726,509,268,332,409,333,501,322,141,97,245
140354,517,358,372,273,75,636,744,286,95,29,469,-154,300,149,388,295,489,149,351,194,-26,753,493,261,326,405,336,510,347,146,100,269
140355,530,366,403,291,76,625,817,329,128,36,446,-111,342,174,358,294,503,214,381,221,-23,771,630,316,347,407,342,516,394,175,136,279
140356,563,363,420,310,102,660,757,359,157,53,466,-62,348,168,372,294,538,230,391,222,-25,724,629,338,375,398,312,567,414,167,141,227
140357,610,382,437,343,108,668,750,366,146,60,453,-33,346,154,385,293,564,214,369,211,-5,737,606,324,355,373,318,586,405,168,155,259
140358,644,411,490,351,116,674,743,364,151,62,405,-6,350,152,385,228,603,200,356,202,-42,770,606,288,317,365,316,524,339,90,101,240
140359,630,424,475,351,130,680,743,343,155,79,432,-47,356,158,396,290,589,192,345,205,-31,785,532,269,298,373,338,477,289,52,90,264
140360,649,439,494,338,140,694,771,335,166,92,454,-22,330,181,399,334,603,192,343,210,5,770,502,238,289,387,360,521,255,65,84,265
140361,652,444,503,325,130,700,777,344,161,83,435,-66,292,161,388,326,585,138,305,180,-5,779,498,201,261,355,353,459,220,1,48,204
140362,672,450,505,321,152,696,741,321,150,68,442,-85,277,151,380,292,541,144,262,155,7,708,504,166,233,337,381,307,171,-54,-2,154
140363,693,460,488,331,153,678,730,303,134,41,400,-124,235,126,371,259,495,110,225,113,-12,672,383,105,183,308,362,225,69,-92,-26,134
140364,705,494,525,351,153,719,766,351,147,54,406,-103,248,136,400,310,526,91,256,171,27,734,396,125,205,352,379,299,114,-24,51,271
140365,770,527,527,370,168,741,788,358,163,89,450,-114,254,177,462,398,588,80,285,227,94,809,449,173,269,425,481,418,199,53,152,307
140366,774,501,539,355,169,735,787,336,148,88,474,-77,256,166,463,400,575,108,304,236,109,848,491,213,285,459,496,400,226,60,157,280
140367,758,467,551,366,146,712,747,363,132,71,470,-93,266,153,456,394,497,129,307,235,76,809,436,201,289,435,445,415,260,58,148,255
140368,732,466,526,378,129,691,748,370,139,80,442,-72,273,169,449,378,477,155,321,255,77,816,479,227,317,432,435,464,316,102,206,292
140369,710,445,490,351,105,649,699,348,130,45,401,-87,270,164,424,351,456,126,313,249,73,764,489,216,304,432,441,404,263,50,159,251
140370,760,478,556,371,137,693,747,366,161,72,445,-71,300,192,420,416,468,142,330,269,100,762,466,195,318,458,506,331,204,30,134,279
140371,778,499,552,360,148,719,804,312,157,88,497,-43,289,194,423,431,551,152,331,277,120,832,454,191,329,471,552,258,139,7,111,235
140372,744,482,510,368,138,702,774,292,133,64,454,-72,288,180,445,375,542,122,315,259,74,787,406,182,320,442,425,271,147,9,110,214
140373,689,441,478,341,141,663,747,317,130,53,435,-101,266,167,405,290,507,102,299,238,37,742,403,159,285,420,319,274,144,0,107,202
140374,668,430,464,322,137,673,742,301,128,63,412,-132,230,158,414,247,468,61,278,222,25,766,368,127,268,402,337,221,126,-18,91,171
140375,637,418,464,334,132,670,723,302,134,66,418,-143,240,166,409,235,425,63,287,214,53,733,385,123,255,388,349,160,118,-14,87,149
140376,640,404,442,325,122,685,714,285,118,60,419,-137,223,129,407,297,403,44,261,198,59,707,370,105,235,389,388,141,92,-33,66,147
140377,683,402,501,369,137,698,722,331,141,46,429,-86,253,143,446,347,379,74,258,217,59,726,416,139,243,400,418,164,119,-12,87,202
140378,676,407,523,392,149,709,717,353,146,48,434,-103,262,145,449,312,384,83,264,218,32,702,367,110,206,358,311,183,61,-93,22,135
140379,686,428,507,401,159,718,711,376,165,58,431,-88,284,149,440,338,399,114,270,211,16,702,364,120,190,347,305,166,30,-122,-27,56
140380,661,406,488,386,156,703,692,352,147,61,403,-101,275,158,450,349,374,105,247,183,-21,738,376,120,171,311,297,105,-36,-151,-63,73
140381,670,396,494,378,150,694,706,349,151,68,394,-125,245,161,458,326,366,38,237,182,-7,727,310,61,150,298,308,101,-68,-210,-60,49
140382,671,380,466,387,137,701,700,361,161,49,449,-118,254,162,388,343,373,25,252,180,24,716,327,77,178,309,320,144,-22,-172,-44,38
140383,652,379,475,374,153,695,719,316,150,43,483,-75,263,147,356,353,371,86,243,169,42,702,383,77,172,341,343,100,-34,-164,-18,67
140384,667,397,479,377,135,674,674,317,150,51,449,-99,241,153,387,349,374,63,235,186,42,699,272,51,189,360,366,152,0,-157,-32,82
140385,636,404,419,329,125,684,702,302,138,47,430,-141,205,132,377,331,391,31,226,183,29,712,223,57,182,354,359,185,17,-161,-45,99
140386,608,399,419,337,115,694,713,299,142,51,439,-175,201,148,369,407,375,34,236,187,8,728,267,70,184,365,378,128,16,-140,-23,103
140387,662,428,483,372,117,698,759,330,163,75,472,-132,215,165,403,435,376,64,241,205,54,749,327,101,224,393,364,179,82,-108,17,124
140388,661,447,477,370,135,706,788,315,137,67,482,-107,206,139,434,423,359,53,216,204,42,810,304,85,227,381,362,164,69,-124,8,122
140389,676,452,498,365,166,719,790,315,133,54,504,-106,213,139,445,426,353,38,216,194,66,785,313,69,230,379,389,144,50,-157,3,88
140390,671,464,479,380,152,727,794,314,144,48,505,-143,214,122,450,430,379,47,228,203,69,751,354,101,246,402,410,209,79,-105,29,119
140391,677,456,493,388,169,734,749,346,172,50,488,-111,260,137,475,438,391,113,258,243,79,776,421,181,282,455,432,295,165,-23,101,194
140392,703,449,546,400,170,731,744,362,174,67,481,-96,280,150,475,388,398,146,300,258,82,785,521,213,309,466,451,292,217,53,158,295
140393,689,418,501,392,194,750,763,360,170,83,463,-84,280,161,490,387,416,153,312,271,117,830,459,205,321,499,516,237,205,80,196,365
140394,661,397,458,391,178,745,756,354,162,56,453,-79,244,152,497,348,437,82,308,276,91,787,320,183,327,488,459,250,167,47,176,260
140395,653,380,438,381,165,714,760,362,158,67,467,-84,236,157,470,252,421,52,286,244,41,716,372,177,304,435,337,211,116,-42,57,105
140396,652,394,498,404,192,735,755,411,175,88,487,-93,298,172,460,256,393,116,311,239,46,727,426,203,318,417,327,244,123,-96,-55,55
140397,643,396,535,414,190,733,733,412,171,74,485,-40,313,177,436,288,444,174,320,253,51,702,535,255,326,416,353,348,262,-14,15,143
140398,647,392,538,400,178,748,746,415,166,83,512,-13,302,183,481,355,493,182,339,267,60,693,553,291,332,426,368,391,347,74,84,139
140399,641,376,511,373,155,732,647,391,148,66,465,-35,298,168,434,369,522,182,352,245,25,714,535,299,364,435,370,353,341,84,122,139
140400,650,404,519,393,156,695,758,393,153,37,479,-24,316,164,413,422,509,228,339,242,55,763,643,312,359,444,401,328,318,80,108,95
140401,646,405,552,413,156,668,781,425,163,29,473,-2,322,148,435,425,527,207,332,249,47,812,662,314,362,430,347,315,274,44,103,183
140402,668,419,564,407,176,735,766,402,147,51,503,-15,315,161,461,433,520,202,336,244,49,824,489,267,371,442,387,381,253,33,115,209
140403,655,434,541,418,186,751,793,377,153,78,520,-29,327,164,490,469,555,190,345,245,96,838,539,279,395,472,445,435,324,95,151,225
140404,658,447,533,400,170,754,796,407,164,69,520,-27,315,145,490,451,569,203,341,246,86,803,566,300,384,454,431,421,362,78,149,216
140405,660,418,523,389,182,740,810,408,153,57,508,-23,307,132,468,447,545,189,324,211,64,819,567,295,349,419,409,383,334,46,112,251
140406,636,394,484,389,178,692,758,373,159,30,478,-76,295,112,439,402,552,151,293,171,48,838,510,275,314,388,389,414,295,20,104,279
140407,657,414,479,405,172,691,762,399,172,39,470,-30,311,97,403,383,568,189,291,149,37,801,569,285,286,362,389,474,313,50,121,267
140408,651,385,500,428,190,686,716,420,173,10,429,-3,311,95,382,371,545,191,298,117,10,735,629,269,268,340,382,460,322,58,94,204
140409,620,366,520,407,189,660,704,412,173,-5,404,-16,293,88,362,343,495,139,271,100,-32,721,504,224,248,336,352,427,291,45,75,149
140410,600,366,467,398,171,658,687,388,186,-1,393,-26,293,111,344,336,506,146,289,87,-45,726,492,224,239,331,325,383,252,42,66,194
140411,603,371,399,402,166,626,694,415,173,-10,401,-20,320,119,319,326,551,163,296,97,-34,758,530,243,244,338,364,363,250,42,67,227
140412,665,416,396,434,192,659,724,471,202,16,409,24,348,139,331,356,639,197,315,146,-5,784,582,269,274,361,447,447,323,47,120,210
140413,666,400,614,433,179,653,727,481,189,-11,392,39,364,137,328,326,657,202,303,142,-9,759,604,271,263,353,375,404,304,21,103,193
140414,691,422,636,432,182,636,720,449,191,-8,406,60,365,144,328,328,619,221,316,141,-21,787,555,264,272,363,358,453,302,24,104,229
140415,674,418,602,434,185,631,695,461,207,5,400,53,365,128,325,321,630,215,313,139,-35,782,580,273,272,345,326,484,303,52,109,241
140416,654,415,576,436,169,630,754,481,202,-9,386,72,361,132,361,309,645,201,311,142,-20,744,544,264,290,365,332,476,281,52,87,225
140417,668,420,562,448,155,632,720,485,217,-9,356,89,359,134,401,330,687,221,326,169,-14,738,580,273,323,379,373,530,302,89,120,208
140418,657,390,524,397,168,619,680,441,182,2,385,73,339,133,384,336,629,233,321,185,0,766,589,269,319,388,387,449,257,71,117,218
140419,649,373,543,394,181,625,697,417,165,2,430,66,333,116,328,366,611,207,320,183,12,749,505,220,286,396,376,342,164,-21,89,223
140420,628,365,522,381,159,622,668,400,159,-6,411,37,309,130,367,360,583,182,296,186,20,696,516,186,275,413,377,303,114,-72,69,198
140421,621,376,524,393,155,645,693,409,163,10,439,-10,299,146,421,360,605,145,278,206,34,718,433,160,276,412,377,427,161,-40,58,205
140422,600,343,488,378,139,640,647,400,137,31,439,-86,281,124,436,356,545,108,273,193,29,671,459,133,253,400,404,386,177,-52,55,198
140423,591,362,441,360,159,667,691,341,136,72,442,-111,273,154,434,337,534,82,280,206,59,710,431,147,244,405,468,380,168,-45,57,144
140424,560,316,432,353,165,643,704,314,145,64,446,-84,265,159,396,205,535,75,282,156,-15,663,387,126,196,350,308,315,114,-85,18,111
140425,554,279,368,336,120,621,630,324,141,29,413,-57,263,124,356,176,499,89,244,119,-88,592,397,94,139,287,183,188,5,-187,-59,87
140426,538,307,366,321,121,635,653,327,138,32,412,-78,250,126,365,266,519,70,236,107,-89,636,328,73,144,264,222,250,-10,-203,-96,80
140427,486,306,348,320,124,671,675,322,141,22,438,-133,234,119,372,265,494,52,221,89,-97,648,314,55,118,271,235,262,0,-202,-69,74
140428,476,310,371,319,136,686,692,327,138,35,447,-146,242,114,394,296,450,42,222,100,-76,628,327,48,117,269,265,194,-36,-227,-81,72
140429,467,280,367,312,136,691,694,345,128,65,472,-155,218,123,399,350,445,25,204,120,-32,663,336,41,137,288,329,147,-28,-213,-84,98
140430,407,280,280,268,126,703,707,275,120,63,475,-209,200,122,381,368,410,-9,193,126,-7,667,257,22,126,290,369,167,-4,-215,-79,133
140431,417,279,306,283,135,690,709,275,114,79,472,-153,200,136,414,356,351,4,219,150,-15,643,251,25,145,308,353,201,-5,-207,-88,70
140432,430,274,335,297,138,673,700,283,127,55,459,-104,213,135,393,362,377,44,214,133,-18,661,338,60,160,306,296,184,3,-206,-85,77
140433,449,313,331,308,155,719,759,302,118,53,509,-88,232,150,439,430,427,55,232,168,35,680,341,86,204,348,359,185,45,-187,-55,150
140434,465,339,340,308,139,716,793,281,123,66,519,-86,232,167,440,468,444,41,272,220,83,686,361,129,229,395,400,222,68,-164,-17,143
140435,448,323,370,309,128,707,768,304,120,77,509,-54,267,174,458,499,432,112,299,242,116,717,420,168,270,420,447,230,100,-122,13,188
140436,433,307,345,309,126,712,760,277,115,57,518,-65,260,172,493,507,456,133,312,272,142,807,400,192,293,461,513,289,150,-82,63,265
140437,463,298,380,320,113,709,709,302,121,44,510,-33,277,177,486,469,531,137,332,278,159,871,464,216,313,496,554,354,177,-12,129,267
140438,512,330,442,334,110,717,735,346,148,64,549,17,321,186,489,410,616,202,352,310,187,855,604,256,328,527,521,395,258,38,175,310
140439,552,375,479,375,150,682,859,397,185,69,551,47,352,190,540,424,663,253,395,340,273,886,648,305,340,580,564,434,292,94,209,320
140440,522,347,443,370,120,691,794,394,160,63,568,21,328,185,543,530,644,189,367,328,274,863,528,288,338,551,540,449,276,62,198,310
140441,526,334,425,360,130,675,774,378,157,41,543,53,340,191,505,540,642,217,358,288,173,871,564,301,322,517,505,466,279,71,210,323
140442,540,333,291,376,131,654,755,383,180,34,516,76,377,173,504,511,679,262,399,302,162,879,629,338,361,543,530,524,345,124,231,337
140443,508,318,460,394,129,641,718,435,172,34,521,80,395,162,482,529,672,295,396,291,154,840,689,351,368,525,518,548,390,155,244,303
140444,496,312,567,398,141,643,754,486,195,21,516,119,413,185,491,533,695,332,416,295,161,874,772,383,388,560,551,597,448,210,275,325
140445,483,263,457,363,117,641,768,436,184,28,509,139,392,165,511,529,689,331,412,314,190,862,727,391,405,565,590,608,477,239,277,338
140446,490,254,484,339,118,625,733,425,172,10,473,112,387,171,491,528,725,339,412,310,156,828,764,417,429,542,543,666,528,301,294,299
140447,504,280,478,353,120,625,710,428,185,25,459,55,394,175,517,490,726,316,385,300,148,912,750,414,418,534,478,609,516,307,315,394
140448,524,297,492,378,132,658,725,437,177,50,452,72,429,176,531,412,682,345,406,292,151,916,728,413,416,518,465,578,486,293,292,350
140449,518,268,486,369,123,665,700,421,170,56,472,128,397,166,517,397,695,357,393,274,117,883,768,410,414,491,385,597,475,285,267,282
140450,508,319,483,362,135,695,746,396,164,64,592,216,373,146,457,460,708,348,353,231,97,905,745,398,359,450,372,559,412,209,210,312
140451,537,341,522,409,151,723,803,453,167,74,592,168,369,135,450,499,723,330,339,229,79,908,661,348,325,440,399,553,354,135,179,329
140452,556,352,534,407,176,759,832,456,179,89,622,152,379,144,491,514,844,343,360,250,103,865,720,375,382,460,441,630,402,195,207,322
140453,599,390,548,418,190,762,818,441,182,74,612,182,341,121,509,559,793,311,345,241,114,865,742,368,374,451,462,617,410,197,176,294
140454,604,389,512,419,186,759,722,435,178,76,600,166,370,118,513,589,776,335,343,269,179,935,747,363,377,505,610,603,429,188,189,229
