,Fp1,Fp2,F7,F3,Fz,F4,F8,FC5,FC1,FC2,FC6,T7,C3,Cz,C4,T8,TP9,CP5,CP1,CP2,CP6,TP10,P7,P3,Pz,P4,P8,PO9,O1,Oz,O2,PO10
18239,-260,0,80,80,-152,-369,238,198,-31,-5,153,-96,335,-52,135,55,208,-72,-38,-17,-360,244,263,80,89,197,53,-240,100,-6,-85,21
18240,-280,83,50,63,-140,-399,245,224,-33,-19,172,-151,360,-67,147,24,197,-83,-27,-17,-359,215,186,77,90,179,48,-105,129,4,-114,-40
18241,-243,151,37,64,-152,-357,251,237,-30,-34,182,-145,361,-72,167,57,112,-62,0,-24,-354,244,175,102,85,199,42,-27,166,3,-141,-67
18242,-233,222,36,57,-153,-308,290,222,-24,-19,223,-87,329,-52,188,118,99,-113,2,0,-300,300,200,116,101,228,119,77,209,76,-55,20
18243,-258,220,5,38,-157,-332,290,213,-41,-16,199,-38,329,-41,185,145,86,-85,-20,15,-283,326,241,131,103,252,167,142,242,104,-21,60
18244,-198,192,-3,46,-153,-336,266,208,-40,-5,189,-35,316,-47,190,102,69,-70,-26,3,-291,269,231,107,103,236,122,44,192,30,-85,-18
18245,-211,126,-41,45,-147,-353,253,152,-37,-26,176,-38,305,-72,177,46,121,-83,-57,-5,-305,284,235,88,78,239,128,-16,172,6,-125,-18
18246,-190,138,-3,44,-121,-326,297,151,-35,3,216,-14,315,-50,214,99,154,-61,-37,11,-269,298,235,93,84,259,158,-81,152,25,-79,28
18247,-195,162,10,22,-105,-315,328,159,-50,6,241,-40,314,-26,230,138,142,-92,-25,9,-255,328,228,80,89,258,171,-78,143,37,-58,25
18248,-173,251,-25,24,-107,-308,368,117,-57,9,245,-75,292,-38,214,183,114,-114,-51,-3,-244,366,204,63,91,276,184,-129,122,23,-68,58
18249,-130,360,38,43,-108,-285,433,164,-43,10,279,-14,309,-44,233,224,155,-81,-45,16,-217,388,207,85,89,298,215,-168,115,11,-77,57
18250,-83,399,108,61,-101,-265,481,199,-39,4,306,27,329,-45,249,273,224,-46,-23,27,-205,405,263,107,111,311,233,-130,139,24,-62,55
18251,-117,341,121,28,-119,-283,426,190,-46,18,297,40,328,-39,244,258,234,-33,-1,33,-213,382,316,117,133,319,245,9,212,77,-10,89
18252,-153,325,146,37,-132,-290,413,193,-57,12,284,20,332,-24,243,251,218,-30,-18,37,-215,367,301,115,141,322,228,-11,211,82,1,97
18253,-176,285,90,28,-133,-295,360,171,-51,13,253,-16,346,-23,232,230,212,-30,-2,49,-228,343,291,136,153,300,213,3,217,107,-10,66
18254,-192,273,61,-10,-140,-278,370,173,-38,13,267,-24,362,-24,244,221,215,-26,18,54,-225,283,306,135,150,300,213,56,220,128,12,58
18255,-181,264,95,-35,-137,-286,398,203,-40,22,258,14,357,-25,247,203,199,4,24,49,-254,279,285,140,150,322,184,44,229,129,0,64
18256,-190,251,93,-10,-128,-300,347,209,-31,24,239,34,367,-20,234,156,155,-2,13,45,-261,287,280,132,136,310,167,49,187,86,-1,57
18257,-256,205,12,9,-159,-335,310,192,-39,9,196,-57,361,-38,217,151,123,-44,0,24,-257,274,265,116,129,278,186,40,179,100,18,125
18258,-264,160,60,8,-183,-344,303,194,-35,17,195,-53,365,-35,230,148,176,-19,23,48,-253,278,304,149,145,312,230,24,251,185,108,205
18259,-254,87,68,17,-186,-346,318,191,-30,5,208,16,376,-39,226,165,196,-24,9,44,-247,292,298,150,158,316,236,-37,214,124,64,138
18260,-181,136,186,72,-139,-340,340,247,-10,11,218,105,390,-28,221,169,246,-22,25,7,-265,251,259,114,132,239,136,-131,84,-56,-176,-130
18261,-157,158,159,92,-136,-328,331,277,-10,-2,236,110,400,-27,204,131,285,18,44,2,-290,287,320,150,140,258,147,-8,150,21,-102,-62
18262,-163,179,178,74,-164,-369,321,282,-15,-29,212,94,398,-36,184,119,230,8,12,-7,-290,320,290,113,118,257,181,-127,127,30,-71,-4
18263,-125,231,196,64,-165,-429,305,281,-24,-57,156,100,388,-35,169,49,197,-22,-12,-30,-285,252,271,97,80,211,166,-175,99,-7,-110,-44
18264,-142,233,134,46,-180,-411,302,230,-34,-59,134,77,355,-49,148,59,190,-31,-17,-27,-304,273,287,123,84,220,153,-84,159,55,-62,28
18265,-143,225,128,26,-175,-377,295,207,-42,-48,147,17,327,-62,151,123,174,-46,-46,-39,-315,229,273,108,77,208,132,-98,130,37,-77,23
18266,-138,192,144,39,-186,-348,270,220,-63,-39,225,29,329,-71,156,116,120,-56,-64,-69,-343,215,275,81,57,167,82,-118,80,-40,-148,-56
18267,-142,182,121,22,-179,-320,232,225,-70,-20,307,12,342,-67,186,-49,199,-32,-32,-35,-349,214,350,117,87,200,65,38,187,46,-75,-45
18268,-147,187,134,31,-168,-280,229,214,-67,15,314,-22,346,-62,212,-90,220,-26,-11,-35,-332,204,368,140,101,216,51,94,228,114,-36,-61
18269,-135,228,173,63,-155,-341,254,216,-60,-14,187,-7,333,-68,168,-166,148,-34,-9,-47,-391,180,320,128,70,176,31,77,162,38,-116,-115
18270,-139,165,107,78,-162,-325,267,230,-38,-2,172,-6,352,-37,170,-77,185,-28,1,-39,-367,187,280,136,104,193,63,35,80,-30,-141,-97
18271,-144,169,62,61,-137,-317,285,200,-17,11,187,-27,368,-31,211,171,142,-38,5,14,-291,282,214,121,141,243,138,-118,92,7,-68,-12
18272,-197,210,11,52,-150,-371,319,215,-14,-4,191,-39,351,-39,225,261,124,-58,29,44,-235,369,202,114,160,286,185,-162,98,75,25,68
18273,-203,253,35,43,-156,-370,355,207,-19,-6,203,-52,365,-31,219,282,164,-36,32,53,-228,393,206,129,171,303,209,-157,83,50,-4,0
18274,-177,271,75,50,-126,-307,346,214,-19,10,218,-17,388,-28,212,240,155,-16,37,65,-253,321,225,134,169,308,204,-117,103,64,-12,-7
18275,-149,289,34,61,-136,-307,354,235,-17,8,213,6,383,-55,216,242,125,-13,40,51,-244,248,216,130,170,330,219,-134,105,69,-3,45
18276,-145,234,3,64,-138,-280,350,220,-27,13,203,-27,378,-46,233,230,95,-31,37,73,-208,348,203,133,174,331,238,-149,91,79,12,29
18277,-134,211,41,41,-140,-293,341,197,-29,13,191,-39,385,-52,221,202,115,-32,25,64,-204,312,225,93,167,323,228,-110,136,94,41,43
18278,-20,239,119,65,-131,-209,377,232,-12,41,238,17,397,-45,251,247,127,-12,34,62,-176,271,277,111,175,339,255,-35,151,108,65,75
18279,53,347,160,106,-108,-210,410,236,-10,23,263,-26,377,-50,249,261,122,-38,8,52,-161,315,242,88,146,347,305,-53,95,88,31,45
18280,104,492,215,97,-99,-252,455,231,-39,22,272,-102,337,-77,233,230,59,-111,-36,37,-188,322,156,30,93,310,299,-148,42,28,-16,33
18281,160,553,285,116,-82,-251,509,235,-25,63,299,-47,327,-85,238,243,90,-122,-43,17,-201,307,130,17,80,279,200,-176,14,0,-39,-2
18282,212,588,315,158,-67,-292,475,255,-24,58,270,1,342,-70,232,169,125,-99,-34,-3,-260,229,132,26,71,248,125,-131,34,18,-40,-28
18283,251,575,271,151,-73,-189,405,218,-16,58,241,-36,337,-61,214,109,78,-92,-34,-3,-280,201,118,42,60,217,100,-69,77,19,-43,-11
18284,198,525,212,119,-76,-218,334,221,-40,35,184,-126,327,-78,188,85,75,-121,-49,-27,-315,192,97,32,52,199,81,-106,51,-5,-96,-8
18285,192,517,179,115,-87,-245,321,225,-57,31,175,-109,329,-77,170,81,4,-129,-69,-26,-331,192,103,17,36,188,55,-162,4,-34,-108,-30
18286,245,565,235,148,-76,-222,332,212,-62,23,179,-40,319,-68,145,55,36,-117,-65,-45,-356,155,157,0,36,160,30,-173,-25,-113,-209,-115
18287,266,571,197,132,-88,-257,319,204,-72,-2,162,-45,295,-95,132,30,26,-114,-84,-84,-383,130,154,0,1,122,-31,-221,-81,-206,-304,-194
18288,319,596,258,161,-80,-247,334,226,-55,-2,175,-55,305,-105,141,7,49,-108,-71,-73,-377,98,150,26,22,130,-5,-180,-46,-166,-268,-150
18289,344,654,345,192,-29,-225,357,244,-24,13,183,-46,319,-84,160,-9,75,-96,-48,-45,-363,107,156,45,53,151,-7,-70,5,-125,-254,-160
18290,442,692,399,225,-23,-187,397,253,-7,13,197,-63,329,-96,150,23,61,-103,-55,-64,-382,85,133,46,59,131,-23,-103,-29,-133,-259,-153
18291,516,745,425,243,-1,-165,442,274,-13,38,205,-52,333,-114,134,32,27,-103,-63,-100,-420,74,126,13,34,106,-53,-149,-78,-162,-272,-199
18292,595,863,442,280,3,-155,454,291,-16,21,199,-90,312,-148,127,54,-35,-132,-77,-114,-426,36,32,-6,-1,67,-113,-367,-155,-225,-327,-259
18293,617,963,458,289,41,-144,493,285,-6,27,212,-105,310,-147,120,97,-21,-140,-90,-123,-422,31,43,-17,-4,75,-97,-359,-141,-201,-316,-250
18294,624,1027,388,305,67,-133,520,252,-3,48,233,-139,314,-128,139,132,-31,-143,-81,-100,-393,89,64,1,-2,91,-48,-320,-134,-192,-285,-199
18295,584,1014,279,261,32,-168,481,155,-15,16,209,-231,267,-165,116,33,-126,-212,-127,-127,-412,56,-10,-61,-50,47,-77,-407,-206,-242,-317,-251
18296,612,962,260,252,10,-210,430,155,-28,24,168,-244,259,-157,110,-30,-136,-223,-136,-134,-408,6,-6,-64,-55,74,-85,-339,-139,-211,-332,-277
18297,662,930,311,258,52,-205,369,175,-13,48,144,-234,266,-140,116,-26,-113,-199,-146,-100,-385,40,15,-30,-20,105,-61,-268,-75,-141,-274,-251
18298,673,934,340,252,25,-234,356,161,-22,37,136,-233,236,-156,149,3,-117,-222,-145,-115,-395,12,18,-53,-42,89,-63,-244,-57,-137,-258,-236
18299,665,941,284,248,6,-220,356,143,-42,33,139,-237,239,-156,150,33,-140,-231,-153,-96,-377,-3,-22,-61,-33,102,-33,-348,-92,-164,-256,-221
18300,784,1020,333,291,37,-211,408,183,-37,37,144,-221,230,-168,130,9,-162,-218,-153,-87,-403,35,-16,-73,-41,106,-43,-377,-77,-146,-248,-193
18301,864,1116,389,323,54,-157,455,207,-41,39,167,-243,222,-169,109,-11,-172,-218,-167,-105,-400,45,10,-57,-47,91,-67,-346,-68,-163,-247,-260
18302,939,1203,460,347,85,-118,530,196,-42,44,203,-230,203,-186,132,9,-204,-220,-167,-133,-391,44,-40,-82,-70,92,-43,-377,-73,-160,-238,-212
18303,1006,1301,531,394,132,-86,587,264,-23,54,240,-172,224,-206,120,45,-184,-195,-178,-151,-376,58,-20,-97,-75,92,-29,-293,-37,-123,-213,-196
18304,1019,1306,631,412,142,-75,616,283,-15,61,266,-242,222,-205,134,54,-115,-208,-193,-143,-373,62,-11,-84,-70,82,-9,-271,-23,-123,-192,-193
18305,1074,1411,643,438,169,-47,623,289,-15,65,280,-260,238,-197,148,60,-116,-234,-192,-129,-376,87,-4,-77,-47,112,21,-244,-10,-97,-160,-128
18306,1174,1499,583,443,180,-32,631,264,-12,52,263,-196,233,-206,139,67,-76,-227,-178,-131,-387,74,30,-82,-67,113,15,-196,-25,-114,-193,-158
18307,1280,1496,634,473,173,-34,615,253,-6,55,265,-158,225,-213,160,70,-67,-222,-190,-121,-357,119,43,-68,-47,139,28,-148,17,-49,-148,-91
18308,1356,1574,629,467,182,-24,613,271,-3,51,257,-182,228,-219,149,41,-77,-227,-200,-134,-367,105,23,-97,-71,115,-1,-272,-37,-94,-192,-151
18309,1369,1597,643,475,192,-26,584,271,7,40,256,-187,227,-207,140,44,-118,-233,-196,-139,-376,76,1,-115,-89,111,-4,-345,-114,-133,-222,-175
18310,1396,1568,644,512,192,-26,560,285,0,46,246,-189,232,-214,128,40,-142,-237,-205,-154,-394,70,-18,-115,-108,95,-27,-353,-139,-164,-234,-206
18311,1464,1604,725,534,223,-23,600,312,5,47,241,-218,227,-243,101,4,-175,-252,-226,-174,-417,5,-61,-173,-137,46,-110,-437,-205,-243,-360,-326
18312,1522,1733,759,566,254,-9,652,327,28,67,254,-233,227,-241,111,10,-211,-269,-227,-170,-408,59,-84,-174,-139,51,-57,-438,-177,-195,-305,-242
18313,1536,1841,787,581,251,-66,644,323,22,63,251,-229,232,-253,100,-6,-218,-289,-276,-188,-461,-28,-71,-199,-156,17,-132,-424,-240,-274,-383,-362
18314,1634,1893,834,589,269,7,674,326,21,32,242,-246,203,-270,68,-62,-244,-311,-281,-230,-510,-87,-94,-238,-179,-32,-178,-441,-278,-289,-435,-386
18315,1695,1926,948,619,276,17,715,338,22,33,219,-287,201,-273,40,-99,-283,-335,-288,-248,-527,-78,-140,-242,-191,-57,-197,-468,-290,-298,-428,-374
18316,1672,1921,964,603,265,13,739,319,18,25,220,-293,180,-275,38,-180,-275,-363,-295,-273,-549,-142,-178,-270,-232,-118,-254,-557,-386,-407,-546,-553
18317,1798,2045,869,605,276,30,686,271,1,8,195,-339,152,-299,3,-338,-336,-398,-345,-305,-605,-167,-253,-319,-300,-172,-263,-662,-468,-504,-621,-593
18318,1859,2092,885,644,297,26,666,297,1,27,177,-346,159,-291,-5,-322,-321,-367,-339,-306,-633,-202,-215,-304,-273,-169,-306,-576,-427,-482,-600,-548
18319,1855,2080,820,619,296,62,637,262,-5,34,181,-410,156,-298,-7,-241,-340,-384,-326,-306,-641,-262,-225,-327,-279,-195,-412,-579,-449,-518,-628,-527
18320,1867,2072,792,606,270,55,618,234,-11,42,171,-461,152,-275,-6,-173,-358,-417,-324,-299,-644,-286,-262,-310,-289,-194,-381,-665,-452,-478,-600,-481
18321,1862,2067,780,594,244,47,565,192,-19,3,144,-475,126,-267,-22,-136,-377,-446,-333,-303,-634,-219,-255,-316,-293,-206,-348,-664,-452,-494,-610,-499
18322,1800,2052,788,606,241,44,534,184,-29,13,130,-402,113,-276,-19,-153,-406,-436,-339,-325,-651,-228,-268,-324,-279,-215,-374,-649,-459,-528,-658,-558
18323,1840,1996,887,612,264,9,525,218,-47,8,106,-335,126,-272,-38,-233,-432,-378,-340,-333,-686,-302,-230,-297,-282,-247,-424,-617,-439,-544,-695,-582
18324,2064,2126,994,666,313,23,587,264,-12,15,108,-374,135,-257,-27,-239,-347,-346,-316,-326,-686,-255,-191,-280,-272,-246,-424,-580,-424,-501,-672,-564
18325,2171,2313,1054,704,362,64,661,275,3,47,166,-419,122,-294,3,-220,-377,-390,-325,-326,-659,-222,-248,-291,-290,-211,-372,-668,-445,-532,-666,-559
18326,2244,2409,1049,705,365,75,707,274,-12,41,201,-347,113,-303,11,-170,-363,-412,-323,-318,-630,-268,-220,-280,-286,-209,-353,-560,-396,-498,-637,-533
18327,2324,2428,1033,720,369,74,707,240,-29,51,194,-351,97,-293,19,-132,-378,-430,-356,-313,-614,-216,-227,-305,-284,-215,-337,-512,-405,-509,-651,-535
18328,2309,2412,1038,733,393,78,673,210,-21,55,150,-383,102,-307,16,-194,-417,-438,-345,-319,-613,-193,-247,-320,-301,-219,-336,-578,-451,-549,-654,-552
18329,2260,2421,999,726,369,49,618,213,-15,62,108,-427,98,-307,-3,-189,-489,-471,-359,-305,-620,-227,-305,-346,-294,-196,-330,-655,-490,-552,-644,-529
18330,2294,2439,1020,713,381,20,571,193,-20,32,138,-479,61,-300,-3,-223,-502,-512,-385,-321,-636,-305,-381,-397,-324,-203,-379,-791,-537,-607,-690,-597
18331,2372,2467,1077,735,384,37,561,213,-19,8,164,-471,59,-313,-13,-392,-486,-523,-396,-338,-667,-314,-397,-423,-342,-225,-440,-899,-616,-675,-718,-630
18332,2433,2525,1094,796,398,35,594,216,-4,38,166,-488,48,-304,-11,-488,-488,-514,-382,-341,-672,-302,-363,-405,-327,-234,-433,-781,-587,-652,-723,-651
18333,2497,2488,1116,821,418,73,614,184,-10,27,119,-533,37,-305,-26,-431,-525,-522,-397,-357,-704,-360,-363,-431,-355,-244,-462,-729,-552,-648,-750,-777
18334,2533,2485,1185,825,446,88,616,251,-12,37,82,-571,55,-317,-36,-298,-537,-530,-397,-369,-674,-315,-379,-445,-379,-268,-452,-752,-580,-685,-796,-785
18335,2607,2646,1191,845,459,13,682,256,0,19,87,-520,71,-327,-71,-272,-522,-539,-398,-401,-708,-449,-382,-451,-397,-296,-496,-805,-585,-676,-812,-828
18336,2609,2678,1137,863,454,31,699,219,-7,13,114,-528,66,-320,-73,-254,-560,-534,-407,-388,-720,-464,-394,-452,-391,-283,-489,-838,-582,-627,-788,-801
18337,2569,2638,1112,835,446,174,664,224,-5,30,105,-483,60,-313,-62,-235,-545,-533,-405,-391,-712,-404,-368,-444,-367,-257,-480,-860,-562,-635,-765,-781
18338,2592,2730,1126,833,457,112,660,217,-11,19,63,-500,55,-339,-74,-269,-539,-557,-418,-394,-713,-378,-377,-472,-372,-288,-463,-844,-578,-641,-771,-755
18339,2658,2731,1141,861,442,109,622,223,-33,9,45,-513,41,-330,-89,-287,-535,-548,-418,-389,-692,-298,-367,-439,-362,-273,-426,-751,-524,-568,-709,-684
18340,2685,2768,1180,876,437,88,615,254,-2,19,60,-436,67,-323,-69,-299,-471,-507,-414,-354,-680,-301,-346,-393,-331,-244,-435,-686,-490,-549,-677,-694
18341,2640,2781,1235,888,436,82,654,284,12,21,69,-483,97,-326,-47,-376,-496,-494,-387,-348,-698,-415,-351,-393,-334,-252,-472,-677,-452,-519,-684,-736
18342,2644,2797,1212,900,431,89,676,280,24,3,78,-575,92,-325,-60,-488,-555,-506,-372,-375,-746,-425,-405,-399,-321,-274,-482,-753,-440,-496,-664,-696
18343,2719,2862,1256,912,471,144,663,301,33,18,106,-529,89,-343,-89,-522,-542,-531,-393,-406,-755,-367,-416,-408,-359,-289,-465,-852,-493,-554,-714,-688
18344,2784,2866,1278,933,471,169,631,295,21,42,73,-558,85,-362,-111,-474,-567,-538,-411,-438,-790,-408,-396,-428,-401,-333,-486,-878,-556,-598,-719,-715
18345,2784,2821,1225,901,441,156,552,237,-6,4,35,-594,35,-404,-146,-439,-629,-551,-460,-486,-815,-442,-398,-446,-449,-361,-481,-855,-559,-602,-702,-687
18346,2759,2769,1196,880,470,167,514,213,-9,-2,-6,-536,18,-404,-154,-340,-608,-577,-487,-494,-792,-458,-396,-473,-471,-354,-457,-858,-594,-610,-678,-650
18347,2768,2766,1197,890,477,136,522,209,1,10,-6,-525,-2,-402,-186,-337,-631,-611,-495,-510,-813,-481,-434,-514,-488,-363,-503,-883,-641,-659,-767,-693
18348,2828,2856,1226,839,511,126,588,197,0,41,33,-631,10,-386,-150,-344,-657,-625,-501,-498,-787,-457,-472,-514,-473,-345,-483,-845,-616,-652,-748,-669
18349,2824,2910,1176,856,498,209,611,194,-24,49,62,-742,0,-390,-129,-360,-668,-645,-493,-475,-772,-463,-548,-531,-475,-339,-447,-951,-652,-648,-754,-719
18350,2790,2969,1154,914,468,201,625,174,-49,9,59,-755,-6,-379,-130,-410,-784,-672,-495,-470,-773,-456,-599,-545,-500,-346,-411,-999,-696,-693,-776,-799
18351,2707,2967,1196,963,479,191,653,224,-22,10,82,-643,25,-353,-101,-452,-787,-639,-480,-448,-758,-564,-541,-527,-462,-322,-417,-1010,-675,-670,-733,-778
18352,2731,2948,1233,938,477,232,704,251,-14,42,99,-506,32,-367,-74,-422,-703,-600,-461,-446,-767,-593,-476,-501,-451,-323,-513,-1050,-673,-690,-791,-787
18353,2772,2941,1273,932,510,289,763,251,-15,53,130,-504,54,-351,-86,-384,-598,-552,-431,-429,-776,-515,-436,-455,-423,-333,-574,-969,-637,-654,-811,-760
18354,2816,2984,1259,944,512,312,760,234,-15,49,151,-598,49,-343,-82,-366,-641,-578,-426,-417,-779,-544,-452,-474,-423,-346,-580,-932,-602,-669,-820,-767
18355,2910,3017,1202,917,507,301,732,201,-38,52,131,-673,9,-344,-92,-380,-721,-625,-467,-433,-786,-558,-566,-534,-471,-386,-600,-972,-700,-790,-896,-855
18356,2848,2989,1095,875,490,264,700,133,-63,54,108,-681,-26,-345,-95,-393,-732,-667,-486,-445,-782,-524,-617,-552,-456,-382,-609,-1012,-743,-802,-957,-894
18357,2831,3004,1071,885,493,266,677,104,-50,76,97,-703,-25,-323,-80,-388,-700,-692,-476,-423,-790,-508,-607,-550,-455,-369,-625,-1010,-763,-829,-1002,-963
18358,2824,3008,1036,873,504,251,640,87,-51,72,85,-708,-17,-325,-81,-406,-697,-675,-454,-402,-790,-551,-582,-533,-445,-374,-647,-964,-704,-793,-977,-945
18359,2767,2969,986,845,477,234,580,59,-71,79,61,-747,-49,-329,-89,-444,-777,-688,-457,-409,-797,-587,-599,-534,-419,-374,-654,-980,-695,-774,-929,-940
18360,2725,2931,951,811,466,238,541,53,-60,53,37,-783,-56,-353,-107,-530,-809,-705,-497,-432,-809,-614,-613,-554,-423,-370,-672,-1045,-713,-792,-925,-936
18361,2721,2900,1003,827,457,216,527,67,-69,52,59,-741,-59,-399,-128,-608,-818,-686,-510,-452,-841,-684,-614,-565,-468,-395,-706,-1112,-750,-816,-918,-955
18362,2742,2935,1001,839,474,202,499,88,-43,38,44,-795,-43,-399,-152,-648,-811,-665,-512,-469,-869,-724,-569,-532,-468,-384,-692,-1069,-696,-728,-822,-874
18363,2759,2928,968,837,473,226,459,71,-35,42,-44,-868,-43,-412,-196,-670,-787,-698,-518,-504,-919,-800,-567,-552,-476,-424,-755,-1004,-708,-757,-902,-1034
18364,2760,2825,955,812,469,256,422,35,-70,47,-44,-808,-84,-434,-203,-545,-810,-743,-546,-522,-912,-760,-633,-613,-513,-448,-749,-1067,-817,-902,-989,-1076
18365,2812,2760,974,832,496,232,378,46,-45,61,63,-713,-81,-401,-152,-438,-755,-722,-529,-492,-851,-724,-597,-587,-481,-401,-643,-1022,-767,-857,-912,-971
18366,2821,2781,1092,861,502,178,402,83,-45,35,102,-652,-77,-391,-140,-480,-710,-707,-515,-466,-822,-692,-561,-557,-455,-366,-612,-1017,-754,-786,-874,-903
18367,2868,2924,1156,898,492,199,507,130,-44,39,72,-666,-50,-373,-141,-558,-697,-664,-485,-457,-827,-605,-556,-543,-464,-338,-593,-986,-695,-737,-776,-825
18368,2909,3099,1167,909,509,118,621,179,-28,20,9,-658,-26,-382,-148,-553,-628,-650,-480,-455,-810,-603,-532,-507,-434,-310,-529,-870,-649,-699,-709,-770
18369,2862,3103,1129,897,514,114,659,150,-31,-3,9,-643,-19,-387,-145,-507,-633,-634,-489,-443,-785,-550,-498,-509,-435,-308,-515,-782,-622,-694,-743,-798
18370,2776,3006,1061,877,488,200,611,106,-42,18,11,-719,-40,-368,-141,-467,-684,-648,-486,-424,-780,-528,-533,-521,-437,-310,-512,-882,-687,-744,-799,-792
18371,2669,2869,963,853,458,166,537,71,-30,19,-71,-754,-63,-362,-156,-436,-726,-707,-495,-429,-789,-522,-552,-527,-447,-329,-509,-958,-738,-778,-809,-791
18372,2664,2811,969,846,473,148,527,84,-25,22,-69,-740,-35,-343,-157,-466,-731,-675,-475,-418,-784,-487,-533,-535,-451,-331,-496,-941,-756,-766,-815,-775
18373,2768,2879,1043,859,505,177,569,132,-13,31,-54,-710,-25,-355,-167,-490,-724,-670,-484,-433,-813,-517,-573,-567,-479,-377,-536,-1047,-833,-854,-931,-831
18374,2716,2867,1022,856,480,188,597,155,-19,34,-37,-679,-14,-376,-180,-480,-697,-657,-502,-457,-834,-552,-601,-592,-504,-403,-586,-1102,-875,-914,-952,-905
18375,2698,2829,1025,867,469,176,571,161,-15,13,-17,-677,-5,-381,-165,-456,-695,-670,-493,-452,-831,-484,-590,-617,-494,-395,-591,-1117,-904,-920,-939,-854
18376,2729,2909,1062,902,507,211,602,184,11,51,3,-699,2,-361,-143,-398,-681,-649,-468,-420,-789,-435,-565,-564,-475,-360,-548,-1045,-822,-844,-890,-801
18377,2705,2881,1008,878,497,136,539,176,-13,13,-38,-734,2,-371,-184,-436,-669,-657,-475,-431,-819,-604,-553,-560,-476,-398,-597,-999,-787,-834,-912,-871
18378,2707,2877,971,882,507,69,510,183,-3,8,-36,-707,-8,-369,-177,-500,-698,-685,-487,-443,-839,-610,-604,-589,-490,-413,-663,-1055,-849,-897,-968,-939
18379,2696,2854,1012,897,503,159,491,199,8,23,6,-659,8,-349,-129,-581,-734,-651,-465,-438,-839,-587,-577,-563,-489,-411,-665,-1046,-845,-905,-976,-914
18380,2690,2699,994,882,485,154,413,198,10,15,-12,-714,35,-361,-125,-721,-704,-623,-450,-429,-863,-641,-521,-520,-465,-405,-666,-938,-700,-802,-943,-880
18381,2731,2668,1038,783,469,128,332,227,-6,8,-11,-709,27,-381,-173,-727,-694,-632,-458,-470,-901,-648,-527,-536,-475,-454,-746,-970,-741,-842,-1012,-963
18382,2756,2732,1026,814,478,119,348,248,33,1,-61,-707,66,-363,-190,-554,-649,-594,-421,-443,-872,-567,-499,-508,-437,-426,-693,-948,-687,-818,-979,-952
18383,2575,2663,945,816,451,120,359,205,38,6,-79,-805,88,-357,-180,-449,-604,-553,-415,-432,-844,-612,-452,-455,-409,-386,-636,-856,-580,-707,-887,-894
18384,2475,2614,882,829,441,73,347,149,0,-25,-122,-787,64,-370,-230,-432,-658,-568,-430,-459,-836,-574,-446,-441,-425,-367,-590,-767,-510,-655,-824,-845
18385,2443,2577,862,805,421,16,354,132,-13,-44,-145,-735,21,-372,-238,-439,-755,-658,-452,-456,-828,-576,-492,-476,-439,-361,-567,-884,-543,-680,-829,-841
18386,2412,2541,825,780,415,24,382,138,-5,-36,-116,-596,24,-348,-207,-419,-723,-614,-441,-450,-790,-575,-447,-440,-408,-329,-493,-923,-491,-628,-762,-797
18387,2387,2543,790,785,392,-2,379,107,12,-49,-92,-583,17,-344,-179,-407,-708,-571,-428,-425,-735,-522,-446,-440,-383,-273,-399,-947,-509,-586,-686,-752
18388,2380,2530,796,774,371,-41,331,102,0,-50,-127,-617,36,-339,-190,-515,-768,-579,-417,-401,-744,-550,-427,-438,-354,-265,-404,-872,-501,-580,-665,-734
