,Fp1,Fp2,F7,F3,Fz,F4,F8,FC5,FC1,FC2,FC6,T7,C3,Cz,C4,T8,TP9,CP5,CP1,CP2,CP6,TP10,P7,P3,Pz,P4,P8,PO9,O1,Oz,O2,PO10
44160,173,241,199,-1187,120,433,141,176,-114,-323,225,-9,217,115,-1500,167,242,-48,123,121,-259,62,73,-121,71,-141,-186,-295,120,-70,-197,-310
44161,172,253,196,-1177,126,388,180,175,-128,-314,171,44,228,124,-1507,89,244,-41,141,130,-249,87,91,-74,100,-130,-185,-273,150,-56,-189,-293
44162,157,259,199,-1158,110,365,231,176,-151,-339,154,44,237,112,-1495,73,247,-12,146,120,-272,36,102,-59,97,-137,-205,-225,142,-71,-236,-321
44163,172,283,177,-1128,142,401,264,182,-129,-315,206,69,253,122,-1479,110,239,1,158,129,-245,50,117,-52,94,-117,-178,-200,192,-19,-194,-285
44164,165,271,175,-1141,133,406,169,183,-135,-301,205,53,250,117,-1471,79,222,3,145,151,-227,76,99,-55,100,-125,-171,-232,209,-23,-162,-243
44165,177,287,164,-1160,143,425,109,187,-142,-301,223,50,252,129,-1447,103,216,5,161,154,-229,47,96,-77,101,-133,-170,-244,165,-42,-203,-276
44166,169,266,156,-1145,133,453,247,197,-133,-327,217,63,248,130,-1477,173,186,-1,147,127,-248,41,95,-56,92,-147,-154,-266,143,-65,-189,-296
44167,163,255,194,-1128,149,455,341,203,-111,-316,161,74,247,132,-1480,194,195,21,166,140,-247,24,122,-23,103,-150,-202,-266,178,-59,-217,-421
44168,153,237,184,-1140,145,430,348,191,-128,-316,187,45,239,137,-1505,5,220,17,165,135,-264,8,127,-27,107,-167,-226,-247,178,-60,-209,-432
44169,163,219,169,-1140,123,392,315,190,-134,-326,119,50,235,118,-1533,119,239,8,163,112,-299,42,128,-46,103,-164,-219,-242,167,-70,-220,-387
44170,176,241,206,-1149,106,406,256,184,-133,-339,170,53,237,117,-1529,217,232,18,182,117,-282,58,123,-31,93,-145,-198,-232,189,-57,-206,-348
44171,193,267,217,-1116,124,414,217,218,-112,-292,245,84,283,147,-1498,249,244,32,186,162,-222,124,145,-11,122,-112,-126,-204,208,-33,-132,-287
44172,208,276,238,-1130,129,406,229,223,-118,-291,222,136,292,146,-1498,284,261,51,194,144,-206,113,136,-13,115,-126,-101,-205,210,-28,-142,-307
44173,234,295,272,-1114,121,417,295,229,-119,-301,207,170,294,143,-1484,308,279,65,190,141,-192,121,141,-10,112,-107,-64,-194,222,-15,-147,-322
44174,243,331,282,-1096,119,439,336,251,-114,-285,245,201,289,130,-1461,261,311,67,184,159,-165,148,161,7,122,-68,-9,-167,232,15,-95,-219
44175,252,349,268,-1105,128,447,350,255,-117,-286,277,134,284,135,-1493,87,328,53,177,162,-173,138,165,-7,123,-75,-12,-161,227,7,-111,-223
44176,281,367,293,-1078,145,450,369,265,-127,-303,272,-29,293,124,-1501,141,345,56,173,144,-192,176,151,-19,110,-64,-1,-145,227,0,-100,-209
44177,267,335,247,-1087,141,428,390,270,-140,-301,243,-75,290,113,-1494,327,374,55,164,147,-168,212,163,-14,102,-85,22,-149,242,14,-84,-164
44178,260,302,255,-1102,116,424,376,237,-135,-311,236,132,269,130,-1488,349,396,62,134,160,-146,258,199,-17,114,-72,44,-117,278,44,-51,-108
44179,297,367,304,-1092,146,451,358,264,-127,-287,267,177,293,149,-1465,358,419,83,144,182,-142,286,216,1,119,-35,92,-84,298,94,-12,-55
44180,295,381,289,-1107,127,430,351,275,-139,-280,269,120,299,128,-1465,280,413,91,163,177,-145,230,184,-18,94,-45,84,-109,269,63,-48,-62
44181,319,367,301,-1119,142,446,331,283,-107,-282,308,125,298,131,-1445,112,416,112,185,187,-122,258,193,5,107,-30,73,-128,271,76,-15,-61
44182,284,356,296,-1095,143,450,234,322,-116,-286,323,119,345,137,-1421,119,403,132,214,198,-120,284,202,27,128,-18,92,-102,312,99,32,-27
44183,261,339,280,-1113,136,456,237,297,-126,-276,332,134,332,149,-1412,268,412,117,195,201,-123,252,200,22,124,-13,67,-125,287,69,-16,-144
44184,247,317,281,-1120,153,522,380,257,-122,-255,420,186,318,166,-1398,368,402,92,214,218,-93,256,210,20,144,-10,82,-144,271,66,-17,-198
44185,234,305,288,-1108,137,528,386,281,-130,-236,381,208,312,146,-1433,288,388,102,211,214,-100,291,216,20,161,3,73,-100,299,105,5,-130
44186,246,371,283,-1102,161,547,474,286,-112,-243,342,227,314,169,-1450,284,374,117,228,234,-110,315,244,49,185,16,28,-79,332,142,40,-88
44187,246,366,309,-1093,148,499,503,289,-105,-261,311,218,338,164,-1459,414,384,136,240,226,-116,291,254,42,181,11,20,-100,345,146,40,-91
44188,235,339,333,-1101,141,434,424,295,-93,-293,273,215,351,167,-1428,474,422,149,220,218,-110,224,261,37,178,23,49,-91,321,148,29,-106
44189,223,313,318,-1098,135,407,338,290,-107,-294,201,215,352,166,-1460,548,455,154,227,209,-123,197,280,54,174,14,17,-86,331,140,30,-115
44190,256,302,309,-1072,127,403,299,308,-99,-294,164,244,343,147,-1449,563,460,175,259,220,-95,210,300,54,180,3,14,-87,336,133,46,-124
44191,242,304,292,-1077,133,426,282,320,-104,-287,290,245,347,166,-1453,422,449,154,265,209,-115,225,297,40,182,-6,-37,-93,327,129,51,-125
44192,274,322,341,-1087,153,480,272,309,-108,-241,384,254,360,175,-1435,382,499,173,265,225,-93,207,317,62,180,16,-17,-65,344,136,77,-118
44193,290,326,375,-1097,148,478,332,334,-87,-260,349,253,355,179,-1437,389,477,178,260,210,-85,180,299,73,169,-3,1,-66,331,126,23,-163
44194,326,362,389,-1084,160,464,416,368,-93,-265,322,231,360,160,-1445,359,487,169,263,201,-109,202,299,49,166,-10,-18,-69,304,105,-6,-139
44195,342,364,413,-1042,167,469,437,361,-103,-261,311,238,384,158,-1465,340,483,164,231,184,-148,180,298,32,150,-25,-28,-78,285,79,-27,-170
44196,336,356,416,-1035,172,481,450,351,-87,-264,304,234,374,159,-1440,395,472,171,235,202,-132,205,286,35,170,-23,-3,-85,260,79,15,-180
44197,279,314,405,-1046,153,473,409,339,-76,-280,307,218,363,157,-1410,431,480,178,248,213,-119,271,271,40,184,6,7,-78,281,101,21,-125
44198,247,258,359,-1067,138,454,377,318,-104,-287,232,228,358,146,-1445,367,480,139,233,182,-122,286,252,27,166,-12,-5,-105,261,63,-51,-168
44199,235,234,365,-1074,130,471,454,317,-117,-290,325,201,321,146,-1435,232,470,115,210,169,-161,225,237,0,141,-59,-30,-110,245,31,-98,-195
44200,269,259,384,-1076,155,500,486,342,-110,-273,389,237,327,156,-1430,223,522,145,213,175,-140,237,287,21,152,-34,9,-65,279,69,-38,-125
44201,288,263,416,-1068,147,494,444,343,-113,-268,359,258,357,129,-1397,268,525,176,222,179,-109,292,382,40,156,4,32,-68,300,89,0,-97
44202,317,335,419,-1033,160,476,421,380,-113,-274,358,293,385,139,-1381,240,556,199,250,197,-100,312,400,69,169,10,68,-35,335,110,61,-72
44203,340,367,435,-1026,179,489,443,396,-96,-273,350,297,383,146,-1385,271,554,189,234,210,-92,365,330,68,202,10,105,14,339,122,29,-11
44204,353,401,449,-1043,189,494,455,390,-100,-264,369,287,374,156,-1393,428,552,196,230,233,-59,353,313,89,215,37,163,11,369,156,76,85
44205,336,399,421,-1024,179,488,447,376,-93,-251,360,309,405,167,-1398,419,578,245,256,255,-47,331,420,128,234,72,192,59,408,201,138,143
44206,300,338,381,-1026,158,454,447,393,-121,-288,332,327,379,148,-1426,227,557,223,227,213,-75,315,428,95,211,38,129,72,407,159,72,3
44207,314,351,388,-1057,153,491,432,347,-124,-273,422,321,361,137,-1368,216,594,198,222,217,-55,393,393,95,221,35,147,105,460,189,121,39
44208,272,279,347,-1089,137,474,298,311,-136,-271,434,294,349,116,-1362,353,582,168,197,210,-58,363,364,82,197,48,148,84,450,206,99,-1
44209,273,285,394,-1064,142,491,302,337,-114,-262,432,314,348,130,-1377,363,605,160,213,240,-34,382,394,99,218,26,130,119,458,203,81,-24
44210,275,287,387,-1063,154,509,425,349,-103,-264,385,315,362,163,-1363,312,591,190,231,236,-40,396,408,109,225,33,121,135,480,219,101,-2
44211,280,310,334,-1067,155,490,524,354,-105,-289,314,270,355,160,-1378,381,597,176,244,225,-62,384,411,114,216,13,110,127,475,207,94,9
44212,282,343,331,-1054,152,472,495,339,-95,-301,294,158,338,131,-1381,446,566,154,228,222,-49,379,399,93,213,41,149,112,469,230,134,56
44213,296,345,308,-1046,168,483,431,345,-91,-264,330,182,359,150,-1355,479,571,146,216,229,-23,363,393,99,228,69,162,88,476,254,116,49
44214,285,334,301,-1051,170,441,404,332,-107,-278,276,233,350,159,-1392,469,577,149,211,204,-48,337,381,80,209,46,152,79,454,234,77,52
44215,282,321,299,-1063,161,435,416,336,-122,-306,262,226,335,134,-1394,463,544,156,176,212,-77,321,373,65,185,34,126,60,421,191,74,7
44216,294,363,301,-1059,186,490,442,344,-103,-258,322,232,370,143,-1353,492,557,154,224,249,-63,361,390,90,204,41,118,58,423,169,73,1
44217,264,346,294,-1084,170,488,466,322,-101,-259,333,226,345,156,-1366,472,546,142,217,239,-72,374,362,70,212,23,114,6,392,164,69,-7
44218,233,290,291,-1117,134,458,457,306,-117,-269,312,208,314,143,-1371,406,521,144,199,197,-74,322,348,63,194,9,104,-1,348,139,19,-63
44219,219,263,280,-1121,125,433,391,297,-131,-271,333,192,325,154,-1362,405,506,132,202,199,-90,307,347,67,185,8,80,-12,345,144,28,-82
44220,181,230,286,-1117,132,438,363,248,-134,-258,338,147,310,149,-1359,434,462,115,198,194,-97,272,314,44,168,-3,66,-54,340,112,16,-49
44221,172,238,264,-1121,139,466,367,239,-138,-253,331,105,293,145,-1343,475,453,128,191,201,-114,257,290,30,159,-17,51,-44,330,101,-4,-67
44222,167,294,237,-1124,155,495,411,240,-131,-269,248,72,308,141,-1337,493,443,105,179,203,-113,275,254,0,173,0,63,-61,308,102,-15,-88
44223,138,252,218,-1126,161,513,404,216,-122,-270,212,65,303,163,-1340,458,403,83,204,206,-76,279,236,19,177,7,69,-82,292,117,22,-73
44224,168,248,233,-1114,169,509,358,208,-121,-265,324,49,286,164,-1349,361,350,68,202,200,-103,246,217,-14,181,3,43,-106,271,108,-20,-106
44225,181,286,169,-1144,154,523,377,153,-146,-260,392,78,243,127,-1328,352,352,13,146,195,-127,218,194,-41,139,-22,18,-153,245,49,-31,-136
44226,174,323,155,-1137,182,536,401,167,-152,-280,370,117,251,129,-1299,394,377,32,163,205,-99,220,222,-43,139,-20,24,-127,239,53,-38,-104
44227,215,337,202,-1121,179,522,394,182,-132,-273,311,110,257,134,-1330,365,376,52,164,173,-112,220,215,-43,123,-43,32,-134,229,52,-40,-127
44228,194,349,200,-1133,173,519,429,179,-155,-283,283,131,259,134,-1356,300,405,53,154,157,-169,176,219,-30,137,-60,-26,-130,235,24,-56,-211
44229,174,323,206,-1138,182,484,403,195,-144,-296,257,111,246,134,-1365,218,380,29,142,144,-160,184,203,-28,120,-62,-27,-135,234,34,-62,-176
44230,161,325,222,-1135,176,490,412,213,-142,-264,276,109,253,131,-1368,133,374,23,129,169,-140,197,216,-33,130,-62,-4,-146,237,25,-68,-177
44231,179,309,178,-1160,172,465,384,183,-151,-286,238,78,232,106,-1384,100,345,4,126,166,-149,174,205,-68,109,-73,-43,-159,222,3,-95,-199
44232,195,309,178,-1143,163,473,372,178,-139,-268,262,59,245,119,-1345,149,330,14,138,168,-136,86,214,-71,106,-58,-48,-158,204,9,-77,-174
44233,176,281,157,-1138,168,491,382,158,-135,-260,276,29,245,127,-1327,141,293,10,153,193,-142,46,203,-47,101,-66,-19,-168,228,34,-45,-95
44234,159,230,153,-1141,159,463,346,157,-142,-282,269,17,229,116,-1320,-89,273,-26,131,176,-178,69,179,-64,83,-89,-48,-176,201,9,-83,-148
44235,155,234,166,-1120,155,469,311,163,-141,-261,265,-7,254,118,-1319,-193,276,-15,117,169,-176,70,185,-83,88,-86,-51,-180,203,-4,-125,-275
44236,165,237,171,-1135,149,476,276,178,-147,-277,302,13,226,108,-1323,-54,310,-1,116,178,-177,81,197,-70,101,-67,-57,-186,216,9,-89,-260
44237,166,243,172,-1122,151,465,298,181,-137,-302,315,22,226,111,-1346,193,333,5,121,177,-156,98,206,-63,108,-62,-53,-161,199,17,-110,-249
44238,170,237,172,-1120,150,493,288,177,-136,-297,355,30,254,115,-1347,337,343,19,151,192,-148,98,217,-47,111,-55,-62,-161,220,18,-105,-217
44239,144,233,164,-1144,137,475,266,169,-129,-282,317,35,248,118,-1347,398,353,22,158,179,-179,92,245,-48,110,-54,-74,-135,245,19,-94,-216
44240,161,229,186,-1130,135,465,223,181,-124,-281,275,47,275,146,-1350,403,381,45,175,189,-178,102,267,-13,135,-13,-36,-110,285,91,-22,-200
44241,156,246,178,-1141,127,488,199,193,-129,-278,247,-77,281,146,-1337,303,369,44,192,212,-146,118,243,8,159,1,-24,-125,289,117,31,-151
44242,171,255,178,-1130,150,492,243,188,-122,-281,245,-111,279,136,-1345,178,354,44,175,213,-133,102,234,0,158,0,-29,-148,293,111,34,-164
44243,191,257,178,-1116,163,474,327,204,-136,-285,228,84,278,139,-1359,166,400,64,170,191,-175,101,270,-5,152,-42,-102,-133,267,21,-116,-197
44244,210,300,165,-1111,148,457,402,230,-139,-288,216,86,307,142,-1395,244,402,84,171,178,-207,86,286,11,134,-71,-133,-124,235,-22,-171,-256
44245,205,304,188,-1108,151,439,378,213,-125,-287,226,92,306,128,-1425,273,378,99,167,163,-205,65,278,13,138,-59,-111,-131,265,30,-86,-261
44246,151,287,160,-1121,162,441,379,209,-108,-301,245,168,294,136,-1431,315,399,101,197,182,-207,106,278,40,163,-46,-78,-112,299,61,-82,-215
44247,137,255,138,-1131,149,446,381,200,-115,-290,228,139,292,133,-1425,322,377,83,200,184,-199,122,267,24,157,-20,-75,-136,275,42,-90,-228
44248,157,241,168,-1135,133,443,307,195,-131,-284,243,130,290,117,-1402,318,344,78,196,205,-177,139,267,19,155,-12,-43,-114,295,63,-73,-194
44249,205,253,228,-1122,149,478,275,214,-108,-259,281,74,315,145,-1374,375,363,72,210,225,-144,142,288,53,174,9,-19,-68,331,120,47,-135
44250,259,319,283,-1112,153,510,324,210,-121,-251,290,35,325,150,-1349,372,411,91,199,224,-127,125,284,53,190,40,-41,-91,344,133,31,-174
44251,277,378,310,-1093,165,516,378,223,-111,-237,324,110,328,153,-1313,386,410,105,248,269,-100,176,285,93,224,67,-8,-96,356,168,50,-139
44252,261,350,280,-1095,161,502,337,224,-118,-259,234,133,327,151,-1302,345,384,111,242,262,-100,166,295,89,267,61,-8,-103,350,150,84,-148
44253,251,325,264,-1087,156,466,283,246,-100,-245,193,130,353,153,-1303,296,386,131,258,274,-98,170,305,92,263,80,-8,-74,368,148,34,-158
44254,237,316,257,-1077,176,447,302,245,-90,-232,281,131,351,184,-1307,215,403,133,248,291,-101,142,304,132,276,91,-19,-69,380,158,-8,-144
44255,270,317,250,-1098,168,459,382,239,-92,-240,275,109,347,161,-1318,189,376,108,230,265,-118,141,293,124,272,71,-37,-94,344,161,-2,-147
44256,250,297,215,-1108,185,476,393,232,-81,-251,266,108,340,166,-1315,112,359,110,242,244,-98,143,288,128,262,81,-21,-93,368,189,33,-55
44257,256,327,197,-1103,182,482,387,229,-69,-247,303,107,352,174,-1287,72,375,121,247,246,-104,141,308,138,265,84,-17,-97,404,199,71,-66
44258,236,340,204,-1088,164,464,307,228,-82,-252,287,84,346,171,-1300,128,371,138,262,262,-134,55,323,130,274,89,-49,-91,402,205,75,-226
44259,186,304,156,-1125,158,449,319,189,-97,-273,278,42,326,173,-1326,237,363,136,251,263,-108,90,301,142,296,110,31,-74,413,243,120,-152
44260,190,291,176,-1130,165,429,353,177,-96,-265,262,51,328,175,-1336,301,328,120,241,265,-100,133,292,134,284,113,34,-95,418,274,167,-120
44261,181,220,182,-1144,130,399,326,150,-115,-293,156,19,309,147,-1400,336,302,87,226,222,-137,129,299,88,249,58,-9,-120,389,223,125,-126
44262,200,209,189,-1129,147,392,276,164,-108,-310,117,31,314,151,-1408,344,321,118,225,225,-160,162,364,104,226,31,-22,-133,376,155,19,-147
44263,185,275,199,-1133,175,411,258,179,-96,-276,257,10,323,176,-1371,43,296,100,207,231,-162,183,299,95,236,28,-26,-127,370,161,24,-140
44264,219,281,234,-1130,160,418,310,174,-101,-283,298,10,291,151,-1370,-84,262,59,195,204,-152,176,202,66,212,27,-16,-167,339,165,64,-142
44265,211,296,214,-1120,152,426,400,201,-106,-269,294,45,291,148,-1361,121,285,72,211,215,-143,177,223,57,205,32,39,-141,336,168,114,-117
44266,219,309,183,-1129,158,421,422,208,-120,-276,285,27,297,151,-1378,285,298,64,189,194,-135,179,222,28,185,12,53,-154,324,142,83,-110
44267,282,325,226,-1101,182,456,443,207,-84,-254,334,-7,307,161,-1351,312,304,55,178,206,-134,201,207,12,165,-3,42,-142,302,102,-3,-92
44268,291,317,213,-1105,170,440,403,232,-68,-278,305,-8,322,157,-1351,409,285,49,188,200,-151,194,162,-10,155,-2,35,-138,314,138,37,-85
44269,260,274,198,-1108,155,430,340,239,-88,-290,248,-52,295,146,-1342,428,271,2,179,193,-162,175,107,-33,138,-28,-14,-169,253,69,-13,-188
44270,258,244,197,-1105,161,491,282,197,-90,-266,302,-26,263,160,-1320,387,263,-13,176,219,-108,195,120,-33,145,-11,37,-176,241,83,2,-114
44271,243,255,179,-1116,165,508,259,168,-110,-285,343,-11,255,143,-1343,240,247,-43,151,185,-139,198,112,-56,114,-30,11,-198,216,32,-39,-171
44272,241,253,178,-1117,149,469,235,146,-123,-296,308,-24,252,128,-1370,175,227,-27,181,169,-165,165,133,-49,128,-28,-25,-199,227,22,-82,-205
44273,249,268,197,-1107,153,448,247,174,-112,-294,229,-20,264,156,-1405,174,235,-17,164,184,-178,161,135,-52,125,-21,-22,-222,191,16,-59,-202
44274,231,275,191,-1113,139,431,305,188,-118,-284,270,-146,262,137,-1408,92,252,-17,168,173,-172,128,126,-65,112,-34,-51,-233,165,-5,-86,-200
44275,244,271,205,-1103,133,370,332,188,-123,-285,231,-131,279,143,-1388,81,257,5,162,178,-171,136,162,-57,122,-13,-41,-197,203,12,-64,-146
44276,252,278,216,-1097,136,346,335,191,-95,-293,202,56,281,150,-1378,200,310,29,189,179,-134,203,206,-34,149,-11,4,-151,244,56,-6,-97
44277,254,275,239,-1098,143,362,309,219,-92,-286,226,90,299,167,-1369,307,363,61,192,179,-126,224,216,-1,142,11,9,-113,267,77,18,-96
44278,256,277,271,-1088,120,370,294,233,-96,-304,226,116,308,151,-1379,386,369,52,184,166,-135,267,237,-7,144,5,36,-121,265,81,18,-95
44279,269,256,302,-1097,120,348,273,210,-95,-309,188,139,294,139,-1404,465,340,54,167,155,-147,262,210,-20,140,-4,51,-102,273,74,0,-105
44280,253,233,298,-1100,125,335,274,206,-95,-311,174,117,289,142,-1378,407,347,39,147,175,-168,209,211,-16,97,-24,-20,-126,269,56,-41,-117
44281,248,238,247,-1113,120,343,236,200,-110,-308,214,75,287,140,-1376,345,331,29,137,164,-172,187,214,-44,76,-43,-65,-147,247,67,-28,-125
44282,255,223,252,-1135,120,333,220,223,-116,-302,149,10,284,141,-1411,370,345,44,124,157,-175,194,214,-41,89,-30,-54,-123,259,76,-22,-102
44283,249,201,266,-1112,125,363,209,236,-101,-296,133,34,299,144,-1387,424,374,47,120,156,-156,249,249,-27,99,-15,-9,-122,278,86,30,-72
44284,203,178,208,-1151,116,387,156,190,-125,-306,204,51,264,115,-1400,346,346,31,99,115,-187,209,217,-52,76,-59,-39,-141,247,86,31,-100
44285,221,231,223,-1157,117,378,249,190,-144,-317,212,61,259,111,-1419,275,330,26,102,114,-200,190,209,-38,71,-55,-47,-131,268,81,14,-128
44286,263,260,263,-1130,129,370,331,224,-111,-310,193,78,294,137,-1391,295,343,49,125,148,-180,267,256,-9,95,-23,-45,-103,301,99,19,-139
44287,287,286,306,-1114,114,348,370,225,-109,-320,202,71,278,130,-1395,271,347,43,137,135,-176,302,233,-12,99,-35,-62,-99,259,3,-70,-114
44288,291,275,311,-1116,92,314,335,234,-126,-358,161,75,261,114,-1429,237,376,55,136,118,-201,266,243,-18,97,-74,-72,-117,244,4,-106,-99
44289,322,296,302,-1098,149,370,315,259,-80,-309,211,97,325,152,-1391,202,400,89,189,170,-195,175,271,37,133,-30,-55,-100,310,84,-10,-91
44290,266,282,272,-1105,134,376,324,262,-88,-305,223,72,317,168,-1374,40,372,66,179,153,-221,128,263,31,143,-35,-67,-126,287,85,1,-195
44291,238,238,204,-1129,121,361,314,224,-107,-335,201,50,291,142,-1393,-10,309,44,140,134,-244,138,238,6,133,-35,-84,-177,224,64,-13,-208
44292,247,247,224,-1140,134,363,314,219,-105,-355,207,60,268,136,-1369,94,294,41,140,137,-228,158,185,-3,100,-46,-52,-197,233,45,-26,-192
44293,252,229,223,-1138,131,360,311,215,-108,-341,231,39,262,130,-1368,202,301,12,119,142,-214,142,167,-22,103,-31,-29,-214,233,51,13,-179
44294,279,255,239,-1116,148,368,306,227,-93,-309,238,38,277,144,-1365,284,315,26,120,146,-176,158,167,-22,124,11,17,-203,260,82,75,-66
44295,282,254,257,-1112,145,373,298,226,-128,-322,227,42,262,121,-1374,264,320,25,125,128,-193,159,171,-35,103,1,22,-159,263,99,73,-11
44296,291,261,261,-1083,139,386,337,248,-112,-324,295,58,280,126,-1383,184,314,26,118,130,-204,164,190,-43,95,-49,-17,-172,219,0,-77,-114
44297,298,274,277,-1074,154,404,339,255,-112,-328,287,77,281,135,-1384,263,357,39,116,135,-202,166,200,-38,85,-72,-67,-165,217,-28,-127,-198
44298,286,266,275,-1107,147,395,350,218,-124,-351,233,27,243,107,-1402,320,343,13,87,121,-216,168,160,-54,60,-93,-52,-191,192,-14,-105,-143
44299,284,277,275,-1095,166,405,354,199,-109,-342,220,52,252,116,-1395,362,340,3,94,129,-221,187,157,-54,65,-101,-61,-192,200,2,-70,-209
44300,283,244,273,-1090,168,408,330,212,-104,-318,216,51,263,126,-1350,315,333,12,107,142,-194,230,152,-43,89,-62,-5,-199,248,83,47,-95
44301,284,270,270,-1092,165,407,350,226,-128,-325,193,20,256,120,-1346,216,301,-7,104,129,-172,218,124,-75,88,-60,-19,-233,220,64,54,-99
44302,255,265,223,-1129,151,397,308,191,-136,-343,141,4,238,116,-1368,189,292,1,85,110,-215,164,122,-82,48,-107,-101,-244,166,-50,-116,-217
44303,266,226,236,-1104,175,420,277,201,-129,-334,205,22,258,114,-1374,192,328,18,91,85,-271,84,166,-68,41,-189,-244,-224,143,-140,-306,-420
44304,271,228,208,-1111,186,440,316,210,-130,-342,246,21,252,110,-1399,216,327,29,105,71,-272,96,174,-72,34,-193,-270,-198,146,-124,-308,-420
44305,258,277,220,-1113,171,430,328,216,-117,-354,229,28,259,117,-1410,265,322,29,85,73,-265,130,187,-75,16,-173,-200,-165,185,-47,-189,-295
44306,273,310,285,-1095,187,422,286,247,-94,-351,211,51,282,111,-1414,291,327,40,104,74,-270,166,204,-76,-7,-181,-169,-149,195,-59,-184,-276
44307,277,297,256,-1089,182,421,217,230,-93,-349,188,58,274,107,-1425,289,335,60,109,54,-289,200,242,-93,-19,-206,-153,-194,143,-98,-224,-267
44308,275,240,250,-1100,179,389,116,204,-110,-359,161,64,249,94,-1426,252,335,32,67,51,-299,193,233,-109,-31,-209,-146,-195,155,-74,-174,-208
44309,277,257,288,-1112,160,379,130,222,-137,-363,166,35,245,89,-1451,74,316,-1,23,37,-300,100,126,-150,-56,-213,-143,-176,160,-45,-140,-196
