,Fp1,Fp2,F7,F3,Fz,F4,F8,FC5,FC1,FC2,FC6,T7,C3,Cz,C4,T8,TP9,CP5,CP1,CP2,CP6,TP10,P7,P3,Pz,P4,P8,PO9,O1,Oz,O2,PO10
78752,701,797,330,73,180,603,134,558,174,4,342,192,479,197,53,174,242,113,84,29,-48,107,492,330,251,278,466,254,449,194,-327,59
78753,697,790,368,75,154,601,151,588,181,-4,339,221,489,190,28,166,244,137,101,36,-49,9,477,336,263,273,463,253,457,184,-348,-10
78754,672,747,355,89,151,596,92,601,179,4,310,226,507,188,15,17,218,139,105,34,-39,326,483,367,281,306,508,247,466,192,-390,-20
78755,646,728,315,78,176,594,60,590,188,-9,333,229,487,205,64,46,289,153,92,47,-10,274,503,364,304,308,512,271,473,204,-379,15
78756,643,697,331,84,165,576,34,556,197,-8,353,270,478,205,68,161,295,156,89,50,2,247,501,377,322,316,528,263,479,216,-339,36
78757,657,695,334,59,142,561,25,542,162,-26,323,264,465,172,23,233,248,136,81,31,-11,271,495,362,312,301,519,250,459,216,-331,20
78758,678,701,329,90,151,583,98,574,179,-42,312,302,491,183,15,278,247,142,83,56,-15,289,517,377,331,323,514,261,480,220,-331,23
78759,652,714,312,101,174,577,133,582,198,-22,333,302,503,203,58,261,269,125,99,68,19,350,488,388,334,331,469,223,475,206,-339,14
78760,615,657,268,49,124,556,75,557,156,-41,325,259,476,169,28,185,236,92,71,20,-14,311,413,341,277,280,425,213,447,205,-353,35
78761,628,651,285,64,140,574,36,583,188,-32,319,259,495,208,26,194,259,113,108,10,-13,265,452,350,286,268,455,269,469,226,-356,67
78762,608,654,321,50,136,546,-9,588,189,-10,323,251,472,200,26,221,195,98,68,13,-38,290,438,334,256,279,497,246,438,200,-365,59
78763,589,633,301,40,141,546,-50,581,195,-10,376,243,468,191,46,245,160,101,50,12,-25,271,410,316,244,272,518,223,399,140,-388,11
78764,582,597,295,52,131,552,-103,571,198,-27,358,232,466,206,30,226,211,109,57,8,-27,246,414,306,237,256,515,219,383,139,-377,27
78765,519,522,266,47,122,538,-57,563,198,-4,305,200,465,208,33,210,181,93,78,13,-22,274,405,300,248,289,540,214,383,152,-357,74
78766,467,474,251,38,109,490,-35,542,197,-1,262,194,467,186,9,162,190,75,64,30,-21,290,410,283,244,317,575,248,396,172,-346,78
78767,492,529,264,64,140,513,-3,552,191,6,277,203,490,204,19,100,164,73,35,41,6,317,405,295,246,331,508,245,385,173,-348,11
78768,544,576,304,49,151,550,99,570,183,12,303,211,473,191,35,99,197,77,31,37,9,282,374,270,248,308,482,233,375,145,-340,34
78769,544,587,326,44,146,561,133,575,194,18,314,219,459,184,48,67,232,89,48,36,-10,263,413,310,260,323,495,273,396,169,-335,49
78770,548,563,322,74,137,559,143,574,196,9,336,212,474,189,48,78,224,91,73,43,-2,276,407,304,268,327,504,272,392,190,-335,60
78771,495,523,305,61,117,540,147,571,187,-13,311,161,496,182,30,53,198,88,80,44,1,272,381,297,263,307,496,252,389,195,-334,55
78772,439,502,261,19,102,518,98,586,193,-42,303,147,492,192,18,-4,186,67,52,38,-3,285,365,291,257,307,495,233,371,169,-358,20
78773,451,490,291,47,120,525,62,614,208,-24,306,182,531,215,28,11,229,103,72,48,6,255,391,310,281,327,475,243,380,159,-369,16
78774,453,511,301,48,119,510,50,545,189,-9,328,237,494,196,50,110,241,115,92,62,11,221,442,321,283,323,443,238,389,152,-354,27
78775,500,533,324,74,129,536,37,610,199,-10,329,273,485,192,37,218,221,123,63,65,-8,303,426,323,249,299,467,216,363,134,-352,26
78776,475,511,295,69,117,527,22,615,181,-30,320,272,468,177,21,255,199,99,58,32,-24,321,410,309,243,270,437,217,362,106,-373,35
78777,447,521,306,34,121,555,49,562,173,-19,375,317,453,158,50,211,216,109,36,31,-27,154,407,297,230,269,413,222,345,100,-405,-3
78778,417,485,280,-4,108,550,34,555,165,-21,391,286,444,160,35,120,129,115,18,30,-41,201,389,293,216,261,415,183,320,74,-442,-38
78779,391,443,202,19,103,551,22,519,187,-21,361,294,470,195,54,68,192,126,44,62,-5,238,410,345,247,283,467,198,360,98,-425,-28
78780,374,435,183,5,108,535,32,543,203,1,358,296,489,212,100,125,263,121,103,72,9,239,446,384,287,330,528,228,420,158,-336,38
78781,397,435,243,5,106,515,-4,526,189,-23,302,264,471,184,63,190,226,111,87,61,-2,236,424,346,255,315,541,216,391,158,-352,53
78782,399,429,271,45,119,514,-14,546,192,-20,306,246,481,170,60,263,237,118,53,74,6,284,447,359,231,332,553,242,410,158,-341,65
78783,392,439,252,30,106,521,18,567,180,-32,332,245,472,172,48,313,250,94,48,58,30,358,458,340,240,334,560,266,439,155,-329,94
78784,417,466,276,11,97,538,54,556,181,-23,349,224,453,164,55,356,230,89,-4,42,42,127,443,320,231,334,562,264,426,183,-290,163
78785,424,475,296,19,105,523,48,569,197,-29,337,221,457,163,64,317,261,116,-16,71,56,239,450,337,236,361,616,254,459,210,-262,176
78786,430,448,336,21,105,526,7,587,204,-38,338,237,495,168,59,271,298,127,9,79,42,454,488,384,256,371,612,308,495,230,-276,46
78787,417,423,329,30,105,518,36,598,204,-27,334,262,507,180,49,273,293,144,37,76,58,355,489,386,287,396,626,320,514,258,-243,137
78788,393,398,332,34,113,523,54,649,215,-32,310,318,514,199,72,257,267,164,63,99,108,400,528,418,317,433,666,352,565,292,-178,231
78789,368,371,312,18,110,511,29,609,202,-34,287,326,502,194,84,243,285,156,60,99,93,397,518,428,314,421,667,364,561,287,-189,163
78790,381,363,319,12,100,515,18,604,230,-9,303,358,508,198,96,208,318,147,61,100,106,386,509,413,314,444,688,377,557,285,-193,208
78791,388,359,353,20,82,474,-20,601,195,-52,300,394,492,159,57,131,278,140,21,63,59,380,469,369,269,363,600,302,483,208,-288,82
78792,407,365,340,52,73,463,-89,582,193,-67,277,365,483,151,42,79,240,109,37,63,54,384,459,360,258,351,562,314,483,226,-302,45
78793,410,374,290,66,83,489,-110,606,202,-66,317,384,487,160,66,104,223,117,47,53,82,347,488,348,251,384,567,330,491,216,-280,102
78794,367,372,215,44,92,488,-62,625,196,-50,305,410,472,168,55,188,294,146,42,56,86,382,508,357,270,393,630,344,497,223,-272,118
78795,398,405,239,32,120,503,16,627,196,-49,325,426,485,166,75,264,337,161,53,66,98,403,517,398,289,397,696,371,513,237,-258,134
78796,383,406,236,6,99,507,51,593,191,-46,326,366,484,161,77,318,332,151,28,75,81,343,493,382,294,381,650,342,496,219,-290,158
78797,380,375,231,22,110,495,57,638,210,-41,322,313,496,169,79,335,278,133,15,69,71,391,486,352,303,369,579,322,458,200,-327,63
78798,379,386,275,36,109,496,79,619,200,-50,307,284,493,164,74,259,243,121,26,62,82,409,468,353,303,375,598,299,445,196,-295,58
78799,331,332,275,16,76,478,56,600,186,-51,298,243,500,158,47,128,372,149,26,60,65,364,460,348,291,378,587,307,430,197,-286,94
78800,316,331,273,8,85,478,46,605,192,-51,300,230,510,174,25,80,313,137,15,47,65,366,469,354,275,358,572,303,422,190,-330,51
78801,311,334,267,10,59,472,9,574,182,-52,315,221,480,156,32,115,270,73,5,42,79,348,429,321,265,369,547,263,413,170,-350,44
78802,298,337,259,-4,57,473,-34,547,175,-62,319,245,447,146,51,141,225,61,-9,34,53,347,409,299,236,361,532,252,396,179,-327,66
78803,282,324,262,2,80,473,-4,561,176,-57,308,240,453,157,39,161,223,65,-14,21,22,292,409,310,231,332,542,254,400,190,-307,89
78804,226,280,200,-35,50,442,-28,533,159,-66,269,229,414,127,1,139,246,20,-23,-5,-7,242,405,283,219,297,480,205,374,144,-321,47
78805,265,301,197,-4,78,468,25,552,178,-60,255,249,434,152,24,140,198,38,1,-6,-25,264,416,285,214,287,485,225,371,158,-342,19
78806,287,315,232,22,111,486,40,567,180,-43,275,249,440,159,20,69,222,85,-13,6,-3,240,399,286,209,281,495,241,389,159,-314,23
78807,269,294,246,6,99,473,-14,559,185,-59,181,233,441,143,3,35,175,61,-49,-12,0,236,398,280,188,249,447,181,368,118,-343,-4
78808,277,292,266,31,117,504,-129,577,183,-40,250,238,461,152,30,105,122,64,-18,0,-18,261,382,292,208,269,444,159,354,118,-377,-31
78809,284,314,224,15,112,502,-101,566,186,-51,312,224,458,165,18,134,164,52,-41,3,-47,217,363,286,197,234,403,154,351,94,-428,-53
78810,259,321,203,-12,88,474,-68,529,171,-95,264,200,414,137,-28,129,175,29,-68,-27,-93,89,333,285,165,198,315,131,339,45,-477,-113
78811,284,361,215,-19,75,475,-21,527,158,-72,221,198,415,145,-30,143,113,34,-26,-58,-138,139,298,262,140,172,276,96,289,5,-520,-180
78812,262,320,200,-10,86,447,-46,513,163,-74,211,194,427,145,-28,104,113,24,-20,-57,-138,105,313,251,153,162,278,101,276,11,-521,-180
78813,250,296,204,-14,77,430,-75,511,163,-98,200,175,402,138,-48,42,86,31,-42,-65,-142,96,301,240,154,138,263,78,261,-29,-568,-223
78814,249,279,171,-13,61,409,-82,520,173,-85,180,159,396,141,-74,-6,42,2,-48,-66,-142,141,284,226,138,146,242,46,204,-66,-639,-264
78815,245,288,159,-9,78,404,-68,514,158,-97,189,152,392,124,-43,-63,32,-13,-50,-55,-137,73,269,234,144,152,249,51,193,-48,-623,-230
78816,261,317,192,-14,107,435,-40,564,157,-79,273,186,419,126,-8,-62,20,5,-48,-52,-119,37,259,228,151,161,244,43,206,-42,-590,-199
78817,285,312,221,-9,84,448,-92,611,164,-79,266,227,421,139,-20,20,66,41,-29,-49,-113,65,285,233,164,175,250,62,221,-48,-570,-204
78818,266,310,192,-12,84,455,-101,489,164,-91,252,229,396,125,-34,99,179,27,-38,-59,-119,96,306,238,154,162,259,66,217,-38,-597,-308
78819,254,300,164,-6,120,487,-62,482,171,-61,271,221,426,148,-2,229,134,9,-34,-31,-66,234,299,241,171,205,337,85,268,-2,-535,-230
78820,213,295,135,-34,75,484,-85,498,142,-94,233,188,395,127,-23,189,115,-19,-53,-42,-78,212,264,215,132,190,354,90,255,-5,-523,-188
78821,260,337,186,-16,86,474,-60,550,138,-91,257,197,400,111,-6,192,130,12,-44,-34,-70,242,298,224,150,206,413,131,301,50,-473,-131
78822,277,352,232,21,112,521,-39,581,164,-74,302,240,427,136,6,212,224,53,-36,-27,-15,494,337,251,182,241,472,171,370,80,-410,-67
78823,289,358,235,23,106,521,-6,580,160,-67,292,231,414,121,11,60,271,52,-24,-16,-7,373,365,281,173,272,511,201,386,112,-364,-21
78824,273,355,206,-3,102,526,25,589,155,-63,315,236,429,111,24,-5,286,83,-28,0,30,386,401,321,176,299,585,265,448,182,-305,49
78825,317,423,245,0,124,556,78,599,175,-47,331,273,462,122,45,61,301,100,-2,14,64,348,451,355,224,346,577,322,527,261,-225,127
78826,352,450,318,49,124,572,89,616,183,-36,306,319,489,130,18,180,315,129,17,21,69,290,500,400,243,360,585,351,579,313,-177,141
78827,350,461,298,36,122,559,89,613,181,-71,333,279,493,128,32,294,321,127,23,7,61,358,487,418,259,377,689,352,613,347,-107,205
78828,346,442,302,14,128,565,109,634,175,-58,345,245,501,142,33,354,351,133,51,30,79,342,519,416,282,406,749,398,663,392,-50,283
78829,378,423,339,39,120,572,109,649,188,-46,341,283,509,148,41,292,310,172,47,34,83,104,512,439,289,428,700,420,675,412,-21,271
78830,390,423,311,15,123,562,108,664,169,-68,328,284,501,127,32,229,355,154,27,14,78,463,489,444,307,425,729,393,646,370,-47,257
78831,358,424,290,18,130,582,119,610,144,-53,358,306,467,113,58,170,372,123,-4,40,113,657,492,433,317,452,782,376,620,365,-58,254
78832,380,415,288,9,124,571,127,570,135,-47,364,304,447,119,58,21,347,121,-15,38,117,420,500,438,307,440,754,377,613,389,-50,253
78833,371,435,241,4,96,543,126,558,132,-33,379,323,443,138,79,68,338,130,12,47,133,415,534,437,313,452,781,415,655,428,2,350
78834,366,434,232,25,115,544,94,600,155,-25,358,375,467,129,89,176,353,152,35,55,142,341,571,457,315,454,758,412,658,435,-14,305
78835,377,453,246,52,146,558,61,618,163,-10,352,363,465,150,85,268,350,153,12,56,127,353,562,445,299,441,758,398,657,420,-51,231
78836,378,467,249,19,133,555,11,594,138,-30,342,327,447,129,40,325,343,126,-2,41,89,348,517,406,288,415,717,385,615,360,-87,187
78837,331,411,217,-2,133,531,-11,572,148,-33,334,314,446,135,35,297,291,111,-12,34,63,298,499,375,266,410,674,335,564,317,-139,157
78838,298,368,226,-44,112,522,-21,573,147,-35,316,272,436,121,20,268,258,89,-22,24,33,293,447,355,249,402,656,273,515,274,-197,116
78839,303,392,225,-34,104,533,36,567,153,-51,328,263,423,131,37,315,234,78,13,36,38,253,423,340,264,367,653,273,497,247,-219,118
78840,294,411,227,-45,108,545,86,540,141,-44,349,231,407,138,40,267,207,60,-17,16,56,344,415,332,262,361,608,276,466,222,-251,84
78841,317,417,266,-31,123,546,104,542,144,-33,341,237,422,123,54,222,204,68,-33,28,54,375,424,341,256,350,589,278,455,210,-270,91
78842,321,406,246,-9,125,550,92,535,165,-57,353,241,434,119,67,219,193,61,-27,19,44,350,424,338,254,331,567,276,454,206,-297,91
78843,311,394,229,-28,124,543,91,529,176,-38,376,225,434,143,86,260,179,67,-27,26,60,379,444,360,272,352,580,271,484,237,-282,127
78844,298,377,204,-50,97,535,82,499,127,-58,361,188,411,135,64,245,98,42,-40,13,45,263,415,336,250,336,547,245,457,184,-327,77
78845,305,397,200,-66,92,541,99,481,123,-50,349,206,392,126,52,275,197,50,-47,27,63,309,384,342,259,324,563,246,441,188,-333,91
78846,297,378,168,-50,75,531,82,496,130,-66,348,190,393,110,38,281,218,35,-58,20,38,315,368,308,245,315,575,235,425,170,-348,65
78847,308,390,178,-52,95,547,96,511,137,-78,366,205,403,121,46,271,249,46,-51,14,17,296,412,339,263,329,578,266,446,201,-333,81
78848,293,393,144,-46,87,544,70,501,125,-69,363,230,407,129,69,256,205,60,-66,25,28,290,434,355,259,327,542,258,471,203,-334,28
78849,336,437,177,-31,103,565,92,517,152,-60,367,231,449,155,65,255,200,82,-12,56,55,359,469,406,288,376,590,296,528,258,-275,68
78850,359,409,201,-50,102,540,66,533,145,-89,360,217,414,133,50,182,219,80,-28,23,41,325,435,387,272,344,589,273,486,204,-304,55
78851,348,435,189,-30,82,517,40,528,134,-80,325,224,416,132,36,107,201,76,-38,27,49,352,421,364,276,321,568,253,479,198,-310,54
78852,370,445,219,-29,97,532,7,538,160,-55,338,218,417,138,44,74,205,74,-14,39,38,332,442,377,283,323,547,256,476,199,-302,37
78853,383,467,238,-14,103,556,54,551,149,-69,347,255,429,124,62,97,235,86,3,32,37,306,428,382,262,315,520,195,446,176,-312,12
78854,354,474,236,-11,101,553,88,544,135,-70,357,245,436,114,40,181,237,99,-6,23,23,283,430,365,267,325,532,214,453,191,-310,14
78855,380,456,309,10,149,569,121,576,164,-48,373,262,481,129,69,242,267,137,14,42,45,333,476,400,293,356,582,231,482,221,-284,77
78856,392,464,305,34,152,568,149,607,165,-54,390,237,494,143,92,191,251,150,24,49,58,329,454,403,301,347,608,236,482,227,-257,102
78857,401,509,257,1,138,582,136,604,166,-62,409,204,474,129,80,28,224,109,0,42,73,335,417,409,285,341,584,241,484,237,-241,107
78858,428,519,262,24,142,612,144,602,183,-25,420,218,510,149,81,-47,249,153,34,57,94,384,466,444,294,363,563,276,551,298,-214,137
78859,426,527,295,39,135,634,212,588,204,-27,463,254,525,168,116,56,275,185,68,93,111,350,515,465,321,383,587,344,611,328,-155,196
78860,372,491,243,-2,116,619,223,532,161,-49,445,265,456,142,113,145,263,109,7,73,68,316,505,435,299,374,608,342,594,320,-172,180
78861,359,490,228,-15,95,603,170,531,146,-34,414,294,423,128,90,275,289,106,-3,63,80,343,533,427,316,397,682,344,604,315,-178,193
78862,406,524,234,16,126,630,186,552,154,-26,443,286,433,141,96,382,242,97,20,79,105,358,518,430,322,405,702,347,604,306,-174,192
78863,416,537,236,1,136,615,198,558,143,-29,430,297,425,121,93,426,265,106,8,64,99,345,510,406,301,380,654,308,571,262,-196,135
78864,438,521,244,15,141,616,227,605,152,-26,435,327,453,152,110,429,372,152,36,89,131,399,562,425,337,438,671,356,600,325,-167,194
78865,435,515,286,34,136,613,206,620,185,-1,436,327,470,170,126,424,345,149,20,103,166,490,553,452,345,428,734,377,633,343,-146,236
78866,439,503,298,26,139,613,179,607,177,2,442,326,473,159,115,434,345,157,46,118,161,492,553,444,347,440,732,396,641,342,-123,218
78867,410,461,241,0,112,570,128,573,143,-49,403,288,439,119,77,372,337,134,13,52,111,447,538,421,314,413,684,400,628,331,-144,212
78868,455,536,295,63,146,636,228,611,184,-20,456,312,461,159,106,322,303,134,38,86,140,509,535,432,340,405,690,374,618,326,-166,215
78869,458,550,306,73,166,625,249,614,165,-12,463,295,458,163,111,274,257,146,24,99,183,535,542,439,353,461,750,384,625,353,-135,245
78870,425,447,261,23,111,589,187,579,140,-65,430,262,442,119,87,227,341,121,3,82,130,489,512,407,327,460,775,369,595,309,-161,204
78871,427,452,240,17,133,590,181,574,150,-30,422,284,454,133,123,247,371,127,27,105,131,520,534,425,335,458,779,414,623,325,-135,244
78872,400,421,222,16,114,590,90,562,141,-27,373,272,434,126,103,324,295,95,25,77,134,516,517,409,311,444,763,409,615,308,-140,254
78873,407,421,234,7,91,607,105,551,129,-53,426,242,410,114,72,316,257,57,-3,53,91,467,480,376,248,384,730,358,579,275,-175,229
78874,421,460,260,30,131,609,141,593,127,-62,435,260,429,117,71,364,281,94,-9,69,108,461,481,386,266,382,730,364,587,279,-151,237
78875,421,487,273,52,119,596,132,637,120,-61,399,264,434,114,72,383,237,108,-16,51,121,429,488,392,273,387,690,329,557,265,-174,186
78876,453,519,283,52,157,612,187,636,161,-29,418,312,467,154,113,381,342,133,-5,82,114,444,514,405,285,420,698,376,572,301,-162,204
78877,439,522,264,28,140,622,213,585,146,-22,435,313,458,120,111,304,364,122,-10,73,91,469,506,405,280,403,674,374,565,304,-159,203
78878,427,528,239,20,132,631,211,568,137,-29,429,313,424,138,137,200,354,105,-25,74,121,499,519,393,305,418,702,377,583,316,-137,249
78879,436,502,206,21,127,627,87,589,144,-14,477,330,443,137,123,163,362,113,-17,108,169,461,532,414,303,435,743,379,587,331,-143,244
78880,337,369,131,-18,101,564,-119,556,145,-62,430,289,454,128,107,85,344,104,-4,111,171,455,537,421,323,444,718,384,579,327,-148,221
78881,245,251,86,-9,86,528,-183,537,167,-62,354,255,471,170,116,70,365,126,4,122,160,464,569,445,355,459,665,402,610,335,-153,225
78882,280,279,169,3,87,538,-87,575,174,-31,384,242,490,172,105,159,359,147,11,118,148,473,555,478,342,438,694,419,633,340,-150,252
78883,462,468,362,46,113,583,123,656,178,-26,441,272,490,132,105,380,349,135,11,102,145,323,507,434,299,423,725,374,585,311,-167,251
78884,533,586,424,60,135,614,266,709,161,-43,470,280,489,109,92,477,350,114,-32,86,137,396,486,403,279,406,712,347,549,264,-200,211
78885,531,606,438,82,167,634,289,657,179,-9,480,382,492,156,106,506,444,132,-23,132,169,676,554,431,307,452,808,409,613,337,-106,304
78886,507,546,429,76,184,622,299,630,190,11,487,427,512,165,128,506,454,138,17,119,186,574,579,462,328,469,813,411,654,377,-85,269
78887,408,467,382,32,123,597,278,607,157,-30,445,366,473,143,105,458,380,107,-5,78,179,547,528,441,289,453,736,353,598,349,-119,275
78888,362,429,313,5,105,595,252,601,161,-41,455,350,447,159,119,399,356,127,-10,105,186,572,537,434,313,464,756,365,625,372,-82,296
78889,299,363,267,-6,100,577,234,570,160,-36,452,311,440,180,136,366,300,108,-18,102,185,555,497,430,319,481,789,362,615,384,-37,296
78890,241,330,231,-24,75,584,221,564,162,-35,442,291,450,161,125,392,314,109,3,113,181,547,501,407,324,475,803,346,605,382,-40,326
78891,143,272,148,-49,78,568,166,541,150,-58,421,262,436,151,97,404,378,82,15,101,162,501,484,440,312,488,808,336,613,391,-35,322
78892,87,236,70,-72,65,558,156,507,149,-50,403,271,439,179,89,370,339,69,9,83,153,489,492,437,324,482,781,355,610,385,-23,318
78893,127,257,138,-43,78,567,171,537,150,-32,436,299,426,153,81,298,392,88,-45,54,94,493,472,404,282,418,698,365,556,278,-182,191
78894,192,334,214,-39,84,600,181,577,151,-34,462,287,418,147,82,258,322,81,-48,32,103,522,462,389,271,391,696,366,553,293,-201,232
78895,148,307,135,-50,72,593,168,548,153,-37,454,251,415,148,123,208,330,73,-52,57,131,491,452,412,307,427,706,384,587,345,-167,262
78896,52,204,51,-82,70,586,125,529,144,-6,465,254,422,186,115,212,353,86,-13,105,154,502,486,464,366,464,739,432,654,422,-83,306
78897,37,235,49,-102,63,574,179,527,149,-6,480,249,430,167,112,294,413,95,11,99,160,501,523,469,358,457,747,462,676,429,-61,297
78898,73,322,71,-78,86,593,250,543,147,-1,507,257,434,149,162,372,414,110,-14,118,167,531,535,461,341,472,797,479,702,450,-44,363
78899,96,355,142,-84,77,596,289,556,150,12,516,269,436,158,172,441,362,126,-2,122,197,604,506,435,342,508,846,453,702,433,-48,396
78900,17,261,70,-122,60,558,221,535,136,-5,471,252,426,159,125,412,335,114,15,104,179,579,472,446,345,488,798,399,645,402,-79,351
78901,-112,137,-45,-134,16,503,166,501,135,-18,435,248,428,165,108,383,425,122,20,124,210,539,515,472,395,509,827,433,682,446,-10,368
