,Fp1,Fp2,F7,F3,Fz,F4,F8,FC5,FC1,FC2,FC6,T7,C3,Cz,C4,T8,TP9,CP5,CP1,CP2,CP6,TP10,P7,P3,Pz,P4,P8,PO9,O1,Oz,O2,PO10
61421,584,670,445,236,83,258,-162,217,188,94,307,-97,181,76,48,166,769,-212,416,58,-99,-158,223,632,193,55,424,-188,29,-115,-107,-363
61422,528,695,449,249,98,313,-112,230,214,116,271,-193,206,97,35,137,801,-175,419,56,-99,-27,225,637,196,93,461,-107,55,-44,-21,-225
61423,444,669,401,229,69,326,-178,193,188,107,173,-256,204,74,40,130,781,-209,401,92,-87,-35,204,637,208,116,526,-118,85,22,105,-27
61424,401,613,405,219,76,378,-148,170,204,133,249,-205,190,92,73,114,739,-231,409,126,-72,-54,231,654,232,113,514,-164,111,44,129,67
61425,321,624,410,198,86,281,-169,184,203,112,268,-147,212,78,34,69,773,-231,397,87,-132,-71,240,636,192,19,387,-200,-1,-115,-84,-133
61426,313,618,379,236,73,214,-209,177,191,103,248,-177,229,71,3,30,704,-254,383,53,-158,-119,213,635,185,-43,273,-144,-6,-135,-159,-353
61427,341,623,378,284,79,225,-231,218,215,115,290,-102,262,95,64,75,629,-195,426,95,-111,-118,154,646,224,26,377,-223,50,2,35,-137
61428,317,582,288,200,42,302,-390,217,198,97,227,-71,252,66,29,80,731,-202,381,87,-152,-168,205,629,183,-5,326,-97,37,-46,-38,-182
61429,275,555,224,154,22,302,-484,195,194,101,202,-98,230,71,-14,65,674,-226,359,36,-228,-294,250,585,116,-115,194,-274,-125,-295,-347,-430
61430,265,443,271,159,12,36,-228,265,230,67,263,-94,254,84,21,100,563,-161,401,48,-222,-470,214,593,139,-127,148,-481,-163,-348,-410,-494
61431,224,366,285,206,17,78,-259,310,238,88,269,-89,259,105,21,-38,538,-224,408,31,-238,-386,194,564,121,-152,140,-490,-175,-331,-383,-434
61432,142,284,200,178,29,130,-455,245,239,76,181,-96,247,109,22,-178,551,-280,423,20,-262,-292,130,560,139,-148,141,-496,-157,-259,-328,-335
61433,68,171,146,122,10,162,-507,192,231,76,162,-161,230,104,26,-285,533,-285,410,41,-294,-410,43,546,126,-185,130,-442,-129,-231,-349,-364
61434,17,146,193,129,-2,222,-518,187,239,75,147,-236,252,93,-4,-341,441,-181,422,7,-343,-477,-120,517,88,-252,64,-471,-200,-371,-511,-544
61435,-17,113,154,120,-31,229,-530,186,241,68,133,-368,263,91,-29,-280,385,-199,398,-19,-390,-485,-159,538,98,-279,34,-518,-215,-368,-460,-440
61436,59,82,114,99,-56,106,-540,150,216,42,130,-622,204,85,-50,-249,393,-410,379,-28,-412,-464,-137,518,106,-247,41,-448,-196,-343,-441,-365
61437,102,91,149,119,-26,163,-512,159,237,53,112,-506,200,100,-40,-209,498,-401,397,-2,-408,-502,-133,496,112,-215,-2,-403,-186,-364,-498,-476
61438,22,109,122,83,-47,144,-531,149,231,50,86,-328,223,105,-23,-226,463,-346,405,12,-449,-554,-79,529,125,-265,-137,-281,-156,-330,-500,-607
61439,-75,92,78,90,-68,96,-583,193,209,46,38,-210,216,113,-57,-250,433,-314,381,-7,-504,-609,-83,531,121,-338,-292,-458,-205,-405,-605,-889
61440,-76,142,102,75,-70,40,-603,154,200,57,-5,-290,166,111,-84,-220,456,-370,383,-10,-437,-632,-130,539,128,-292,-222,-652,-247,-436,-617,-985
61441,-15,126,118,49,-52,111,-583,115,218,83,67,-371,188,119,-29,-228,494,-375,409,24,-401,-609,-147,554,157,-235,-164,-574,-232,-448,-571,-872
61442,0,53,109,76,-29,158,-582,136,231,96,139,-248,182,132,4,-220,503,-376,437,34,-438,-606,-183,522,145,-270,-224,-576,-273,-501,-691,-1014
61443,-57,68,100,40,-37,154,-546,78,196,67,136,-238,135,121,31,-245,483,-386,422,48,-385,-615,-171,523,167,-199,-172,-591,-219,-337,-468,-743
61444,-53,202,101,37,-51,35,-583,90,209,76,95,-190,174,130,51,-252,544,-321,452,86,-373,-585,-96,585,222,-120,-94,-415,-90,-218,-294,-574
61445,-33,218,86,95,-53,15,-505,88,211,76,132,-205,185,152,74,-172,638,-270,493,129,-334,-503,4,637,249,-87,90,-118,10,-220,-374,-614
61446,5,128,73,129,-54,57,-510,112,210,73,106,-157,202,150,46,-154,699,-261,519,140,-266,-481,80,655,264,-43,188,11,77,-159,-328,-612
61447,47,191,143,147,-44,76,-451,97,209,74,131,-90,193,136,56,-122,595,-272,465,127,-262,-508,19,595,245,-43,107,-343,-47,-233,-383,-744
61448,48,243,185,20,-22,75,-452,76,210,66,145,-117,202,132,42,-30,516,-275,448,112,-257,-450,-24,573,229,-40,84,-554,-135,-266,-381,-585
61449,93,223,209,25,-28,72,-453,163,212,70,163,-108,232,150,25,-40,459,-259,459,121,-231,-400,4,581,243,-18,114,-486,-117,-249,-292,-320
61450,112,199,213,114,-3,73,-415,178,216,67,175,-132,223,135,53,-62,408,-263,446,151,-166,-416,30,572,273,43,258,-350,-140,-200,-132,-87
61451,85,195,187,108,18,113,-360,150,249,81,231,-148,244,149,86,-71,443,-222,433,112,-128,-525,85,612,275,62,261,-195,-3,-77,-118,-200
61452,93,195,154,94,23,122,-360,176,269,89,308,-177,266,147,77,-145,579,-219,440,80,-137,-512,-5,619,236,6,200,-400,-51,-165,-295,-537
61453,88,201,164,91,19,93,-470,276,265,62,314,-225,274,122,36,-193,659,-224,433,62,-136,-310,20,628,251,37,312,-368,-54,-170,-261,-396
61454,117,239,189,167,26,98,-512,271,239,71,281,-175,223,103,61,-137,686,-235,430,60,-159,-165,-7,615,255,72,497,-530,-88,-125,-69,-43
61455,103,237,165,143,35,272,-614,272,221,100,183,-164,146,112,50,96,635,-263,419,93,-137,-96,-49,576,276,121,593,-540,-92,-41,149,332
61456,103,201,248,120,8,338,-683,161,207,80,144,-129,139,96,-14,131,615,-251,413,46,-192,-142,5,554,251,73,506,-532,-148,-108,57,237
61457,83,85,251,145,-11,118,-491,240,223,57,176,6,216,102,-14,109,744,-117,467,25,-253,-203,225,648,259,-2,287,-230,-37,-174,-184,-455
61458,30,22,109,157,7,175,-511,262,251,82,113,71,247,123,34,131,785,-96,480,53,-229,-183,223,694,305,30,320,-250,49,-85,-139,-356
61459,4,-100,116,132,31,193,-514,228,235,83,83,21,234,107,29,31,762,-173,458,40,-261,-267,133,649,258,-12,239,-248,-7,-205,-306,-547
61460,-47,-92,145,177,53,150,-493,268,239,69,105,-108,259,113,24,-111,725,-116,476,46,-221,-370,74,638,242,-23,224,-368,-68,-252,-308,-542
61461,31,22,191,171,50,128,-475,239,245,78,87,-127,264,131,36,-99,759,-130,498,65,-216,-352,1,635,258,32,340,-309,-47,-196,-237,-381
61462,87,100,206,138,45,126,-478,177,229,75,100,37,225,120,10,-62,736,-213,476,50,-225,-354,-34,603,267,3,320,-197,-20,-211,-248,-422
61463,79,202,228,182,64,129,-515,203,235,64,137,-172,291,135,-3,-93,606,-123,492,44,-271,-358,26,646,267,-15,269,-130,35,-149,-222,-419
61464,40,250,236,155,54,163,-518,255,240,64,138,-699,331,138,-27,-237,627,-78,508,30,-303,-375,115,674,257,-41,215,-156,51,-127,-171,-382
61465,26,300,156,115,38,137,-477,233,246,60,167,-892,274,143,-30,-310,787,-120,550,35,-334,-334,112,681,281,-44,150,-64,107,-88,-173,-346
61466,2,261,222,102,11,73,-490,183,226,39,184,-784,234,129,-31,-288,828,-176,531,29,-343,-358,115,703,297,-36,134,168,156,-58,-192,-407
61467,7,235,202,56,12,155,-492,143,222,76,237,-382,217,131,21,-268,787,-225,534,73,-320,-366,80,709,300,-2,113,-56,168,5,-154,-403
61468,47,204,163,25,2,175,-493,137,222,69,226,-18,179,137,-5,-263,776,-218,506,89,-324,-380,108,679,297,-8,108,-80,137,-18,-159,-354
61469,53,193,112,64,42,164,-478,158,231,63,246,91,174,153,-4,-253,771,-202,510,68,-325,-385,101,712,300,-37,132,-142,104,-46,-182,-388
61470,16,221,126,52,49,105,-432,124,224,46,202,120,162,145,-25,-217,722,-211,535,55,-312,-399,87,726,318,-32,137,-251,72,-79,-191,-401
61471,69,299,138,74,36,76,-435,156,220,52,144,104,183,147,-42,-107,684,-190,540,40,-318,-396,138,748,327,-12,123,-215,72,-82,-193,-416
61472,147,315,101,100,10,169,-499,158,234,59,108,76,202,161,-26,-4,587,-146,529,67,-280,-360,122,742,332,17,203,-144,122,-32,-145,-374
61473,138,266,133,118,4,219,-545,136,220,69,161,112,203,149,5,53,549,-162,538,87,-192,-423,134,769,342,26,289,-162,106,-59,-169,-399
61474,153,171,193,97,-1,232,-445,131,207,72,225,122,192,155,29,62,585,-182,519,88,-167,-402,84,705,338,36,309,-320,58,-83,-204,-480
61475,177,208,205,92,0,135,-431,103,208,76,195,22,195,152,21,-78,648,-183,493,114,-199,-363,98,702,349,29,281,-303,92,-34,-128,-327
61476,171,262,217,112,-26,153,-543,79,208,75,155,14,201,134,32,-160,667,-188,495,96,-206,-365,137,717,299,-6,248,-227,83,-25,-168,-301
61477,147,193,169,136,-13,348,-532,88,205,104,127,62,215,151,53,-109,698,-190,490,110,-201,-324,119,717,303,0,218,-92,100,-10,-138,-354
61478,75,45,143,145,20,368,-632,91,201,86,143,43,199,131,44,-139,592,-86,465,116,-241,-331,20,716,289,-30,180,-121,97,-18,-115,-315
61479,12,37,133,125,23,486,-632,82,186,83,201,7,151,114,6,-227,578,-210,425,70,-287,-360,39,677,253,-56,161,-148,83,-5,-148,-327
61480,28,17,184,157,3,318,-605,163,186,59,147,38,163,105,0,-176,631,-318,425,85,-252,-327,173,658,253,-3,226,-118,114,8,-95,-286
61481,107,63,285,158,29,-27,-398,248,247,65,184,39,236,154,78,-62,716,-199,466,142,-162,-202,189,689,324,70,380,-86,171,49,-18,-120
61482,142,114,264,142,0,14,-437,238,225,64,202,-47,210,134,72,-73,745,-247,440,143,-163,-197,122,663,304,79,400,-12,154,51,-22,-72
61483,151,146,229,87,-26,104,-478,296,208,65,189,-37,230,130,56,-126,676,-207,441,139,-144,-225,138,685,293,99,417,-18,139,36,-18,-119
61484,114,145,103,99,-14,157,-513,335,214,65,188,-115,244,123,50,-151,788,-129,435,100,-150,-247,165,681,272,84,419,-76,79,-9,-8,-119
61485,99,213,86,170,-4,99,-447,315,234,80,225,-250,231,141,68,-65,686,-126,454,128,-128,-136,290,710,290,105,495,-90,76,10,64,72
61486,115,303,185,169,28,104,-404,205,225,84,244,-189,219,136,87,19,536,-125,464,135,-60,-193,303,696,280,108,537,-361,26,3,104,183
61487,202,375,256,125,7,134,-445,191,198,71,222,-98,206,115,73,57,515,-126,406,126,-46,-256,217,665,275,93,501,-127,67,7,73,29
61488,235,416,260,106,-9,128,-416,117,208,84,212,-12,213,124,63,67,605,-183,444,163,-40,-163,75,660,283,140,564,32,148,53,55,-204
61489,178,236,232,140,7,182,-398,129,226,105,214,-37,225,137,78,-48,781,-214,462,191,-23,-90,190,706,306,203,677,187,189,117,102,-81
61490,146,207,213,144,8,201,-371,138,222,117,245,-47,191,139,125,-34,818,-260,455,190,-9,-65,212,724,317,259,730,-75,148,80,173,-40
61491,114,305,129,132,20,218,-332,133,209,110,300,-85,146,122,143,14,743,-280,407,158,-40,-49,72,640,280,236,704,-418,-7,-28,140,15
61492,125,309,34,168,38,216,-331,193,222,121,360,-109,148,127,142,110,731,-281,389,152,-11,-77,-56,621,278,209,652,-284,-36,-1,192,132
61493,173,292,114,178,37,197,-377,180,231,120,349,-19,167,140,123,202,806,-266,413,157,-23,-57,-9,653,295,202,655,-185,37,32,187,122
61494,236,342,213,145,22,270,-448,113,228,123,339,126,155,121,100,181,893,-229,427,155,-58,17,138,714,306,171,656,10,125,21,151,95
61495,224,297,298,101,18,282,-485,93,213,93,297,38,152,95,69,199,796,-235,436,128,-57,-3,176,724,305,187,687,138,200,76,213,95
61496,128,292,215,111,10,279,-400,163,217,98,300,-18,198,91,53,168,711,-228,431,99,-102,4,248,752,311,181,642,350,290,124,224,73
61497,227,317,268,153,10,211,-366,219,219,90,278,-47,218,107,62,121,778,-249,454,106,-75,45,259,770,312,192,643,257,284,140,168,110
61498,292,383,245,137,6,159,-350,207,212,66,263,-32,160,88,31,32,667,-279,431,95,-108,86,111,692,259,154,628,-201,96,25,138,119
61499,304,440,247,165,35,199,-292,202,200,86,277,27,156,87,28,8,737,-280,405,74,-96,52,51,662,237,143,634,-271,-12,-77,64,103
61500,259,374,251,144,21,189,-360,178,197,80,321,35,180,100,33,110,822,-242,426,100,-53,-45,118,710,239,121,703,-211,83,-21,86,156
61501,213,350,278,127,34,201,-389,175,208,95,288,-80,164,93,64,182,855,-248,418,106,-44,25,115,703,234,128,820,-112,114,20,100,140
61502,149,316,313,153,15,232,-402,160,188,76,182,-437,139,66,44,115,782,-338,368,61,-77,14,10,638,178,98,784,-105,67,16,115,128
61503,156,290,312,148,-2,269,-337,183,194,75,244,-360,159,88,48,89,856,-294,378,60,-122,-29,80,667,195,73,677,3,107,44,156,180
61504,181,268,337,164,9,260,-417,187,209,73,226,-180,161,51,12,86,804,-317,373,50,-175,-191,117,652,167,43,580,-97,25,-50,25,83
61505,215,241,343,199,21,345,-527,224,197,69,193,-199,217,59,28,104,792,-311,342,35,-164,-200,144,620,145,9,506,-116,-61,-201,-103,-128
61506,230,262,309,194,47,326,-481,226,207,76,191,-196,228,64,-2,96,789,-273,365,29,-177,-148,147,645,161,9,424,-35,-62,-212,-121,-164
61507,256,242,286,180,75,257,-499,169,205,70,221,-238,162,60,-46,18,810,-291,356,20,-248,-184,140,645,151,-48,325,24,7,-177,-185,-288
61508,295,262,275,174,67,332,-475,151,192,73,254,-230,130,50,-62,59,765,-288,350,-1,-264,-146,100,625,143,-61,317,3,6,-160,-176,-240
61509,262,237,233,250,61,339,-564,175,193,55,167,-198,115,34,-97,151,742,-256,331,-17,-267,-124,126,616,121,-66,287,-101,-38,-213,-213,-220
61510,226,309,228,315,45,67,-390,252,217,60,248,-91,198,84,-32,87,699,-41,377,30,-265,-129,218,675,159,-21,302,-96,9,-163,-154,-193
61511,117,288,173,264,34,10,-339,206,232,42,282,-20,192,82,-36,87,655,-201,387,30,-242,-186,370,705,185,16,343,-168,37,-121,-112,-201
61512,101,277,117,191,42,179,-453,223,202,79,277,-22,149,63,-31,-6,505,-389,373,41,-217,-188,303,654,193,34,391,-247,45,-93,-58,-43
61513,108,340,201,202,46,191,-416,184,188,86,294,-15,188,71,15,-148,590,-258,391,66,-167,-132,263,650,216,70,480,-153,64,-37,27,201
61514,147,406,278,197,57,212,-333,159,197,110,306,-12,204,83,62,-169,695,-267,398,90,-134,-103,164,643,221,94,518,-148,79,-13,115,352
61515,189,318,119,232,52,201,-352,136,194,95,309,-75,174,84,56,-91,680,-292,389,99,-146,-106,108,639,221,60,491,-38,139,12,41,172
61516,191,299,151,165,41,244,-393,72,145,63,317,-151,122,51,22,-94,540,-335,346,56,-164,-164,48,609,184,22,450,-70,84,-36,-4,-21
61517,173,328,234,141,32,352,-434,151,163,90,302,-130,123,50,13,-125,494,-339,336,57,-152,-207,19,601,181,46,462,-135,97,-28,71,-81
61518,203,353,212,143,26,360,-422,66,156,103,351,-45,93,56,72,45,718,-356,384,116,-41,-137,80,651,219,147,635,-70,186,93,235,179
61519,249,338,166,110,27,300,-355,40,136,97,380,134,57,54,77,128,913,-362,396,103,-21,-71,146,677,231,170,712,53,234,101,160,135
61520,278,375,253,156,53,254,-300,113,168,120,408,204,124,57,79,148,815,-296,392,67,-57,-28,200,702,207,94,594,139,220,-81,-202,-449
61521,270,413,316,134,65,269,-214,189,178,127,443,160,174,38,71,110,718,-269,390,69,-61,-30,200,680,190,51,500,126,175,-131,-218,-460
61522,194,306,350,82,70,349,-165,205,179,127,444,95,209,54,105,118,849,-264,375,102,-40,19,214,694,234,104,636,12,158,-29,-28,-104
61523,80,260,392,148,59,428,-141,174,182,147,364,-45,200,40,102,166,802,-264,371,87,-24,11,185,722,258,111,672,-121,122,-6,15,-74
61524,100,270,349,171,73,467,-168,164,208,129,350,-105,219,66,123,234,770,-239,414,113,-8,25,218,748,277,160,674,-91,189,46,89,-9
61525,205,264,287,125,66,472,-341,164,203,123,294,-44,233,66,102,262,755,-244,419,103,-38,50,201,740,274,182,671,-151,180,74,117,75
61526,253,360,308,113,45,484,-340,134,176,120,278,0,223,58,61,281,782,-252,379,82,-87,-24,155,738,248,129,605,-121,149,-8,-1,-4
61527,199,401,341,83,32,368,-275,172,162,114,284,38,186,53,59,333,790,-237,377,105,-92,-41,134,728,251,169,634,-9,199,63,96,186
61528,172,423,336,103,44,141,-225,193,161,98,328,-47,157,63,91,303,793,-231,418,120,-32,58,160,764,293,259,781,-7,256,196,335,479
61529,212,416,342,128,20,87,-248,175,175,93,376,-199,178,79,93,174,777,-251,406,120,13,66,148,773,313,297,863,-43,267,234,356,582
61530,261,346,338,164,21,190,-317,185,189,101,421,-321,184,88,87,132,807,-239,405,108,-87,72,139,737,271,221,765,35,269,136,151,44
61531,226,263,295,130,11,205,-317,165,188,117,465,-384,173,101,94,145,805,-241,425,119,-82,100,151,753,265,192,661,82,266,97,63,-178
61532,197,197,304,131,17,226,-223,173,187,118,430,-224,185,100,99,148,778,-229,419,134,-52,128,205,748,266,202,766,128,263,89,69,-162
61533,141,272,316,138,15,247,-166,153,183,118,415,-126,181,85,107,192,788,-233,376,112,-90,98,202,716,243,171,786,107,227,24,-36,-156
61534,111,410,300,147,-3,236,-183,156,185,119,380,-197,162,84,119,187,810,-264,391,126,-89,101,226,717,254,163,723,145,274,73,40,-105
61535,158,479,304,183,28,236,-213,219,188,108,370,-236,182,77,69,156,793,-263,389,87,-116,69,226,700,226,81,560,124,209,5,-50,-158
61536,151,456,331,186,4,199,-232,285,193,90,375,-225,210,51,44,37,733,-142,383,57,-160,-2,195,654,198,45,467,32,156,-64,-127,-135
61537,182,461,425,166,25,236,-239,297,220,91,437,-156,231,49,47,-12,718,-79,410,84,-124,-148,257,704,205,75,536,133,193,11,-42,8
61538,193,465,381,190,34,386,-268,217,203,122,486,-105,203,61,93,127,732,-144,413,85,-28,-194,309,721,245,131,654,35,244,133,134,212
61539,95,414,254,260,47,412,-335,186,200,108,472,-65,148,61,94,162,779,-199,403,72,-23,30,305,708,257,139,707,-146,267,194,245,418
61540,23,333,414,308,35,236,-123,246,210,77,423,-165,169,57,98,147,766,-219,400,67,-61,80,301,737,230,59,542,-139,222,100,84,136
61541,-40,295,299,266,42,268,-153,307,230,103,410,-135,184,72,99,46,822,-223,419,100,-120,21,303,722,246,74,494,-146,170,51,73,128
61542,32,286,165,228,36,286,-331,238,222,90,347,123,166,55,72,2,876,-174,429,97,-150,-19,318,726,240,102,491,-101,203,99,97,38
61543,58,178,180,179,30,333,-368,139,210,90,333,127,168,60,74,12,873,-95,416,78,-131,-79,162,725,221,43,381,-25,242,48,-61,-394
61544,64,47,188,180,39,408,-338,128,209,103,318,112,168,84,86,81,919,-90,441,123,-110,-25,250,774,283,98,459,168,317,113,37,-175
61545,198,141,249,132,61,508,-365,115,199,128,307,259,136,92,93,156,934,-255,446,110,-110,72,342,763,288,107,501,209,330,129,21,-135
61546,151,207,266,79,43,501,-385,97,181,117,270,369,141,94,118,148,675,-238,438,135,-98,66,252,741,280,98,530,1,242,102,5,-117
61547,98,281,315,138,24,372,-342,127,206,115,287,199,186,108,125,159,621,-170,452,145,-118,69,269,727,276,102,554,-121,177,62,38,-35
61548,114,312,323,112,-1,230,-343,158,219,103,278,35,225,118,90,127,739,-131,495,150,-136,94,417,749,300,112,543,-43,155,23,-28,-40
61549,108,365,287,60,-2,60,-298,110,181,93,276,-61,178,120,74,63,602,-196,490,161,-105,124,269,705,312,129,536,-194,141,35,23,90
61550,65,357,307,7,-22,22,-283,79,153,78,312,-26,129,114,92,-66,839,-240,464,138,-104,84,161,696,301,136,529,-27,182,49,49,68
61551,136,399,376,67,9,96,-181,126,163,101,394,8,145,112,110,69,1038,-242,464,137,-85,-11,232,713,323,157,536,249,288,90,16,-6
61552,174,392,378,92,21,152,-127,108,186,122,404,109,155,135,140,208,910,-241,495,156,-27,-26,173,705,335,186,568,164,291,118,42,-62
61553,181,373,359,76,4,205,-148,101,179,121,417,148,155,114,150,241,909,-225,469,136,-25,-52,138,690,310,181,614,85,257,76,62,-97
61554,176,393,395,105,-9,288,-108,76,175,128,409,70,118,121,146,279,840,-247,462,127,-55,43,93,645,290,168,648,-149,173,66,105,30
61555,133,392,343,61,-3,336,-132,100,160,134,400,26,137,112,166,298,726,-253,481,150,-6,145,106,620,297,178,719,-123,232,158,279,407
61556,99,415,251,98,-2,302,-166,131,174,107,398,-21,139,97,194,305,662,-256,482,169,32,33,126,626,304,212,917,-49,210,148,284,538
61557,134,407,330,154,9,292,-125,203,210,116,435,-54,158,112,195,289,568,-170,491,175,68,36,126,663,313,217,1023,-91,167,78,159,297
61558,38,253,320,164,-3,294,-209,250,198,103,426,-101,162,87,188,168,623,-240,458,131,19,56,78,615,259,153,914,-116,124,-16,-94,-221
61559,71,200,359,135,-7,238,-189,211,208,90,423,-165,206,84,167,110,768,-304,450,93,-51,89,158,602,248,76,770,1,143,-27,-117,-281
61560,114,203,426,126,-6,208,-221,211,239,77,355,-55,252,92,129,87,773,-219,470,71,-114,88,175,647,251,57,614,70,197,44,-22,-112
61561,62,285,384,147,-12,302,-251,248,240,105,393,-106,258,113,99,68,887,-205,487,93,-140,89,240,735,287,83,515,227,310,157,104,21
61562,9,316,332,154,0,383,-313,223,213,119,414,-214,136,119,87,85,888,-248,461,103,-123,63,195,744,285,83,512,160,347,194,140,-22
61563,20,283,325,127,-15,148,-183,216,238,102,427,-204,156,151,100,199,724,-219,492,141,-43,94,98,730,326,144,613,74,302,167,184,53
61564,65,302,372,71,-35,259,-242,175,222,101,420,-242,210,137,99,198,661,-215,488,112,-114,60,90,680,300,125,606,-70,198,88,162,119
61565,98,312,428,131,-7,312,-267,187,237,110,356,-174,229,140,51,269,840,-176,478,87,-150,183,175,708,290,86,583,-113,198,95,168,173
61566,27,181,411,179,-38,193,-337,181,227,61,290,-204,229,102,-16,304,872,-153,453,47,-190,166,197,677,264,15,508,-69,169,31,66,60
61567,-29,149,372,181,-22,233,-347,226,243,84,365,-229,238,112,33,203,844,-144,468,83,-155,40,264,671,283,49,547,39,221,79,108,57
61568,-31,147,397,153,3,190,-308,241,231,58,310,-159,237,107,68,80,783,-169,474,86,-161,-51,272,700,278,45,551,31,229,88,105,0
61569,46,162,383,162,0,217,-378,229,218,79,244,-105,211,97,65,-16,768,-124,471,99,-194,-60,216,716,280,43,474,-29,174,51,88,-17
61570,83,149,245,61,-18,266,-430,169,218,80,299,-62,203,104,57,-39,730,-160,462,91,-161,4,167,734,279,58,479,47,236,101,131,112
