,Fp1,Fp2,F7,F3,Fz,F4,F8,FC5,FC1,FC2,FC6,T7,C3,Cz,C4,T8,TP9,CP5,CP1,CP2,CP6,TP10,P7,P3,Pz,P4,P8,PO9,O1,Oz,O2,PO10
18415,-160,-113,190,-288,19,171,-272,357,-141,-204,86,132,280,-62,139,-116,261,-42,43,371,-97,232,546,145,304,166,393,-44,228,240,0,34
18416,-152,-142,163,-248,-4,192,-286,369,-130,-221,51,103,289,-56,121,41,243,-43,64,356,-117,189,594,160,304,166,399,-185,170,204,1,103
18417,-223,-202,109,-195,3,227,-309,392,-151,-234,73,79,278,-60,100,104,188,-39,57,335,-142,197,597,133,268,130,348,-338,89,142,-32,-135
18418,-356,-221,180,-234,22,226,-274,368,-140,-222,89,82,279,-71,128,186,214,-3,78,368,-100,219,629,152,280,148,379,-367,126,193,7,-65
18419,-342,-180,226,-319,22,224,-240,387,-148,-195,109,20,280,-71,123,185,167,-37,44,354,-99,205,442,143,265,134,376,-352,126,134,-83,-46
18420,-139,-107,262,-351,22,196,-157,374,-137,-189,117,42,273,-63,125,120,225,-42,46,371,-101,178,439,170,276,150,358,-167,134,107,-112,-66
18421,-38,-98,273,-299,37,164,-169,417,-130,-214,81,32,296,-62,143,119,238,-5,77,393,-37,212,506,164,282,179,425,-34,164,201,0,138
18422,-20,-73,320,-304,63,151,-231,439,-118,-217,70,46,317,-44,124,166,194,2,81,384,-44,286,524,186,290,192,494,-111,198,261,59,285
18423,-1,-69,304,-321,51,208,-215,451,-123,-188,105,123,321,-53,101,164,249,11,89,370,-86,274,609,201,287,159,476,-9,233,264,27,170
18424,-90,-98,242,-246,62,226,-243,455,-121,-195,114,132,316,-78,95,122,252,-8,59,333,-99,213,611,182,275,134,436,-16,204,222,-14,45
18425,-82,-91,221,-197,85,258,-245,482,-121,-185,111,123,292,-84,92,108,191,-35,34,315,-127,276,436,139,244,126,415,-299,78,173,0,184
18426,-111,-184,218,-198,74,279,-214,456,-129,-180,103,76,284,-89,75,52,168,-51,11,318,-167,302,392,102,223,107,380,-352,57,134,-49,143
18427,-119,-260,228,-226,71,289,-178,383,-121,-182,62,122,297,-77,90,6,196,-16,13,323,-165,252,480,125,225,85,374,-180,144,189,-71,-96
18428,-28,-149,233,-254,88,216,-149,395,-120,-179,44,130,314,-66,101,4,200,13,39,329,-123,225,468,121,250,120,408,-270,142,201,-26,2
18429,-41,-78,208,-283,55,222,-205,383,-157,-195,22,90,298,-75,89,-29,195,21,28,307,-142,182,471,121,212,69,330,-486,43,78,-147,-156
18430,-13,-41,258,-327,47,302,-193,415,-150,-185,73,136,306,-61,102,79,184,-4,1,302,-127,223,415,53,181,22,306,-409,-73,-61,-270,-393
18431,-16,-52,334,-301,58,257,-197,427,-149,-188,120,174,288,-62,136,199,147,-63,-1,338,-70,207,371,27,204,93,387,-464,-85,-4,-129,-64
18432,-82,-52,349,-298,25,206,-278,409,-142,-197,133,153,266,-52,123,163,127,-112,-8,322,-102,224,364,43,194,88,366,-522,-59,40,-99,26
18433,-157,-92,303,-282,28,289,-316,440,-166,-188,175,140,287,-46,127,131,139,-81,1,318,-118,225,405,56,192,82,302,-389,-18,40,-159,-248
18434,-255,-86,304,-245,29,292,-287,466,-135,-171,196,121,300,-55,157,139,177,-17,11,336,-118,222,521,73,223,85,312,-351,15,75,-180,-343
18435,-357,-86,350,-253,42,202,-227,418,-146,-188,206,40,288,-52,141,182,138,-41,-1,322,-131,244,434,69,227,94,351,-347,25,118,-79,-151
18436,-343,-140,343,-265,44,275,-198,388,-179,-188,217,-60,254,-67,144,175,64,-64,-22,324,-97,199,322,43,213,99,382,-397,-2,122,-70,-143
18437,-237,-335,375,-253,42,373,-218,448,-137,-168,216,-13,256,-73,171,144,112,-5,0,317,-87,195,426,62,228,107,412,-392,7,121,-79,-134
18438,-133,-242,449,-220,58,224,-157,536,-126,-180,175,146,312,-65,155,105,180,59,2,326,-92,209,647,113,237,120,400,-514,27,97,-114,-126
18439,-110,-106,413,-225,58,219,-184,534,-129,-184,162,171,308,-65,146,0,233,0,30,333,-101,119,591,125,245,140,408,-418,51,104,-104,-249
18440,-47,-34,379,-230,77,214,-160,519,-107,-177,186,143,309,-65,158,-108,207,-57,3,324,-75,100,359,78,250,145,418,-155,29,72,-133,-251
18441,-49,-55,318,-202,70,365,-161,479,-129,-169,120,165,294,-71,122,-99,121,-22,5,299,-126,99,386,102,261,84,363,-235,79,124,-88,39
18442,-34,-51,274,-187,52,390,-183,468,-134,-177,114,218,285,-93,91,46,69,-2,12,305,-178,115,562,111,231,81,342,-366,71,147,-45,143
18443,26,-63,377,-196,70,316,-160,504,-118,-155,142,166,313,-70,112,105,207,23,39,321,-127,132,675,129,257,112,387,-288,105,167,-18,121
18444,-67,-88,420,-182,68,287,-137,473,-131,-166,146,40,248,-52,114,131,231,-64,24,322,-118,112,371,99,245,126,352,-262,91,99,-82,-162
18445,-84,-75,400,-220,78,240,-163,468,-138,-180,146,72,232,-80,99,141,160,-140,0,302,-190,123,258,63,213,54,245,-362,20,20,-211,-356
18446,-56,-155,381,-296,68,179,-225,461,-182,-211,97,154,245,-96,72,93,185,-94,-25,286,-239,98,459,67,215,25,203,-305,15,33,-203,-198
18447,-65,-169,343,-227,68,274,-227,460,-158,-192,161,114,264,-76,104,24,182,-39,-11,301,-195,85,516,113,246,79,263,-366,61,79,-122,-116
18448,-48,-102,310,-193,70,282,-229,457,-149,-205,73,42,267,-73,94,-131,150,-84,11,309,-174,116,388,97,245,95,285,-299,74,99,-92,-91
18449,-22,-63,278,-247,48,217,-243,325,-196,-234,-9,20,225,-73,72,-209,127,-128,-24,298,-166,195,314,41,219,76,294,-212,60,119,-96,-53
18450,-55,-40,303,-281,39,239,-282,321,-197,-211,33,51,228,-63,49,-179,145,-80,-19,281,-255,165,493,59,207,23,220,-301,43,61,-146,-127
18451,-50,-40,334,-285,55,247,-223,336,-149,-192,72,148,286,-44,85,-23,238,42,13,314,-172,89,772,153,249,58,307,-397,120,95,-108,-89
18452,-48,-46,347,-337,61,251,-164,338,-148,-185,133,69,240,-72,92,114,170,-71,-15,306,-138,38,488,81,223,75,390,-237,106,127,-79,-143
18453,-10,-43,303,-356,43,281,-199,357,-178,-188,152,-12,210,-80,79,148,148,-158,-33,284,-175,66,260,38,202,52,347,-163,63,122,-97,-153
18454,4,-51,306,-241,57,328,-214,400,-163,-179,185,56,231,-45,98,161,139,-142,-11,301,-133,140,350,57,229,65,328,-280,53,109,-109,-35
18455,-31,-102,256,-203,34,291,-247,417,-173,-199,157,85,226,-79,84,97,132,-123,-17,305,-176,130,413,61,227,65,318,-219,81,114,-102,122
18456,-15,-44,153,-246,23,176,-261,373,-174,-224,126,80,214,-89,83,113,156,-118,-2,301,-153,169,437,80,237,86,402,-163,134,197,10,356
18457,10,-29,173,-231,48,221,-234,361,-172,-222,106,114,218,-89,74,129,157,-69,-5,290,-185,126,450,103,239,63,342,-267,119,120,-100,38
18458,-76,-99,226,-247,41,242,-238,343,-165,-220,94,11,234,-108,77,83,158,-70,-24,273,-192,148,437,78,188,9,275,-326,62,17,-230,-382
18459,-322,-165,265,-242,38,201,-271,322,-168,-221,63,-50,190,-130,61,15,180,-96,-44,260,-178,196,437,43,175,28,332,-199,39,42,-170,-221
18460,-376,-126,274,-258,42,150,-256,361,-158,-217,63,-23,203,-101,45,16,195,-93,-49,266,-168,172,452,67,196,44,388,-161,86,94,-121,-154
18461,-179,-120,306,-265,63,278,-200,389,-159,-191,90,7,240,-79,76,114,201,-79,-20,288,-138,209,452,88,209,80,428,-144,98,104,-116,-130
18462,3,-178,313,-310,35,334,-216,371,-187,-198,94,-22,221,-107,73,128,191,-55,-15,283,-145,216,446,68,181,40,417,-229,58,85,-150,-112
18463,13,-158,309,-280,35,360,-222,380,-184,-189,95,0,229,-102,77,142,198,-43,-17,286,-143,227,453,76,206,47,381,-270,45,68,-159,-77
18464,-33,-128,358,-264,58,381,-192,433,-134,-173,147,81,266,-79,85,146,215,-27,-2,305,-144,226,491,101,217,61,356,-330,59,97,-104,-10
18465,-69,-150,360,-279,51,379,-218,431,-136,-171,135,91,244,-74,82,128,192,-64,-2,304,-157,166,483,78,201,58,347,-338,66,97,-104,-20
18466,-89,-101,339,-288,49,343,-197,396,-156,-194,125,80,236,-72,72,101,158,-91,-4,287,-154,151,477,79,204,61,349,-275,65,67,-125,-75
18467,-75,-66,366,-277,58,298,-220,413,-154,-198,154,78,253,-68,99,-57,208,-48,-4,310,-98,164,490,94,218,82,350,-221,77,81,-132,-56
18468,-76,-129,350,-263,46,238,-252,439,-153,-224,111,65,229,-59,79,-214,192,-49,-5,304,-111,229,482,95,210,69,352,-256,68,103,-122,-30
18469,-152,-219,255,-252,44,222,-281,415,-168,-218,97,22,223,-80,49,-107,158,-46,-12,276,-159,298,457,73,217,72,361,-292,46,92,-100,33
18470,-197,-164,201,-224,32,159,-321,391,-157,-221,57,41,249,-71,47,119,186,-21,4,295,-154,259,522,97,232,84,418,-188,115,160,-19,131
18471,-218,-125,208,-243,32,180,-391,399,-114,-211,49,82,262,-42,71,191,172,-43,20,325,-127,178,511,109,261,125,460,-217,109,148,-6,103
18472,-205,-146,238,-227,39,228,-399,378,-139,-212,64,69,246,-29,93,98,97,-73,17,326,-102,208,453,92,242,148,472,-319,94,171,37,171
18473,-257,-243,282,-199,30,193,-293,399,-154,-217,83,9,250,-62,78,30,142,-32,13,301,-118,255,461,88,219,112,416,-305,89,130,-43,-32
18474,-266,-309,238,-228,47,213,-297,418,-157,-230,88,-90,245,-82,61,8,117,-14,-24,285,-149,161,423,63,200,71,327,-343,19,61,-149,-204
18475,-225,-143,204,-255,54,90,-275,414,-151,-230,59,-80,222,-88,58,29,0,-43,-37,271,-169,122,401,34,181,70,344,-352,11,84,-121,-103
18476,-156,-104,271,-229,60,154,-221,450,-160,-228,69,73,212,-105,38,1,62,-50,-52,265,-174,145,428,16,175,34,326,-331,7,43,-158,-131
18477,-102,-9,345,-167,72,312,-157,451,-164,-214,122,111,198,-105,55,21,173,-127,-65,269,-167,156,433,3,164,56,363,-290,-7,53,-134,-51
18478,-134,16,316,-216,54,219,-161,401,-168,-235,60,72,185,-124,58,94,138,-99,-64,258,-164,126,414,-10,165,71,358,-256,-14,32,-145,19
18479,-251,-59,202,-292,20,246,-230,352,-188,-246,81,29,165,-126,62,70,63,-116,-71,268,-146,109,366,-17,156,67,365,-344,-23,54,-111,55
18480,-301,-72,145,-284,28,278,-191,336,-189,-208,136,27,187,-104,104,56,41,-137,-55,269,-132,172,357,-16,171,94,359,-300,-28,59,-108,-12
18481,-328,-82,120,-291,34,260,-153,334,-188,-213,113,-1,180,-101,99,33,61,-169,-76,260,-178,169,355,-24,155,55,341,-234,-16,73,-140,-62
18482,-385,-120,89,-290,2,205,-151,309,-191,-249,92,-51,151,-117,70,-35,71,-172,-101,237,-202,172,353,-42,130,21,288,-239,-45,46,-181,-128
18483,-403,-145,153,-272,15,244,-171,341,-175,-223,101,-3,164,-113,101,48,117,-137,-60,256,-155,163,401,-4,163,35,330,-199,-17,68,-104,22
18484,-424,-193,217,-239,26,279,-188,362,-149,-214,114,58,193,-90,107,89,153,-96,-68,253,-160,137,398,-15,141,11,322,-165,-5,43,-150,-105
18485,-476,-317,195,-260,4,246,-258,362,-168,-232,102,47,157,-110,83,117,137,-117,-87,247,-166,143,356,-39,121,-9,312,-343,-62,44,-148,-135
18486,-506,-339,199,-235,16,245,-225,358,-188,-215,117,80,157,-114,71,87,154,-140,-98,245,-166,135,354,-46,112,-11,327,-506,-66,46,-113,74
18487,-474,-223,207,-258,39,87,-127,393,-175,-208,171,124,199,-110,100,58,161,-97,-74,260,-125,197,429,-12,140,18,440,-458,-44,64,-62,222
18488,-432,-197,211,-238,49,181,-119,415,-171,-198,167,134,195,-103,76,12,231,-90,-74,240,-155,143,429,-15,125,-7,419,-380,-92,-5,-191,-210
18489,-408,-266,199,-302,21,308,-121,427,-172,-192,161,109,176,-105,56,66,246,-84,-86,223,-213,149,387,-21,91,-44,255,-311,-87,-47,-302,-473
18490,-361,-239,250,-297,21,278,-62,440,-172,-188,173,141,213,-95,83,118,308,-59,-58,249,-197,221,457,17,120,-14,247,-207,-1,39,-208,-172
18491,-370,-213,229,-289,14,285,-40,453,-147,-184,198,158,244,-87,88,180,402,-20,-38,255,-171,268,554,85,172,16,290,-88,62,83,-154,-108
18492,-403,-235,194,-303,9,309,-29,425,-141,-188,227,171,260,-57,100,239,291,2,-24,282,-131,279,539,126,188,48,359,-139,91,122,-90,-72
18493,-454,-264,209,-319,-7,277,-34,429,-168,-201,206,193,255,-73,112,238,336,31,2,286,-112,265,588,143,188,65,378,-153,128,165,-57,-17
18494,-562,-274,245,-276,5,299,-54,458,-145,-197,239,230,282,-77,145,271,387,73,18,321,-60,320,623,160,236,108,454,-57,185,232,4,100
18495,-652,-272,294,-220,24,292,-55,498,-122,-196,238,249,312,-56,144,279,383,102,34,344,-32,358,642,182,265,138,492,-29,214,275,38,157
18496,-585,-270,343,-218,20,297,-55,530,-144,-194,201,280,308,-75,131,203,422,115,42,332,-40,399,753,198,250,135,492,-63,197,240,4,168
18497,-521,-307,366,-220,24,279,-76,543,-140,-193,210,332,348,-79,146,182,471,185,67,347,-21,442,882,254,280,163,526,-51,274,305,86,247
18498,-530,-222,355,-283,12,87,-59,525,-124,-216,201,281,341,-61,146,251,457,123,80,378,5,469,638,248,304,203,556,70,301,334,119,258
18499,-536,-241,363,-274,4,199,2,563,-132,-186,241,304,332,-41,150,342,472,107,61,361,0,501,579,234,309,183,547,79,254,274,35,148
18500,-510,-312,343,-279,-6,306,1,559,-126,-176,265,317,344,-47,176,359,430,140,87,376,19,527,663,253,313,192,548,-19,253,298,88,179
18501,-502,-306,339,-281,9,293,4,561,-115,-174,282,301,366,-21,181,375,407,129,107,399,43,520,666,274,349,221,582,-41,273,312,118,244
18502,-556,-368,304,-290,-1,279,5,533,-127,-201,268,271,358,-28,163,356,421,115,97,403,23,484,671,267,348,209,526,-2,288,310,109,128
18503,-602,-359,256,-288,-19,283,49,477,-156,-193,285,241,317,-50,180,331,370,88,86,399,18,472,645,245,337,220,563,-41,272,307,134,8
18504,-578,-323,245,-322,-11,316,93,469,-152,-162,318,237,317,-45,210,206,381,94,85,409,55,515,622,239,350,233,575,-61,280,303,126,146
18505,-566,-347,226,-361,-6,299,79,442,-159,-155,299,215,303,-54,200,95,369,67,56,390,14,506,608,231,344,190,499,-61,271,276,104,268
18506,-656,-469,173,-363,-34,286,31,410,-173,-178,279,155,259,-73,145,166,326,43,19,348,-80,461,605,207,301,140,454,-79,230,235,36,156
18507,-689,-429,191,-289,-23,308,29,443,-153,-173,250,212,280,-58,146,281,373,88,40,364,-56,436,694,226,318,160,490,-84,249,260,49,161
18508,-651,-381,186,-288,-18,276,29,480,-145,-181,213,327,328,-45,155,321,310,145,88,364,-22,392,738,259,342,178,532,-81,273,296,59,191
18509,-643,-370,44,-377,-13,230,5,448,-140,-178,232,267,303,-52,174,325,320,107,82,384,-11,416,688,257,360,196,544,-5,309,340,105,274
18510,-752,-429,-73,-345,-36,224,-4,390,-131,-166,253,154,287,-40,178,323,405,61,60,382,-20,392,650,246,360,205,514,61,308,336,131,256
18511,-794,-456,-14,-316,-31,280,-11,388,-139,-152,258,115,277,-44,185,330,411,33,64,383,-11,397,659,252,361,220,525,99,337,373,144,204
18512,-800,-454,21,-379,-37,290,-22,355,-155,-164,256,67,244,-55,172,323,303,10,52,381,3,424,600,217,346,224,569,28,320,415,238,375
18513,-815,-447,77,-345,-35,300,-6,399,-144,-144,237,67,249,-42,198,319,294,11,42,403,12,438,531,189,356,236,577,-28,306,401,253,423
18514,-717,-392,146,-374,3,304,30,450,-147,-148,286,126,270,-29,207,318,364,51,65,406,-1,466,561,192,354,201,529,-37,262,303,97,211
18515,-720,-418,161,-333,-8,300,42,444,-178,-160,273,136,280,-51,185,323,382,46,34,374,-69,466,649,189,300,143,466,-54,219,255,-35,-19
18516,-769,-417,156,-336,-7,314,43,402,-184,-148,214,197,267,-72,192,367,374,28,24,382,-17,379,685,184,296,175,508,5,267,286,30,37
18517,-766,-353,144,-339,3,340,83,405,-165,-137,312,178,269,-68,231,322,354,16,16,372,33,416,578,170,278,186,521,41,257,288,68,144
18518,-740,-334,172,-352,-3,380,123,400,-169,-150,363,159,271,-91,213,254,385,1,-13,352,-24,490,535,147,257,157,499,-90,206,259,62,202
18519,-782,-436,194,-331,-11,401,59,410,-178,-170,296,116,262,-93,167,174,378,38,-29,317,-54,495,549,148,226,121,504,-195,161,229,42,195
18520,-772,-531,208,-312,10,401,2,424,-182,-147,274,90,269,-104,154,176,406,36,-31,300,-69,531,528,119,207,128,532,15,182,265,56,234
18521,-740,-478,204,-340,17,374,-27,461,-147,-135,255,162,298,-78,167,186,398,62,-15,310,-20,544,618,136,224,132,569,28,190,270,25,251
18522,-819,-448,183,-357,-2,335,-25,485,-142,-176,272,225,290,-75,150,202,365,33,-19,297,-14,508,643,131,185,113,559,-61,174,241,9,213
18523,-881,-521,189,-385,-8,242,81,474,-148,-202,294,231,256,-88,161,368,372,-12,-21,282,4,474,592,114,179,98,548,-156,160,228,6,132
18524,-849,-485,238,-359,18,252,113,455,-157,-183,349,234,261,-101,171,451,399,-46,-53,282,-12,525,523,67,155,106,561,-86,113,200,31,125
18525,-791,-382,248,-362,8,310,10,409,-190,-189,326,241,214,-111,126,404,358,-69,-73,263,-90,536,448,14,132,77,557,-217,18,145,20,237
18526,-740,-366,216,-395,-5,307,-21,418,-182,-206,309,252,208,-107,138,359,366,-75,-87,256,-43,491,444,-6,134,109,643,-144,50,243,163,573
18527,-708,-320,182,-372,-3,310,49,457,-174,-190,297,115,220,-104,165,368,313,-84,-86,284,28,510,407,-8,160,194,807,-146,86,378,407,1106
18528,-668,-314,202,-325,-8,315,79,497,-161,-179,317,67,203,-104,159,417,268,-75,-86,302,32,528,424,18,164,200,800,-98,135,397,394,1144
18529,-639,-286,202,-244,-18,274,160,535,-173,-213,342,100,207,-120,124,311,317,-86,-103,242,-43,501,481,11,125,86,590,-1,153,267,54,360
18530,-579,-214,265,-187,26,161,203,515,-158,-204,367,233,259,-125,114,189,405,23,-82,198,-123,517,680,42,84,-58,359,-45,117,48,-366,-628
18531,-550,-217,318,-251,56,246,201,510,-142,-181,345,299,278,-103,99,156,427,33,-71,194,-128,621,715,30,93,-16,432,-85,41,38,-285,-380
18532,-612,-262,220,-291,18,334,165,468,-145,-186,309,281,252,-111,93,182,333,-87,-117,196,-120,506,425,-43,74,22,508,-199,-79,60,-145,77
18533,-658,-290,192,-290,1,214,75,452,-163,-202,293,269,241,-118,139,228,351,-91,-104,239,-54,458,448,-23,91,68,598,-237,-28,134,-23,304
18534,-678,-310,189,-321,0,119,68,435,-171,-187,274,201,230,-117,169,328,295,-100,-100,252,-2,504,425,-37,107,99,683,-226,-31,137,21,338
18535,-686,-361,181,-340,0,261,34,402,-177,-177,276,141,219,-125,164,343,252,-124,-116,214,-35,488,310,-53,87,23,547,-222,-118,-22,-163,-8
18536,-727,-348,176,-335,-23,289,59,397,-190,-169,265,145,239,-124,144,237,286,-120,-97,218,-96,471,312,-36,61,-7,392,-196,-113,-79,-324,-162
18537,-705,-324,196,-343,3,285,70,436,-178,-156,287,161,245,-118,177,299,212,-93,-61,250,-81,473,344,-8,104,23,432,-314,-80,-22,-232,-78
18538,-734,-335,220,-328,17,271,59,462,-177,-155,291,170,269,-103,164,412,211,-66,-34,256,-68,472,365,26,131,58,483,-282,-28,41,-174,-210
18539,-809,-414,119,-325,-40,243,-2,425,-191,-202,230,141,268,-114,120,370,269,-91,-42,237,-89,433,385,37,129,65,508,-139,21,77,-147,-376
18540,-775,-466,41,-316,-23,271,-14,398,-175,-201,232,98,287,-104,137,376,212,-92,-25,261,-67,427,387,45,158,56,526,-183,49,105,-98,-103
18541,-802,-461,-29,-293,-12,293,-46,417,-162,-179,237,110,275,-87,128,337,152,-72,-7,276,-74,409,389,61,175,35,458,-292,15,122,-80,75
18542,-812,-399,-72,-264,12,228,-85,412,-145,-190,220,152,297,-81,137,318,226,-29,7,270,-92,400,524,74,186,48,429,-212,-1,122,-73,62
18543,-844,-440,-46,-319,11,236,-59,444,-149,-176,257,182,347,-91,147,325,274,34,18,270,-97,370,701,113,193,49,383,-185,43,109,-121,-67
18544,-967,-514,10,-250,12,298,-75,475,-139,-169,290,146,330,-102,146,324,265,42,11,289,-80,386,664,119,204,63,403,-235,56,118,-111,-37
18545,-888,-446,86,-216,8,244,-68,429,-128,-194,285,61,296,-118,142,337,231,-54,2,292,-36,402,329,85,190,98,470,-359,46,159,-32,132
18546,-754,-419,121,-294,4,228,-51,420,-144,-206,242,103,295,-125,143,311,271,-30,7,303,-12,408,414,123,220,140,456,-250,130,213,12,121
18547,-606,-444,144,-315,8,206,-79,460,-168,-195,246,169,314,-101,168,239,359,30,23,333,20,413,586,150,229,152,452,-121,148,226,-27,5
18548,-572,-402,159,-295,13,167,-58,517,-160,-176,229,222,319,-83,156,242,413,85,20,333,-55,524,684,184,237,153,449,-124,212,269,18,86
18549,-781,-446,129,-253,7,264,-84,528,-145,-186,249,229,294,-99,154,261,409,70,25,335,-70,531,630,191,256,170,452,-105,231,285,59,19
18550,-822,-460,118,-286,12,272,-110,481,-151,-165,287,186,285,-96,208,243,384,35,28,369,20,461,529,189,293,244,546,-5,283,349,126,92
18551,-724,-511,146,-309,3,212,-107,446,-170,-159,238,188,267,-97,226,261,378,-19,33,396,41,432,535,172,306,240,570,71,303,393,147,260
18552,-672,-403,146,-370,4,237,-56,456,-171,-164,230,253,271,-76,256,356,379,13,54,416,94,419,657,195,337,245,652,31,303,352,125,221
18553,-667,-363,181,-359,21,273,-46,430,-180,-171,227,213,296,-87,243,316,422,77,50,412,78,437,736,220,331,260,683,-8,294,336,108,143
18554,-703,-419,202,-359,6,252,-62,419,-192,-178,222,137,277,-105,216,305,441,54,28,372,19,421,629,180,319,219,502,30,264,299,30,35
18555,-739,-417,182,-365,0,265,-33,393,-209,-166,264,181,271,-79,215,347,432,63,29,414,25,478,584,218,331,254,489,76,359,399,156,233
18556,-730,-494,164,-391,-4,269,-11,390,-220,-173,261,185,272,-85,218,399,388,54,21,404,32,494,625,219,329,256,581,38,346,416,174,248
18557,-658,-498,195,-460,-13,297,-15,401,-200,-177,222,218,273,-94,193,406,409,66,19,379,-2,494,711,217,324,234,510,55,322,354,72,35
18558,-658,-482,181,-464,-13,325,-5,420,-185,-155,233,184,263,-89,205,361,416,59,23,383,-13,468,718,215,316,224,439,71,296,338,52,109
18559,-705,-393,155,-418,-12,314,34,386,-183,-135,291,188,259,-72,224,353,492,59,42,408,16,504,682,215,351,261,500,89,308,365,125,197
18560,-748,-358,142,-382,-2,297,80,396,-177,-144,307,189,278,-45,240,386,515,79,82,433,67,577,682,268,416,301,606,172,427,492,248,311
18561,-749,-365,133,-328,-1,324,91,409,-191,-137,333,224,294,-25,267,336,467,108,93,461,93,561,728,286,405,318,645,169,443,527,303,327
18562,-759,-371,154,-328,-17,324,51,400,-205,-148,331,235,266,-47,241,319,468,64,39,424,70,549,728,259,372,269,614,181,413,463,222,305
18563,-746,-310,159,-318,-19,315,44,400,-187,-144,328,226,258,-60,245,331,477,57,50,406,57,610,753,260,364,278,624,178,435,464,206,383
18564,-786,-297,170,-285,14,300,73,445,-156,-130,350,266,292,-37,237,294,501,135,83,415,52,674,897,305,377,291,681,90,449,512,265,494
