,Fp1,Fp2,F7,F3,Fz,F4,F8,FC5,FC1,FC2,FC6,T7,C3,Cz,C4,T8,TP9,CP5,CP1,CP2,CP6,TP10,P7,P3,Pz,P4,P8,PO9,O1,Oz,O2,PO10
203982,-305,96,132,141,23,356,121,332,-33,-78,464,149,461,-146,219,134,271,32,162,255,-51,300,466,281,186,371,249,250,223,-41,176,262
203983,-370,7,164,158,2,343,94,353,-24,-88,480,56,458,-130,219,79,294,28,139,231,-45,397,436,260,154,351,280,205,196,-75,161,278
203984,-492,-11,111,191,19,364,106,415,-23,-90,508,-29,453,-164,208,62,293,7,136,215,-73,253,402,247,125,321,243,163,149,-125,114,200
203985,-511,8,113,152,30,387,144,282,-42,-74,469,144,408,-160,192,64,320,-14,113,189,-109,222,399,222,113,277,180,165,144,-151,82,131
203986,-407,-12,143,72,14,374,165,176,-46,-77,376,225,416,-154,178,65,304,37,119,176,-129,184,420,232,91,255,165,159,176,-138,73,150
203987,-349,28,186,39,16,320,90,218,-63,-97,285,224,427,-157,149,52,253,50,126,167,-125,247,435,252,108,248,166,125,161,-136,77,198
203988,-280,40,242,7,15,357,8,181,-71,-111,293,205,415,-150,159,71,181,59,109,149,-131,218,414,252,77,237,130,125,152,-149,45,140
203989,-250,33,282,-7,3,375,7,149,-75,-122,311,187,387,-166,146,66,244,-8,91,139,-148,160,376,232,62,215,125,129,143,-164,20,119
203990,-257,-3,351,0,11,380,28,172,-58,-98,322,179,403,-169,127,41,276,1,101,136,-177,137,398,249,60,197,82,120,139,-170,19,121
203991,-300,-60,383,22,0,379,56,159,-45,-98,332,158,402,-170,131,14,213,9,116,144,-193,112,385,261,63,175,46,101,138,-171,-3,86
203992,-387,-88,408,40,-9,349,84,160,-45,-119,311,111,404,-164,110,4,195,14,109,121,-220,62,368,272,66,177,24,123,152,-172,-14,67
203993,-346,-72,413,66,-3,351,106,164,-41,-109,302,76,434,-161,123,41,237,27,114,149,-207,57,383,278,88,174,21,146,134,-161,-2,76
203994,-285,-73,310,90,4,349,-9,211,-36,-87,300,94,427,-164,107,31,239,3,119,123,-231,14,374,265,63,141,-7,109,135,-196,-28,70
203995,-308,-62,103,94,6,357,15,263,-32,-115,290,135,432,-169,87,-15,259,7,86,110,-268,64,397,258,51,144,-35,140,144,-189,-23,79
203996,-242,-2,90,56,27,390,159,72,-21,-83,309,243,431,-169,110,2,297,48,116,141,-218,186,454,281,97,173,9,202,175,-131,13,148
203997,-223,36,139,32,14,393,175,24,-47,-100,331,141,401,-175,78,-12,288,29,114,137,-234,221,425,267,81,181,34,176,175,-131,32,150
203998,-291,-6,-2,60,2,373,92,283,-56,-120,306,67,405,-173,49,-62,277,2,97,125,-268,189,356,249,68,157,0,108,131,-189,-14,82
203999,-297,-30,130,77,42,385,72,333,-17,-106,317,44,419,-174,69,-56,357,-50,108,127,-272,152,332,242,81,149,-30,120,112,-199,-26,86
204000,-267,-172,228,73,21,294,19,324,-30,-126,244,71,410,-197,18,-93,291,-42,80,88,-326,101,357,234,38,108,-61,114,89,-214,-46,49
204001,-241,-277,202,71,-1,344,27,267,-19,-120,294,129,400,-187,15,-95,220,-22,99,81,-313,100,376,223,54,118,-51,114,91,-217,-51,13
204002,-355,-215,63,105,7,331,-8,271,-33,-163,284,114,399,-210,21,-96,183,-48,81,82,-317,87,315,210,47,109,-32,68,57,-242,-73,2
204003,-386,-90,8,147,3,288,-79,226,-23,-153,260,119,394,-195,14,-32,134,-64,73,110,-294,82,315,217,61,135,-13,27,35,-251,-50,31
204004,-410,-17,34,67,3,291,-32,134,-35,-135,284,39,380,-191,22,0,126,-88,75,103,-297,41,275,182,49,158,-41,9,37,-267,-52,13
204005,-394,19,110,-19,-6,295,-4,105,-36,-140,313,-11,352,-201,41,-19,118,-88,61,84,-289,24,234,164,48,172,-42,-18,16,-263,-63,29
204006,-379,-71,140,-9,-13,295,4,114,-62,-140,317,-46,315,-221,33,-86,143,-134,48,102,-250,36,209,138,43,172,-9,-27,8,-277,-53,46
204007,-441,-105,68,-1,-25,267,-22,114,-66,-169,262,-2,313,-242,22,-256,185,-223,34,100,-240,47,183,127,51,185,-4,-33,8,-255,-42,23
204008,-447,-92,140,0,-24,228,8,81,-54,-153,221,5,348,-212,21,-189,79,-150,48,109,-263,30,227,149,57,207,7,-42,37,-221,-23,36
204009,-414,-58,194,-7,-18,223,1,97,-51,-136,225,54,361,-184,30,-55,42,-95,78,125,-247,9,272,169,76,196,-4,-53,14,-258,-39,-18
204010,-432,-67,74,-25,-32,232,-74,126,-52,-149,188,-92,341,-211,4,-112,51,-147,48,102,-272,17,193,127,43,168,-50,-83,-6,-299,-76,-71
204011,-428,-64,88,-24,-32,262,-100,159,-70,-151,213,-187,331,-213,11,-90,41,-169,30,94,-289,-235,190,107,28,142,-57,-105,-26,-303,-92,-54
204012,-380,-75,217,-89,-32,260,-26,51,-87,-157,197,6,310,-207,32,-98,47,-170,36,122,-281,-55,223,124,41,152,8,-94,-20,-283,-61,19
204013,-329,-69,220,-29,-4,280,-21,18,-67,-144,185,-17,313,-175,41,-121,19,-153,54,133,-248,82,201,152,60,171,52,-85,4,-277,-71,3
204014,-292,-91,105,36,-14,269,-15,104,-47,-135,222,-37,334,-189,32,-109,23,-123,71,114,-257,-20,214,145,61,162,36,-90,-22,-312,-67,-15
204015,-480,-109,38,51,-21,217,-24,23,-56,-162,224,-22,327,-211,28,-124,66,-135,64,101,-269,-10,230,146,26,128,-17,-78,-29,-350,-115,-57
204016,-564,-69,-52,4,-29,242,-40,-131,-69,-158,238,15,338,-190,71,-101,120,-122,71,130,-231,107,272,167,52,150,1,-30,28,-276,-87,-2
204017,-442,-72,-65,31,-17,240,-29,102,-40,-169,232,46,383,-180,69,-92,63,-45,77,127,-228,125,316,175,63,150,33,-36,30,-272,-61,28
204018,-398,-107,-38,11,-36,231,-16,206,-53,-174,207,0,354,-190,35,-120,33,-109,56,102,-277,71,292,131,25,116,11,-37,3,-300,-75,-8
204019,-368,-120,-67,12,2,267,23,111,-61,-158,229,5,315,-184,61,-106,97,-163,46,98,-269,34,229,119,13,127,4,-43,4,-309,-98,-3
204020,-307,-150,72,-7,16,278,30,73,-54,-132,245,59,344,-183,65,-85,83,-94,48,102,-258,-13,294,163,9,128,-11,-39,13,-287,-104,7
204021,-257,-137,228,-24,10,304,36,76,-55,-115,277,97,364,-202,63,-75,75,-44,87,127,-257,58,323,178,32,141,21,4,53,-250,-67,46
204022,-264,-127,239,-38,-2,349,-46,155,-33,-97,326,115,399,-188,107,-64,170,-27,75,137,-261,128,321,202,41,146,40,0,50,-269,-95,-1
204023,-299,-179,158,-65,-24,406,-132,157,-45,-103,333,54,376,-221,100,-73,190,-77,48,101,-294,114,295,176,-13,105,-19,-1,24,-285,-124,28
204024,-314,-174,135,-53,-14,404,-35,139,-44,-85,385,98,382,-215,93,-44,203,-73,64,94,-270,112,351,180,20,106,-4,44,74,-257,-110,63
204025,-282,-123,169,18,-3,349,-37,195,-35,-95,395,69,403,-220,111,-20,147,-20,61,99,-272,-27,398,201,17,77,-39,52,99,-262,-136,10
204026,-257,-70,195,40,-11,348,-94,228,-36,-112,311,47,404,-252,81,-64,151,-18,62,80,-285,88,390,185,4,72,-42,36,94,-264,-146,31
204027,-293,-80,183,76,19,290,-73,222,-25,-121,226,101,412,-227,68,-68,195,-16,94,88,-296,137,382,226,32,86,-36,75,105,-240,-110,36
204028,-341,-78,144,86,39,260,-36,223,-6,-120,180,117,400,-228,59,-31,228,-53,94,90,-293,86,337,229,51,84,-49,89,117,-235,-102,3
204029,-366,-193,-57,84,4,292,-46,344,-14,-141,216,136,403,-233,49,33,163,-27,97,75,-281,86,342,221,52,80,-61,67,113,-257,-126,13
204030,-492,-247,-80,144,-1,297,-59,439,6,-152,251,104,465,-220,52,55,159,20,128,85,-281,46,367,248,72,77,-59,78,101,-281,-162,-2
204031,-498,-177,152,151,7,313,-26,255,-14,-141,274,101,460,-217,80,3,179,31,139,112,-254,64,394,265,83,119,-78,80,135,-245,-129,30
204032,-359,-103,227,119,-2,325,2,199,-6,-136,292,92,466,-193,104,-99,191,10,156,144,-250,63,391,273,96,130,-75,103,152,-232,-83,39
204033,-310,-28,254,124,0,290,4,208,-9,-139,277,179,461,-171,106,-206,187,28,162,143,-246,91,395,286,115,128,-59,97,135,-223,-61,31
204034,-265,65,263,130,42,304,65,199,0,-139,303,199,459,-177,109,-64,177,38,173,154,-239,129,379,268,133,167,-61,39,114,-219,-62,47
204035,-247,95,274,112,40,320,77,161,-1,-124,320,186,459,-187,115,19,158,19,159,162,-212,133,371,265,130,188,-38,-9,116,-214,-57,53
204036,-270,69,246,55,21,343,91,125,-12,-101,329,149,429,-178,132,23,140,-5,167,181,-199,87,340,275,149,194,-13,2,98,-202,-46,51
204037,-266,50,210,88,48,342,75,143,5,-83,343,84,450,-169,151,31,131,-1,179,201,-202,55,343,264,166,210,2,0,95,-202,-27,62
204038,-251,-76,166,118,28,259,7,190,5,-99,276,-1,468,-174,144,4,106,35,191,206,-182,199,333,270,162,238,42,-30,72,-204,-1,58
204039,-233,-150,113,46,19,341,30,152,-21,-98,288,-40,428,-180,133,3,114,-49,170,171,-183,59,258,227,138,227,53,-51,29,-226,-10,63
204040,-297,-113,134,37,29,338,39,115,-15,-108,313,-7,413,-182,126,35,107,-91,140,186,-160,54,244,219,137,238,51,-39,33,-214,12,64
204041,-375,-34,130,84,13,333,54,141,-14,-117,306,88,425,-208,127,7,77,-34,128,200,-153,104,287,217,116,220,55,-46,16,-241,-21,24
204042,-293,47,123,89,26,351,81,212,0,-94,328,109,428,-185,146,-7,96,-39,130,195,-147,155,311,235,122,227,103,-32,33,-228,-5,79
204043,-293,-10,41,54,3,308,60,231,-9,-105,275,100,437,-208,135,-32,109,-41,139,192,-168,134,309,230,110,236,91,22,64,-222,14,91
204044,-317,-26,161,46,-7,299,68,143,-9,-95,274,95,446,-214,125,-20,132,-18,147,200,-147,140,343,247,135,244,117,73,118,-199,35,90
204045,-271,33,214,58,5,316,63,136,-21,-93,306,96,446,-210,135,-12,150,-15,132,205,-154,144,343,239,144,252,152,64,141,-163,46,128
204046,-183,47,271,58,28,318,68,111,-27,-89,330,124,445,-199,149,-8,151,-30,142,201,-151,165,334,241,138,264,156,14,124,-150,60,169
204047,-232,26,243,40,18,288,31,139,-11,-89,309,123,456,-208,140,-34,176,-20,149,186,-175,141,330,248,125,240,105,44,112,-171,20,96
204048,-280,39,207,47,23,254,38,147,-18,-87,303,106,449,-200,149,-17,197,-8,148,198,-180,115,325,250,117,223,86,56,123,-178,-18,57
204049,-297,17,182,56,19,304,-5,115,-2,-82,292,79,431,-186,148,-26,184,-51,147,193,-181,144,317,248,114,202,74,27,132,-189,-39,103
204050,-305,29,83,73,23,362,-32,143,3,-100,300,68,442,-193,140,-47,137,-20,150,167,-212,117,320,242,89,165,-8,15,122,-219,-84,22
204051,-256,54,29,135,27,356,7,216,-9,-116,273,54,428,-192,110,-65,146,-72,134,160,-233,76,299,212,62,133,-60,10,109,-235,-107,2
204052,-289,0,-49,171,31,327,-14,276,9,-106,245,-111,471,-178,109,-40,100,8,142,153,-238,-51,334,235,69,131,-87,21,133,-222,-128,-5
204053,-474,-186,-235,128,10,335,-79,144,-9,-127,242,-148,437,-198,102,-44,165,-65,109,133,-287,-109,299,213,45,86,-125,-2,119,-235,-156,-44
204054,-489,-417,-201,140,8,349,-166,271,-17,-98,225,-53,404,-200,96,-103,192,-126,88,126,-305,-7,245,192,28,75,-141,-24,88,-276,-202,-82
204055,-426,-434,-81,116,0,345,-211,263,-16,-112,242,-86,430,-211,90,-92,35,-36,102,108,-324,-94,268,196,25,40,-157,-33,94,-281,-220,-128
204056,-334,-248,68,89,9,393,-158,153,-6,-114,242,-26,400,-220,101,-36,8,-52,88,104,-326,-26,261,197,4,34,-146,-32,87,-282,-226,-106
204057,-263,-93,132,59,21,353,-64,114,-14,-98,262,9,392,-190,108,-36,105,-96,113,110,-287,26,244,208,32,59,-153,5,102,-266,-207,-63
204058,-201,-84,151,31,12,319,-36,98,-14,-89,274,89,410,-176,104,-79,56,-57,132,128,-284,1,342,227,50,94,-171,41,127,-253,-174,-117
204059,-218,-17,185,-22,9,262,-55,7,-32,-110,279,126,396,-184,94,-248,70,-21,130,128,-283,32,350,223,63,98,-137,28,149,-226,-156,-84
204060,-258,102,222,-14,7,198,-42,12,-33,-126,269,143,415,-176,100,-226,112,-14,135,135,-307,62,346,249,75,116,-122,36,148,-194,-114,11
204061,-276,119,194,1,3,203,8,62,-23,-99,299,127,429,-170,99,-33,154,-15,147,167,-272,93,391,273,102,164,-90,84,179,-181,-71,50
204062,-314,13,81,5,-26,188,28,121,-38,-106,293,67,424,-182,97,-45,155,-12,133,153,-249,79,372,252,105,168,-62,80,168,-154,-42,75
204063,-348,-10,12,-1,-30,220,21,125,-21,-115,287,75,420,-185,83,-91,130,-37,134,144,-277,71,352,229,98,155,-74,30,103,-189,-67,22
204064,-340,-51,63,2,-41,238,5,153,-18,-118,291,61,407,-183,74,-102,112,-61,122,132,-281,50,315,211,63,141,-93,8,80,-237,-106,-28
204065,-308,-67,116,38,-16,267,-14,197,-21,-132,282,31,422,-165,95,-83,120,-85,119,144,-268,43,298,192,55,136,-82,14,84,-219,-103,-10
204066,-357,-101,110,51,-40,276,-96,187,-32,-122,227,39,405,-170,100,-58,104,-72,110,140,-275,53,296,173,71,139,-48,14,73,-223,-80,9
204067,-373,-111,93,41,-37,265,-64,145,-25,-128,238,63,410,-175,102,-69,101,-56,133,171,-254,101,302,191,91,159,-26,-5,68,-229,-104,25
204068,-417,-93,0,20,-55,243,-53,156,-42,-139,244,56,425,-199,94,-72,90,-67,112,167,-242,105,296,174,98,180,-27,-4,56,-246,-100,28
204069,-430,-7,-19,52,-37,267,-14,173,-23,-111,271,64,431,-205,118,-25,108,-41,111,175,-218,134,313,188,95,180,9,-10,61,-248,-74,51
204070,-402,14,42,85,-18,292,6,198,-9,-100,259,57,426,-188,120,-9,115,-59,112,166,-214,118,324,201,91,189,9,5,72,-238,-65,38
204071,-378,-49,129,76,-15,263,-62,179,-14,-101,250,80,402,-195,100,-47,126,-83,114,167,-209,133,339,203,102,184,6,18,106,-213,-28,53
204072,-347,-170,176,13,-11,261,-55,132,-41,-94,273,72,391,-211,96,-50,110,-70,95,152,-227,106,334,216,94,178,8,7,106,-204,-35,30
204073,-332,-152,144,-13,-20,254,-84,80,-55,-107,256,33,374,-215,79,-72,110,-83,78,140,-253,64,328,207,76,169,19,-10,120,-191,-47,22
204074,-362,-79,176,56,5,250,-49,86,-22,-92,291,18,377,-192,97,-42,154,-92,103,161,-210,79,306,211,83,223,70,16,134,-148,19,71
204075,-386,-97,145,41,4,306,0,145,-28,-93,273,0,375,-199,94,-45,108,-119,74,149,-220,99,272,190,79,236,85,-5,111,-162,38,94
204076,-400,-163,24,36,3,335,-44,313,-22,-96,261,-1,384,-202,114,-57,48,-121,70,140,-230,77,257,174,55,222,63,-1,123,-169,27,92
204077,-434,-126,-27,70,9,303,-81,250,-42,-102,237,-15,409,-206,105,-55,23,-101,86,155,-226,4,267,198,64,210,51,19,150,-148,16,83
204078,-417,-10,12,25,21,345,-113,66,-37,-79,262,17,395,-202,122,-46,40,-69,97,178,-210,58,300,207,90,216,77,3,156,-149,26,40
204079,-358,10,59,14,0,328,-92,77,-38,-76,298,22,390,-198,131,-14,81,-82,99,179,-199,54,291,204,82,218,102,28,164,-141,38,130
204080,-249,27,177,-22,-5,336,0,62,-62,-60,340,14,395,-182,166,33,109,-79,99,182,-173,16,286,222,76,240,96,45,155,-163,23,144
204081,-237,-86,145,-28,7,337,49,41,-56,-86,358,37,380,-189,157,44,126,-64,100,191,-172,167,304,219,76,223,106,23,142,-184,4,71
204082,-244,-143,74,-33,-3,368,93,23,-69,-96,359,-28,383,-201,162,91,114,-72,91,175,-150,86,290,197,72,210,110,17,132,-177,-1,105
204083,-217,-118,64,-43,5,427,62,-108,-58,-86,358,-1,386,-169,189,172,173,-24,113,195,-143,126,321,229,101,236,121,55,166,-144,18,122
204084,-255,-98,-132,0,28,415,-29,171,-24,-58,372,-273,431,-146,189,126,183,-7,146,197,-151,117,315,250,126,229,88,65,177,-134,19,105
204085,-299,-46,-197,6,12,400,-28,298,-33,-47,391,-94,421,-167,185,40,239,-49,122,188,-157,23,284,210,104,207,27,42,169,-142,-29,36
204086,-285,-47,22,37,10,382,52,186,-39,-66,382,78,392,-187,180,-115,265,-94,105,196,-169,-33,256,202,85,212,10,39,160,-167,-29,55
204087,-379,-10,88,94,20,342,18,170,-36,-74,371,131,400,-163,146,-128,156,-84,117,183,-180,56,295,221,83,202,7,55,166,-183,-11,101
204088,-410,-22,55,110,24,315,23,174,-22,-87,382,189,402,-170,132,-13,101,-12,124,181,-199,119,380,235,89,188,11,79,191,-140,29,154
204089,-311,-39,140,58,9,355,36,132,-36,-78,431,115,395,-161,141,-53,155,-42,101,164,-224,122,321,190,68,168,-14,37,146,-176,-30,96
204090,-362,2,177,52,-8,346,40,153,-49,-78,439,101,421,-173,119,-65,117,-16,92,128,-263,62,294,173,58,136,-30,-10,91,-226,-111,-76
204091,-365,67,179,31,4,327,40,131,-31,-104,429,148,407,-189,119,-66,117,-53,90,126,-286,42,312,178,48,125,-11,19,106,-213,-78,1
204092,-309,3,196,-1,-2,301,25,126,-28,-116,355,145,401,-152,115,-47,201,-94,85,155,-253,110,325,176,63,128,-3,55,113,-165,-19,80
204093,-264,-57,152,-28,-3,256,66,103,-27,-115,225,164,431,-153,115,-55,164,-27,113,164,-243,150,380,187,70,161,-14,67,131,-140,-1,102
204094,-248,-54,84,-66,-20,254,21,90,-39,-105,192,163,409,-163,122,-54,180,-13,117,176,-262,150,394,199,76,178,-28,62,156,-130,22,67
204095,-232,-23,104,-38,-19,329,-23,141,-36,-77,209,172,407,-130,128,-51,220,-11,111,183,-233,166,409,230,100,209,5,54,152,-123,66,94
204096,-245,-21,190,-49,-23,323,13,135,-53,-102,278,177,404,-133,138,-74,204,-1,107,179,-243,143,401,229,102,213,15,51,148,-138,43,68
204097,-263,-4,151,-29,-21,251,-29,151,-48,-121,267,151,410,-144,118,-99,227,-2,114,181,-238,116,403,210,92,219,27,77,175,-116,53,75
204098,-342,18,160,29,-19,223,-43,181,-16,-105,271,135,432,-128,137,-67,281,6,130,201,-224,162,431,239,127,261,68,91,195,-69,110,133
204099,-329,24,118,30,-11,303,-15,181,-15,-119,279,113,433,-136,143,-20,253,-27,131,210,-196,110,396,219,116,266,104,98,189,-54,131,156
204100,-281,-23,108,20,-13,332,-59,178,-32,-101,318,136,442,-130,175,-6,207,16,133,232,-172,85,413,245,142,300,140,125,198,-44,144,147
204101,-340,-11,141,9,-10,317,-22,146,-44,-79,354,165,430,-120,196,22,248,42,152,254,-121,225,432,251,165,346,218,154,223,-16,198,199
204102,-305,54,185,-2,-3,329,58,124,-43,-91,366,172,419,-150,207,19,253,47,156,263,-93,253,447,244,176,365,259,163,231,-5,232,217
204103,-216,78,257,-28,-13,369,114,124,-39,-81,397,164,416,-160,221,34,269,61,153,271,-78,274,446,261,172,387,285,170,250,11,249,255
204104,-201,93,351,-45,-8,392,159,142,-47,-55,411,159,419,-155,241,62,295,58,143,270,-63,268,451,269,168,401,296,168,256,-7,244,292
204105,-260,90,86,33,4,392,151,341,-11,-53,428,154,462,-131,253,83,313,84,141,287,-54,240,459,279,173,375,309,166,256,-1,253,274
204106,-384,13,-86,78,-6,392,100,380,-15,-66,405,48,446,-163,235,60,270,89,132,251,-67,140,463,252,147,340,306,132,225,-36,221,278
204107,-381,-31,34,62,2,393,58,151,-39,-71,402,81,406,-182,225,61,338,16,136,241,-53,318,383,237,120,355,339,147,227,-26,210,302
204108,-326,-70,62,39,11,417,31,79,-45,-67,394,18,410,-187,208,72,315,-35,98,234,-54,272,355,212,90,320,280,124,177,-84,135,206
204109,-299,-134,39,0,-5,453,38,-97,-61,-59,403,139,412,-167,216,72,199,-5,97,226,-85,180,398,205,82,284,195,114,154,-130,81,163
204110,-304,-133,154,-25,-13,413,58,36,-60,-83,370,167,404,-181,197,101,152,4,82,203,-116,150,386,186,71,248,137,96,121,-178,47,131
204111,-310,-104,179,10,-5,365,43,250,-45,-86,321,118,434,-173,207,153,168,-4,88,198,-121,180,356,183,54,232,137,56,99,-196,12,120
204112,-308,-60,230,59,0,336,40,185,-27,-94,322,198,451,-191,191,120,189,0,94,202,-128,187,372,164,38,234,126,66,111,-196,12,112
204113,-355,-36,237,63,0,329,37,168,-34,-90,372,186,437,-210,197,65,205,-12,89,198,-116,227,354,141,38,234,151,59,75,-233,22,187
204114,-461,3,232,77,-2,326,98,193,-15,-94,397,176,446,-206,214,-29,262,2,88,189,-93,225,340,148,28,240,171,62,71,-213,27,183
204115,-370,-18,218,69,4,440,43,165,-27,-80,401,184,447,-194,211,-19,286,-25,94,202,-96,225,354,160,30,253,206,78,80,-189,31,188
204116,-232,-148,153,1,3,439,12,151,-29,-81,367,217,445,-210,204,63,192,42,111,186,-90,269,419,181,37,242,249,117,122,-180,21,194
204117,-216,-102,117,60,27,418,46,190,-1,-64,386,235,466,-201,218,66,245,67,139,201,-78,257,428,229,60,267,295,152,147,-165,83,214
204118,-253,5,197,38,15,387,68,203,-8,-81,394,231,456,-193,221,68,286,53,129,217,-74,278,440,253,62,278,307,176,164,-130,106,261
204119,-251,99,184,13,16,347,157,240,-18,-84,362,240,461,-182,210,74,305,75,124,207,-90,307,459,257,70,273,306,206,187,-113,107,299
204120,-238,128,-14,62,22,269,186,374,11,-73,373,278,503,-182,219,98,339,114,153,211,-69,357,488,282,81,276,338,219,210,-104,116,307
204121,-247,84,-86,136,17,351,-13,506,20,-68,357,200,518,-188,208,111,398,155,156,208,-71,363,493,307,64,276,342,259,210,-77,151,313
204122,-195,149,64,161,27,405,-35,442,36,-53,399,-21,494,-207,216,131,477,105,136,213,-45,354,490,274,67,294,405,246,231,-69,147,367
204123,-207,138,208,171,35,399,61,405,8,-66,412,61,468,-233,199,131,471,82,123,202,-53,309,515,291,55,288,385,240,235,-65,147,316
204124,-257,104,277,115,32,409,113,291,-6,-72,385,254,458,-216,197,133,381,144,115,187,-47,250,590,290,46,280,368,284,243,-44,159,307
204125,-329,104,358,92,35,405,141,278,0,-67,465,249,444,-210,199,133,377,78,95,174,-31,271,532,234,8,278,418,216,208,-68,163,385
204126,-241,61,315,107,30,385,168,348,0,-65,522,238,434,-223,194,136,393,21,60,156,-22,352,477,201,-21,261,449,196,179,-83,145,454
204127,-295,25,262,190,26,313,214,377,3,-113,501,285,434,-214,174,128,352,53,51,158,-37,365,485,180,-8,259,453,179,177,-78,190,478
204128,-215,-14,342,141,26,329,165,204,-28,-107,471,314,397,-253,169,128,354,11,22,137,-66,219,497,166,-12,242,380,189,148,-117,136,313
204129,-152,39,345,76,23,368,79,192,-28,-87,343,331,395,-245,165,111,349,44,43,125,-86,339,522,179,-27,226,329,206,156,-129,95,200
204130,-179,12,374,45,27,374,48,178,-32,-122,335,259,373,-231,138,125,347,33,40,129,-80,357,480,164,-47,225,341,197,161,-106,143,317
204131,-136,-164,418,17,23,334,87,113,-47,-100,337,256,360,-245,132,132,375,-4,19,125,-99,268,453,157,-52,228,348,217,137,-108,129,283
