,Fp1,Fp2,F7,F3,Fz,F4,F8,FC5,FC1,FC2,FC6,T7,C3,Cz,C4,T8,TP9,CP5,CP1,CP2,CP6,TP10,P7,P3,Pz,P4,P8,PO9,O1,Oz,O2,PO10
13417,-523,-43,-22,-118,-66,179,-4,469,203,34,135,806,409,144,324,305,419,317,272,175,236,191,543,372,191,248,508,288,524,305,248,61
13418,-484,10,-24,-100,-46,215,59,479,198,60,157,814,427,142,337,314,435,309,262,179,238,184,517,343,171,247,498,126,456,244,240,98
13419,-474,53,-27,-102,-52,241,114,471,180,58,174,766,377,111,337,322,377,248,222,154,218,185,442,286,132,235,503,27,380,183,189,113
13420,-393,134,34,-92,-48,256,167,480,179,52,171,763,352,110,329,334,338,204,201,130,226,216,398,263,103,207,512,29,353,160,155,123
13421,-308,217,72,-70,-33,293,249,478,175,40,209,741,328,109,324,364,314,167,156,120,221,282,339,227,65,177,503,-12,296,101,120,117
13422,-304,224,89,-43,-13,308,290,487,207,66,253,735,352,118,346,385,331,184,166,145,233,316,355,264,79,191,494,61,362,158,118,32
13423,-314,232,108,-14,5,310,279,506,211,79,251,760,384,105,359,387,400,225,188,148,243,293,429,291,97,201,519,182,445,242,172,62
13424,-325,244,77,-17,-19,303,281,500,182,48,233,736,353,82,340,371,361,195,154,112,226,252,429,252,67,183,495,203,429,230,141,42
13425,-311,236,64,-2,-9,314,281,513,214,51,247,740,368,88,352,375,310,208,167,119,237,289,393,241,55,177,481,97,359,144,80,-17
13426,-346,207,44,-20,-23,303,249,499,218,53,233,730,377,93,367,375,304,207,174,138,241,317,378,250,64,186,467,123,334,140,83,-19
13427,-370,170,1,-37,-35,266,219,475,207,37,231,705,372,92,376,356,222,173,188,127,245,280,349,256,85,208,488,222,401,193,133,40
13428,-348,150,25,-36,-24,263,209,474,206,28,228,709,378,128,375,346,245,189,191,148,253,248,365,256,91,225,500,170,406,208,158,72
13429,-375,144,-1,-44,-48,260,223,462,205,27,219,693,374,123,372,353,271,170,191,154,253,236,362,248,87,225,500,102,384,186,152,91
13430,-379,166,-22,-50,-46,272,250,449,219,47,216,671,347,105,391,365,254,149,183,147,257,176,345,239,98,230,501,112,368,191,166,133
13431,-346,208,-15,-35,-36,297,286,451,199,41,254,656,339,115,413,384,228,126,164,157,273,209,302,214,71,234,503,60,329,180,202,140
13432,-359,200,-26,-45,-44,282,310,432,191,20,255,639,315,81,408,364,231,115,152,125,264,217,271,191,62,193,484,15,335,149,153,92
13433,-365,177,-33,-51,-43,280,282,425,181,36,254,629,296,88,409,348,224,85,116,108,244,158,226,144,29,162,440,-143,250,51,66,8
13434,-418,132,-97,-58,-46,269,211,412,189,58,235,605,298,108,402,333,206,94,136,129,249,64,245,167,44,187,447,-80,300,125,127,59
13435,-470,81,-151,-71,-67,279,227,401,193,74,251,597,300,119,418,342,181,78,138,145,256,118,252,192,75,198,460,-31,308,141,119,57
13436,-431,143,-113,-53,-25,285,271,395,204,79,272,579,282,117,410,357,167,60,120,132,245,144,231,174,58,187,442,-63,300,102,86,22
13437,-373,178,-83,-42,-18,306,298,408,183,67,258,560,271,92,367,318,134,24,99,87,195,96,202,138,16,130,383,-78,269,77,49,-14
13438,-336,200,-61,-45,-19,326,295,398,182,59,250,547,252,88,364,293,106,10,93,81,159,80,227,115,1,109,376,-41,271,65,9,-67
13439,-383,200,-107,-66,-11,302,278,350,172,63,222,497,236,82,334,254,65,-15,82,70,130,29,177,118,2,92,355,-50,261,89,17,-105
13440,-407,164,-147,-92,-24,314,271,326,175,58,209,457,237,75,311,243,19,-39,68,58,114,-42,102,109,-17,81,340,-144,244,92,24,-155
13441,-388,185,-144,-82,-3,291,233,311,180,35,180,438,221,72,300,199,13,-54,56,43,79,-52,85,71,-40,46,288,-264,189,17,-10,-156
13442,-391,180,-163,-88,-4,264,228,298,173,30,180,430,213,60,298,156,-18,-84,53,35,67,-74,70,51,-38,40,267,-270,120,-52,-58,-160
13443,-405,165,-186,-100,-16,283,217,291,188,47,167,432,222,85,295,157,-65,-59,74,74,66,-69,97,97,1,50,253,-115,176,7,-3,-139
13444,-421,134,-211,-98,-43,268,169,294,189,38,162,437,252,105,308,139,-27,-8,116,91,62,-71,204,164,30,57,224,163,364,151,82,-137
13445,-467,128,-221,-112,-51,257,171,276,154,43,163,419,250,96,300,139,22,-11,133,96,46,-86,242,197,67,77,248,195,404,198,76,-150
13446,-473,121,-210,-104,-49,267,159,282,175,50,169,448,268,104,289,140,82,14,152,138,45,-74,207,213,81,90,264,47,359,168,63,-129
13447,-437,130,-193,-110,-53,252,183,289,164,36,154,459,236,108,294,146,51,8,141,120,45,-85,172,187,60,97,265,-108,303,142,81,-71
13448,-388,206,-149,-86,-34,269,230,306,161,36,158,472,243,105,303,174,44,-12,115,112,69,-29,141,157,42,85,290,-336,168,35,44,-28
13449,-388,207,-137,-86,-35,266,224,310,170,28,168,500,249,117,301,179,100,31,134,128,89,-14,199,187,61,97,303,-260,213,56,51,15
13450,-387,210,-130,-73,-29,265,253,317,178,39,201,528,274,132,315,186,177,64,168,158,117,15,268,232,89,134,324,-131,295,108,75,6
13451,-402,188,-159,-85,-47,228,212,329,182,38,162,525,276,127,315,205,187,68,169,134,104,57,278,221,77,140,318,-103,276,88,76,-73
13452,-409,188,-124,-84,-49,227,202,356,180,40,175,549,269,135,331,232,211,89,175,143,140,90,291,222,102,168,352,-63,266,72,58,-2
13453,-411,183,-129,-103,-64,233,221,355,168,23,172,563,283,119,310,218,243,101,182,130,138,89,353,242,106,148,364,53,333,75,38,0
13454,-387,210,-95,-77,-61,232,244,367,178,27,165,570,300,120,293,236,246,105,184,130,155,102,353,262,104,160,403,150,400,161,103,73
13455,-373,228,-53,-77,-58,224,267,392,186,23,184,587,307,130,296,249,244,123,182,130,153,132,332,258,77,152,390,124,391,126,56,-37
13456,-371,209,-71,-79,-61,225,270,359,185,26,173,574,301,104,295,256,240,93,157,108,123,127,307,241,65,130,380,26,342,120,50,-117
13457,-341,220,-41,-49,-41,260,298,387,201,34,183,594,293,111,295,275,268,116,170,115,150,173,347,249,61,144,377,82,337,127,41,-81
13458,-359,213,-45,-73,-63,268,326,388,197,14,200,591,296,110,290,266,260,124,157,96,143,181,338,229,41,116,378,43,325,103,16,-57
13459,-348,226,-47,-62,-64,285,321,393,197,31,213,612,301,108,308,277,253,137,167,103,146,220,362,250,69,111,394,23,358,161,50,-12
13460,-344,218,-25,-60,-70,291,280,409,183,43,199,618,299,111,296,273,311,137,174,104,138,255,420,287,65,119,390,109,414,203,76,35
13461,-345,222,-45,-80,-37,280,305,393,194,34,217,615,298,100,281,275,367,140,160,93,154,242,417,261,65,108,406,134,393,159,86,49
13462,-365,215,-59,-78,-66,280,304,375,182,29,198,602,295,97,287,290,321,125,153,82,160,259,373,245,47,113,437,113,383,181,101,77
13463,-368,221,-86,-71,-52,311,341,374,178,49,226,607,287,106,284,304,280,128,181,88,156,273,376,258,51,121,444,147,398,201,115,99
13464,-355,217,-70,-77,-27,315,373,380,186,62,252,619,293,109,304,309,293,138,147,70,156,242,350,231,40,97,420,63,360,168,60,36
13465,-379,227,-69,-87,-27,309,347,379,183,48,238,619,264,97,311,304,292,109,121,54,167,256,328,211,1,90,428,9,327,115,61,46
13466,-364,249,-35,-81,-33,328,365,389,204,69,256,624,276,123,314,324,319,117,141,85,206,244,353,232,33,130,470,89,378,189,132,91
13467,-378,252,-79,-95,-40,324,347,365,177,68,273,594,268,97,316,321,305,78,137,84,190,227,318,195,26,130,471,107,370,183,118,73
13468,-404,249,-90,-105,-31,332,339,341,184,83,291,560,267,103,330,353,226,58,130,90,204,255,279,169,34,170,466,59,337,180,154,126
13469,-416,219,-86,-110,-24,317,324,337,184,70,261,543,248,107,319,323,261,42,129,90,223,228,300,180,55,169,473,113,394,254,192,207
13470,-412,213,-96,-115,-23,317,320,308,186,49,227,513,233,82,301,298,244,-7,79,65,170,165,256,122,4,135,423,43,280,147,123,145
13471,-414,206,-142,-123,-25,300,298,292,175,64,231,489,226,108,329,291,234,-4,97,85,182,138,247,113,10,141,427,36,290,144,134,129
13472,-458,161,-177,-136,-34,298,294,262,156,59,224,460,205,116,328,306,178,-10,115,114,212,161,219,136,53,171,469,63,389,266,275,224
13473,-428,181,-168,-142,-53,291,273,237,156,44,199,449,192,97,302,290,169,-23,105,101,193,153,188,147,46,177,447,61,393,325,329,231
13474,-420,221,-172,-143,-45,291,288,230,159,50,208,435,178,108,306,275,169,-36,101,100,164,133,197,144,52,152,380,105,391,273,220,59
13475,-391,235,-143,-158,-51,305,326,244,140,39,210,459,174,102,305,281,177,-61,91,92,134,99,183,107,21,114,332,7,292,124,34,-106
13476,-391,206,-148,-159,-51,300,343,251,134,22,236,465,189,127,333,306,168,-39,118,122,184,140,197,120,58,150,403,-16,289,153,87,23
13477,-396,198,-131,-157,-56,277,303,273,145,27,242,499,207,136,342,321,197,1,143,152,206,217,207,152,79,173,363,-65,274,139,123,-1
13478,-358,228,-101,-127,-43,285,328,305,149,31,238,525,222,141,347,336,206,17,160,163,214,262,203,178,118,197,372,-9,273,143,106,-87
13479,-366,237,-110,-127,-36,275,332,308,142,28,242,506,240,166,364,359,193,44,209,191,252,280,260,238,156,255,435,151,377,263,246,118
13480,-354,262,-104,-122,-27,261,314,330,169,38,235,551,280,161,380,357,227,86,247,231,286,304,353,305,212,300,489,277,486,361,318,228
13481,-376,244,-84,-139,-51,256,329,341,166,33,233,560,285,153,367,337,261,102,255,228,263,159,330,284,200,267,453,139,442,318,266,117
13482,-378,232,-67,-140,-74,251,329,348,177,19,238,560,288,152,358,349,302,115,242,219,249,123,329,287,191,249,432,25,419,315,265,80
13483,-349,248,-36,-92,-64,250,331,386,179,25,253,597,307,173,361,344,302,116,260,216,240,216,369,333,212,241,425,128,487,359,238,115
13484,-362,264,-32,-94,-47,258,341,396,180,44,255,629,324,172,375,370,312,148,269,202,244,286,387,337,225,242,448,195,529,379,267,151
13485,-395,209,-49,-112,-68,253,334,400,171,36,246,619,310,161,354,370,346,169,257,197,241,297,444,353,230,231,428,299,535,370,247,87
13486,-408,193,-61,-113,-85,259,320,392,184,31,245,600,308,164,338,376,327,156,249,206,247,318,440,334,224,235,443,271,480,329,248,73
13487,-400,203,-59,-125,-79,272,330,382,182,32,260,608,291,168,342,382,298,116,230,191,258,316,379,292,189,215,462,84,419,295,231,111
13488,-411,198,-55,-118,-62,279,316,368,170,43,249,601,281,154,336,368,234,88,215,186,232,323,339,257,176,193,439,-18,365,262,181,71
13489,-433,191,-101,-130,-56,266,285,343,165,30,224,563,265,129,335,330,178,87,191,172,204,256,314,231,146,166,415,-46,326,206,176,61
13490,-465,168,-146,-140,-56,273,294,324,178,45,234,542,246,130,337,325,212,57,179,165,189,204,313,220,139,157,406,1,331,205,166,78
13491,-482,138,-164,-133,-69,287,246,287,162,43,216,499,234,142,318,333,201,39,164,157,199,231,337,252,130,181,486,61,390,277,257,207
13492,-471,127,-161,-134,-69,270,233,284,163,31,173,473,211,91,305,299,156,25,148,151,183,236,325,225,107,180,486,45,411,287,280,258
13493,-460,132,-190,-141,-51,261,245,281,155,17,177,457,196,80,296,250,154,12,121,140,164,191,299,212,110,157,430,78,420,303,255,85
13494,-449,137,-162,-128,-37,269,241,282,173,33,182,483,201,93,287,262,196,27,131,126,169,147,301,200,83,142,363,68,377,226,132,-74
13495,-424,154,-142,-113,-25,301,285,307,170,56,205,492,210,90,302,311,235,51,139,137,195,201,327,210,87,156,392,87,358,194,86,-12
13496,-427,147,-142,-128,-15,292,254,297,163,50,216,497,218,109,327,341,207,71,153,164,251,278,357,235,132,219,509,152,436,316,242,228
13497,-405,157,-104,-112,-13,288,253,307,168,53,200,506,219,101,326,337,206,56,156,161,240,290,355,224,124,209,492,147,375,239,213,176
13498,-391,159,-117,-85,-9,274,249,323,177,55,203,516,226,94,320,315,224,68,132,150,217,247,360,229,112,176,426,169,381,206,124,-89
13499,-411,178,-168,-109,-3,277,256,291,165,48,212,496,228,89,310,314,222,53,129,135,226,278,346,231,91,176,436,119,402,235,139,-53
13500,-416,151,-127,-108,-10,246,201,304,167,23,162,510,234,91,282,270,224,65,126,115,181,227,317,203,59,151,425,-4,319,137,58,-87
13501,-414,144,-124,-102,-17,250,216,313,170,14,183,536,225,91,295,288,255,68,139,105,182,213,338,208,75,159,441,-2,313,157,119,17
13502,-392,154,-120,-103,-18,250,235,309,166,0,195,531,241,89,294,296,227,72,152,135,216,188,335,249,106,215,530,1,377,268,264,312
13503,-376,174,-101,-98,-11,254,233,335,170,5,183,554,252,92,308,320,260,82,159,157,255,237,371,286,119,248,595,89,431,338,334,442
13504,-385,201,-76,-72,4,266,254,347,180,15,204,588,260,95,313,311,315,110,150,111,225,289,402,270,94,227,520,234,439,289,208,0
13505,-348,231,-38,-56,21,278,295,391,179,19,228,607,269,91,310,345,311,118,150,106,229,341,421,258,89,179,471,229,413,200,62,-308
13506,-331,235,-18,-46,7,282,312,392,184,16,226,615,256,71,326,362,313,118,150,115,263,329,406,279,100,176,494,139,426,238,149,-43
13507,-315,246,0,-61,-14,273,322,399,178,22,254,651,264,74,326,364,365,140,169,109,275,304,410,284,97,215,549,172,470,310,250,140
13508,-276,300,37,-33,13,306,379,440,179,36,291,690,294,91,360,405,405,168,169,142,286,334,459,313,118,229,575,250,489,320,218,96
13509,-265,307,61,-23,16,332,390,465,197,41,302,750,311,85,371,436,464,215,164,147,337,392,488,337,133,249,618,300,496,349,274,177
13510,-245,336,68,-1,20,344,373,489,212,38,316,769,346,116,389,458,460,250,206,153,378,442,493,380,174,289,690,380,590,486,412,330
13511,-224,332,97,2,27,352,420,484,201,41,328,771,345,96,384,472,467,231,206,134,354,465,468,359,150,262,660,283,539,427,374,236
13512,-224,334,82,2,27,354,440,477,188,31,333,748,314,69,356,468,487,220,176,96,329,492,487,328,111,225,593,238,485,351,267,44
13513,-236,346,65,-6,28,354,446,463,204,32,339,750,306,65,367,488,450,199,155,109,354,526,445,308,96,238,618,141,428,319,277,109
13514,-230,317,64,-26,19,345,432,446,184,35,334,723,306,59,353,456,405,187,129,105,322,483,409,260,73,213,593,116,394,291,262,128
13515,-230,291,58,-26,8,362,415,445,193,46,320,727,302,61,371,433,392,191,164,124,331,448,429,294,109,255,627,229,481,382,370,310
13516,-236,306,47,-8,20,374,405,444,187,53,317,747,286,72,374,440,413,180,161,133,347,447,402,265,102,252,629,153,394,297,332,318
13517,-254,303,30,-28,26,393,403,424,169,73,318,707,292,70,382,466,361,166,152,147,370,538,380,249,106,264,652,68,355,280,339,436
13518,-267,298,36,-25,41,413,401,438,184,82,329,691,286,62,385,463,359,161,144,145,348,564,401,269,117,267,635,112,401,302,329,381
13519,-258,304,71,-18,49,425,409,459,196,75,324,709,285,50,358,417,378,151,137,132,294,453,415,252,80,200,553,153,366,215,162,156
13520,-243,299,49,-36,31,410,388,440,171,59,286,685,269,47,322,360,368,129,124,111,251,303,414,231,71,173,507,194,380,243,165,138
13521,-274,279,14,-43,27,388,355,419,174,71,261,650,257,52,301,349,337,114,131,103,220,375,380,231,74,155,477,209,390,237,144,34
13522,-310,233,-14,-43,20,351,285,399,171,40,233,642,245,46,310,331,358,125,139,123,201,394,403,252,84,159,451,245,407,229,128,-77
13523,-309,229,7,-39,21,372,300,407,185,52,227,661,257,75,312,308,322,129,151,147,185,179,411,273,106,148,382,237,420,232,100,-176
13524,-316,257,41,-36,38,360,344,413,191,56,238,673,249,84,319,303,355,132,158,155,173,158,415,280,103,157,357,209,399,221,76,-201
13525,-308,281,9,-43,37,378,345,380,194,80,259,657,235,97,351,329,391,128,174,195,223,262,445,289,130,204,447,189,444,264,140,45
13526,-338,216,-45,-83,32,343,277,360,182,61,237,630,244,103,348,315,329,120,182,224,256,252,464,306,171,268,521,232,508,371,281,310
13527,-334,231,-45,-73,31,358,305,354,177,53,241,625,248,104,360,350,315,116,178,233,279,270,470,329,197,284,531,341,524,386,333,340
13528,-345,255,-59,-74,18,338,304,345,170,57,227,604,252,103,358,369,321,125,186,243,278,287,477,338,199,272,515,439,534,355,268,278
13529,-307,232,-52,-68,2,342,291,358,171,46,224,640,266,119,360,370,344,159,211,240,270,327,497,371,214,261,495,478,586,376,235,135
13530,-310,236,-43,-82,0,327,338,347,168,45,238,630,259,126,400,399,348,128,212,256,301,328,439,363,221,292,525,226,559,411,302,93
13531,-336,228,-64,-93,-2,311,324,343,164,53,250,593,246,124,405,410,344,113,217,276,316,335,426,348,235,325,562,196,536,422,290,146
13532,-335,238,-40,-98,-8,303,325,345,167,42,246,620,258,144,388,445,374,124,229,256,318,363,444,345,221,314,584,279,479,341,252,20
13533,-332,227,-42,-104,-2,319,353,348,170,29,279,636,268,135,402,449,385,112,211,254,311,436,430,322,205,297,553,185,387,248,188,-56
13534,-314,241,-1,-82,-5,321,357,370,184,21,257,656,273,133,382,416,410,133,198,236,258,432,450,282,175,236,434,163,352,173,82,-218
13535,-313,230,-7,-70,-8,296,331,392,192,14,260,672,292,126,375,418,416,161,224,248,259,404,499,323,190,245,430,230,423,231,130,-196
13536,-361,193,-44,-69,-17,269,302,395,193,11,245,648,300,128,365,406,369,153,227,252,280,328,500,344,207,263,453,266,484,299,207,-56
13537,-352,208,-37,-65,-28,275,326,384,198,18,238,676,296,120,362,404,342,160,213,217,269,307,461,323,192,268,469,192,457,288,195,-41
13538,-337,213,-8,-58,-16,292,355,398,187,24,253,680,302,115,356,424,390,156,208,217,263,358,454,301,178,253,448,130,405,230,132,-140
13539,-322,222,1,-57,-2,299,362,403,186,23,269,684,293,111,375,417,373,139,205,206,275,345,435,285,152,243,450,65,355,191,114,-123
13540,-344,196,-14,-76,-3,302,308,405,200,18,264,676,305,110,348,437,348,137,194,180,288,365,416,280,133,241,511,21,334,205,174,50
13541,-341,210,-5,-60,17,321,313,419,184,42,261,673,302,109,343,431,336,145,193,196,268,374,397,272,131,260,538,27,339,250,235,161
13542,-320,220,-21,-52,23,325,329,410,185,42,252,646,274,103,335,377,353,148,178,183,241,319,412,271,132,227,496,91,373,255,209,144
13543,-347,202,-23,-58,6,318,316,408,193,32,261,652,290,83,323,357,347,135,182,148,226,267,408,267,126,217,462,86,376,248,192,68
13544,-382,175,-45,-91,15,318,301,395,194,30,241,648,281,95,316,345,347,127,179,141,231,283,436,265,108,199,462,148,382,245,164,58
13545,-354,192,-42,-76,23,347,333,391,197,39,249,642,269,94,308,350,335,106,168,144,229,335,408,254,100,170,453,112,372,196,97,-14
13546,-329,220,-2,-59,28,360,337,388,196,60,256,640,264,94,295,351,307,105,142,137,209,323,384,228,82,175,443,31,327,154,88,-61
13547,-353,187,-54,-95,2,320,284,346,177,41,222,610,250,75,300,358,277,77,138,119,208,304,379,231,104,204,481,99,406,286,227,101
13548,-374,166,-68,-100,4,309,244,325,163,32,215,585,240,57,295,379,230,60,142,133,247,344,375,248,115,216,506,130,440,355,306,200
13549,-390,149,-67,-94,8,324,272,321,169,41,225,580,239,65,292,381,200,74,148,127,269,357,400,278,132,247,549,218,505,410,336,278
13550,-356,181,-16,-79,17,348,300,344,187,60,251,600,244,68,312,391,263,82,161,148,272,360,413,273,150,269,573,259,487,354,285,310
13551,-323,233,-33,-63,26,361,341,343,200,52,266,609,238,82,334,404,293,86,171,155,286,381,401,274,125,259,548,234,419,251,154,247
13552,-334,241,-18,-89,18,342,322,356,166,49,229,591,231,67,329,365,301,85,151,139,263,329,420,273,119,243,500,329,429,281,183,145
13553,-323,258,-7,-90,22,351,332,358,162,60,238,597,251,83,337,383,299,100,155,161,283,329,404,264,121,259,495,349,416,296,232,56
13554,-313,266,1,-91,19,352,353,341,175,36,254,605,238,85,336,416,308,82,145,145,288,381,358,237,96,227,497,142,328,199,132,-54
13555,-295,274,21,-88,24,339,364,356,152,28,279,616,235,63,345,429,345,57,140,146,288,372,351,217,82,222,499,70,281,129,42,25
13556,-268,277,25,-59,34,342,357,386,179,43,272,642,251,85,363,425,359,54,140,161,320,296,339,204,93,250,576,10,234,114,126,306
13557,-227,323,83,-50,44,352,394,401,166,46,268,663,246,95,362,415,392,47,145,155,314,229,345,191,94,277,559,-55,217,118,131,261
13558,-238,354,73,-41,40,357,414,390,164,30,287,681,246,95,375,437,425,70,137,162,318,280,345,196,79,259,527,-76,222,151,118,21
13559,-249,346,63,-27,22,357,427,402,182,30,298,688,263,107,364,451,377,100,149,163,320,339,382,233,114,265,527,2,309,234,199,-29
13560,-278,333,45,-37,17,348,415,403,173,30,296,667,270,97,387,480,362,93,160,175,334,354,392,246,131,285,555,106,392,290,230,121
13561,-261,334,64,-38,10,341,369,421,194,30,280,669,269,102,363,463,396,91,182,166,336,403,378,243,107,259,546,132,373,252,179,82
13562,-288,305,45,-59,-2,342,376,419,186,45,292,672,270,98,365,452,382,104,181,183,340,403,400,262,138,270,572,141,394,283,239,200
13563,-277,304,86,-53,-5,335,394,431,180,55,290,710,274,97,367,468,402,145,180,176,340,380,437,275,152,278,548,210,450,324,270,104
13564,-248,348,73,-42,10,363,407,429,187,52,302,693,276,96,364,481,401,132,166,172,311,362,437,265,139,251,523,191,393,268,209,39
13565,-254,353,61,-44,16,389,449,429,189,69,335,681,274,105,382,485,382,128,188,193,342,282,465,295,157,282,543,274,432,333,268,262
13566,-273,324,47,-46,22,386,410,415,187,79,333,662,283,130,399,502,345,132,208,214,371,333,468,307,180,335,611,353,531,429,379,484
