,Fp1,Fp2,F7,F3,Fz,F4,F8,FC5,FC1,FC2,FC6,T7,C3,Cz,C4,T8,TP9,CP5,CP1,CP2,CP6,TP10,P7,P3,Pz,P4,P8,PO9,O1,Oz,O2,PO10
140115,548,-272,-538,-432,-372,-40,-23,74,32,-57,100,345,-117,5,171,-29,-560,-166,-55,28,28,-73,434,-445,296,156,134,251,126,152,92,-147
140116,515,-278,-537,-449,-366,-127,-34,73,30,-60,40,388,-141,-16,134,-92,-498,-211,-79,-8,-47,-70,412,-502,237,84,0,-59,-22,-75,-161,-394
140117,541,-293,-535,-451,-357,-168,-68,97,34,-80,66,449,-134,-3,127,-113,-536,-222,-92,-21,-51,-79,395,-503,237,77,24,36,17,-52,-152,-376
140118,526,-345,-528,-416,-365,-174,-126,86,26,-76,75,418,-173,-12,147,-137,-570,-222,-111,-29,-61,-132,346,-529,241,73,70,164,46,22,-36,-214
140119,515,-359,-507,-371,-356,-155,-112,101,26,-63,35,343,-162,-6,141,-124,-657,-217,-131,-46,-57,-129,274,-562,227,61,84,-17,-26,17,-30,-198
140120,533,-349,-529,-419,-363,-128,-81,84,18,-79,64,311,-153,-22,145,-171,-703,-194,-122,-29,-50,-155,314,-540,224,78,109,32,-41,17,-2,-125
140121,571,-321,-484,-490,-380,-140,-90,51,15,-93,83,304,-163,-33,171,-158,-739,-174,-114,6,-24,-184,367,-532,223,98,140,-69,-97,-10,36,-2
140122,596,-304,-525,-537,-405,-123,-72,-15,9,-70,77,323,-165,-3,192,-115,-671,-187,-89,10,1,-121,409,-508,254,119,202,-48,-24,37,86,64
140123,636,-302,-495,-554,-372,-68,-50,-14,11,-68,122,349,-152,2,210,-84,-662,-182,-68,15,0,-151,420,-497,261,122,154,-38,8,53,57,-15
140124,622,-387,-447,-551,-409,-24,-101,39,-10,-90,105,349,-141,-27,201,-65,-640,-194,-89,-1,21,-231,334,-514,252,154,243,8,2,73,95,11
140125,658,-443,-332,-488,-408,-24,-44,92,4,-77,118,145,-111,-11,207,-90,-647,-187,-84,26,75,-229,325,-495,280,193,369,129,42,99,100,-33
140126,672,-435,-243,-432,-381,13,-53,95,22,-80,120,135,-91,-20,201,-110,-620,-151,-68,17,41,-282,400,-463,280,150,291,279,54,73,46,-70
140127,620,-323,-402,-443,-372,-3,-42,53,29,-70,101,257,-114,-11,190,-63,-614,-88,-42,8,46,-322,551,-441,288,162,201,342,102,150,120,29
140128,579,-226,-429,-471,-357,-56,-66,50,29,-73,90,327,-119,-1,182,11,-579,-88,-59,16,64,-246,582,-426,299,161,218,265,128,190,148,71
140129,611,-253,-447,-446,-364,-123,-163,118,46,-85,66,311,-91,-18,175,24,-629,-96,-60,-5,28,-193,543,-428,275,131,198,201,138,173,142,53
140130,543,-345,-455,-405,-368,-83,-140,173,39,-87,122,324,-114,-13,187,-28,-749,-102,-78,-8,28,-299,528,-484,278,115,208,254,135,170,168,145
140131,522,-350,-418,-375,-352,-86,-201,154,46,-74,110,448,-118,-33,193,-30,-698,-120,-100,3,71,-399,479,-518,255,158,239,171,57,121,134,110
140132,572,-323,-431,-381,-355,-30,-213,73,20,-99,90,386,-154,-58,165,-56,-702,-210,-125,-55,26,-347,303,-579,195,127,185,-27,-79,-31,-33,-112
140133,650,-252,-471,-368,-344,-46,-140,67,8,-89,116,324,-154,-47,170,-148,-652,-188,-121,-49,10,-307,199,-591,207,111,146,26,-84,6,11,-153
140134,641,-304,-437,-399,-330,-168,-176,79,6,-93,66,311,-152,-31,160,-195,-566,-200,-117,-37,25,-252,326,-552,233,88,138,114,-26,60,89,-9
140135,481,-480,-411,-423,-345,-112,-200,63,-5,-81,66,286,-137,-31,164,-163,-593,-174,-107,-22,-1,-255,444,-521,232,85,55,292,32,108,128,106
140136,428,-533,-442,-455,-345,-54,-165,52,-5,-89,86,290,-135,-40,151,-193,-516,-142,-126,-69,-32,-373,481,-509,209,29,-39,476,59,51,29,-44
140137,505,-378,-487,-453,-344,-21,-110,96,18,-79,83,290,-103,-51,140,-169,-550,-40,-136,-103,-58,-374,304,-557,167,-31,-94,85,-107,-96,-114,-171
140138,598,-289,-535,-486,-354,-110,-85,137,7,-99,87,325,-133,-50,123,-127,-700,-158,-157,-104,-66,-358,215,-574,167,-19,-15,-68,-105,-43,-29,-15
140139,594,-230,-481,-462,-352,-157,-69,135,14,-86,120,364,-150,-63,146,-82,-606,-288,-161,-103,-67,-335,301,-566,153,-5,20,33,-117,-71,-25,6
140140,545,-229,-524,-376,-346,-127,-122,117,22,-99,100,318,-167,-73,109,-170,-482,-242,-199,-129,-85,-204,310,-575,127,-28,13,20,-119,-82,-39,4
140141,497,-261,-586,-331,-341,-100,-122,87,0,-113,107,462,-175,-87,96,-166,-470,-232,-194,-118,-74,-154,337,-580,139,10,26,152,-72,-43,-18,24
140142,476,-234,-562,-371,-344,-131,-64,108,19,-108,33,664,-159,-75,103,-95,-415,-179,-156,-97,-45,-160,449,-513,175,70,105,480,63,61,24,56
140143,546,-176,-596,-374,-333,-164,-18,168,27,-104,24,572,-162,-82,162,-132,-534,-198,-141,-81,-51,-131,348,-526,193,104,168,227,109,134,100,199
140144,614,-201,-530,-378,-326,-92,-7,195,37,-84,111,718,-154,-65,163,-85,-545,-134,-126,-64,-12,-84,401,-491,215,120,183,205,73,130,134,288
140145,630,-277,-453,-376,-340,-120,7,221,30,-76,120,668,-110,-62,162,-57,-541,-123,-136,-84,0,-111,407,-496,202,90,133,30,-31,75,100,206
140146,668,-260,-337,-372,-348,-114,-10,207,44,-87,160,479,-91,-59,186,-122,-496,-104,-132,-73,1,-127,421,-503,221,121,203,71,33,121,165,236
140147,646,-279,-369,-415,-364,-52,-39,162,40,-78,172,281,-116,-55,179,-260,-473,-114,-129,-58,-24,-213,431,-515,205,89,128,250,92,115,85,-71
140148,649,-359,-415,-419,-360,-8,-77,163,26,-77,147,-77,-125,-59,157,-284,-607,-107,-107,-50,-30,-211,377,-499,205,54,84,247,81,93,25,-226
140149,681,-419,-387,-426,-354,-23,-72,131,19,-78,162,-154,-124,-42,144,-181,-631,-118,-124,-68,-13,-186,434,-501,212,63,86,195,18,47,37,-123
140150,642,-353,-406,-441,-344,-120,-85,104,-8,-86,132,141,-178,-47,126,-60,-622,-140,-130,-73,2,-256,491,-494,199,72,91,36,-33,54,98,43
140151,616,-299,-426,-470,-370,-183,-148,63,-19,-108,111,353,-203,-81,132,-15,-625,-196,-179,-94,29,-276,427,-528,181,79,171,-127,-62,81,198,178
140152,558,-260,-503,-425,-374,-219,-90,74,4,-100,116,511,-171,-44,148,70,-597,-200,-174,-75,63,-324,319,-520,188,95,247,18,-24,76,155,138
140153,534,-341,-487,-383,-355,-172,-142,107,29,-99,90,577,-175,-57,144,8,-548,-188,-149,-64,46,-378,314,-510,189,42,183,225,-7,-9,-24,-128
140154,592,-289,-481,-330,-372,-168,-104,146,16,-103,99,527,-160,-63,125,-6,-596,-142,-171,-83,-1,-372,347,-501,161,1,124,25,-73,-94,-96,-204
140155,550,-273,-520,-305,-384,-214,-135,185,17,-103,133,388,-126,-68,126,20,-681,-81,-149,-91,6,-350,397,-489,184,29,213,10,-66,-43,-49,-49
140156,507,-301,-491,-293,-371,-222,-154,188,30,-106,120,435,-83,-51,164,8,-567,-32,-113,-78,15,-222,391,-480,214,64,212,214,-1,-21,-58,-93
140157,553,-318,-479,-308,-368,-171,-39,128,28,-88,187,461,-125,-62,201,-3,-587,-141,-133,-52,30,-314,284,-530,201,78,136,184,-36,-32,-63,-100
140158,626,-324,-458,-323,-344,-132,8,114,34,-70,233,411,-159,-72,181,1,-597,-182,-167,-67,10,-320,294,-546,174,60,85,198,-87,-68,-77,-68
140159,654,-328,-454,-303,-336,-48,-21,109,29,-68,207,426,-151,-59,181,-51,-545,-151,-149,-84,-16,-214,275,-560,163,41,22,96,-81,-25,-5,1
140160,625,-277,-469,-341,-321,0,10,38,8,-61,195,523,-191,-58,201,-108,-509,-152,-150,-73,-29,-174,300,-552,169,40,39,156,-37,49,69,75
140161,594,-233,-547,-386,-324,-7,-8,92,15,-69,198,436,-149,-58,192,-94,-604,-175,-150,-81,-5,-125,281,-568,179,56,106,51,-70,35,118,252
140162,581,-295,-590,-408,-341,-2,-39,101,11,-75,200,392,-117,-48,173,-94,-681,-95,-159,-73,-5,-158,264,-582,184,71,97,0,-83,49,180,337
140163,559,-341,-538,-414,-368,10,-57,107,16,-68,204,366,-98,-36,185,-55,-502,-47,-154,-45,10,-184,313,-532,191,96,168,147,-3,145,281,377
140164,586,-356,-484,-414,-348,-5,-70,126,5,-69,242,372,-124,-59,166,-29,-460,-214,-145,-50,-21,-166,379,-520,181,56,109,206,-3,47,78,136
140165,701,-271,-479,-376,-328,0,-62,150,10,-60,164,453,-144,-58,138,-89,-511,-208,-145,-86,-55,-172,334,-532,145,12,-2,183,-13,-13,-50,-76
140166,722,-240,-479,-365,-321,-111,-50,186,24,-59,165,464,-115,-18,171,-119,-466,-163,-118,-50,-24,-72,349,-502,186,49,112,221,1,50,132,161
140167,663,-246,-492,-388,-369,-186,-17,135,0,-82,184,562,-151,-31,169,-117,-459,-172,-140,-68,-78,-69,329,-513,157,8,24,60,-79,-63,-40,-111
140168,619,-225,-529,-352,-369,-198,19,110,4,-94,87,692,-161,-42,125,-77,-508,-169,-128,-79,-85,-128,367,-485,165,8,-1,23,-48,-67,-60,-292
140169,579,-238,-642,-332,-334,-174,54,142,29,-76,93,548,-89,-23,162,23,-537,-121,-101,-31,-10,-215,463,-457,214,85,138,-2,-7,57,160,109
140170,550,-317,-640,-335,-358,-83,34,143,31,-69,71,421,-80,-50,158,62,-571,-94,-87,-31,13,-258,502,-446,224,101,199,6,-2,92,191,243
140171,670,-313,-483,-270,-329,-7,84,161,62,-58,89,401,-53,-21,188,65,-527,-63,-91,-56,-20,-120,552,-462,207,56,83,108,-10,-46,-84,-208
140172,692,-291,-443,-266,-298,7,81,112,47,-59,109,444,-72,-22,192,44,-440,-102,-93,-31,-15,-96,513,-481,180,58,131,102,-37,-107,-183,-338
140173,611,-308,-466,-330,-329,-36,19,92,28,-56,123,416,-98,-29,207,107,-461,-139,-99,-8,21,-257,431,-505,202,71,189,87,-45,-80,-69,-118
140174,625,-275,-486,-365,-342,-67,71,66,29,-70,161,406,-124,-22,230,85,-452,-132,-105,-6,45,-218,448,-499,222,119,209,150,9,0,19,53
140175,636,-247,-476,-371,-337,-47,64,64,25,-55,174,413,-123,-21,216,-7,-477,-142,-82,-13,4,-188,429,-484,226,113,163,111,-6,-3,9,9
140176,603,-228,-451,-360,-351,-37,22,109,23,-55,166,411,-108,-50,201,-43,-487,-127,-87,-47,-55,-196,417,-495,212,55,20,102,-31,-63,-111,-316
140177,591,-294,-458,-342,-336,-21,6,85,34,-42,203,324,-110,-16,232,-66,-513,-68,-54,8,-13,-155,501,-421,254,98,104,308,87,44,-26,-190
140178,568,-346,-600,-365,-356,-17,-21,70,25,-56,204,272,-91,-6,232,-116,-455,-61,-35,31,19,-187,506,-393,280,141,192,422,136,105,107,1
140179,634,-326,-640,-352,-364,-38,-18,116,33,-53,214,332,-76,1,239,-93,-440,-64,-33,23,41,-277,517,-379,280,151,245,405,86,53,91,-1
140180,694,-256,-627,-349,-389,-146,-36,59,6,-50,262,300,-165,-18,241,72,-631,-171,-77,9,83,-403,321,-474,248,117,218,-109,-46,-29,-21,-136
140181,673,-197,-641,-349,-379,-233,-101,74,-6,-54,296,238,-166,-23,266,142,-713,-151,-73,25,134,-337,303,-489,255,138,258,-144,-55,-4,39,-36
140182,612,-327,-734,-386,-351,-90,-39,76,19,-42,282,442,-153,-18,270,105,-617,-125,-49,58,136,-131,442,-412,271,196,303,42,-5,19,70,-32
140183,585,-356,-716,-345,-338,-33,24,127,33,-45,256,454,-87,-6,269,75,-601,-126,-55,52,94,-107,553,-366,288,194,287,300,66,30,31,-103
140184,581,-339,-610,-340,-342,-73,61,126,7,-63,246,409,-97,-5,243,8,-535,-145,-70,23,30,-208,438,-404,276,132,82,396,144,87,10,-111
140185,590,-334,-557,-374,-331,-38,89,92,12,-31,247,408,-121,13,271,-98,-282,-153,-79,36,8,-259,445,-380,279,134,-1,467,251,189,91,-39
140186,579,-314,-575,-368,-346,-103,64,120,20,-40,237,444,-102,0,257,-193,-323,-107,-76,19,-16,-192,459,-408,262,126,18,319,179,151,84,12
140187,557,-246,-612,-371,-377,-115,60,70,8,-70,234,373,-120,-2,238,-128,-441,-112,-117,5,-17,-90,415,-432,247,130,99,79,81,85,97,25
140188,587,-229,-624,-381,-379,-138,64,96,6,-80,186,352,-118,0,217,-36,-485,-77,-111,4,-14,-41,389,-468,218,119,77,-125,-45,4,47,72
140189,646,-221,-620,-397,-363,16,45,152,27,-60,193,363,-99,-14,228,24,-527,19,-85,-3,-20,-75,284,-490,205,139,75,-216,-115,-3,112,181
140190,655,-342,-676,-439,-379,7,11,93,-11,-72,181,432,-157,-32,206,78,-511,-271,-134,-13,-47,-64,301,-526,200,141,136,-113,-93,51,186,251
140191,669,-417,-699,-428,-358,-21,48,55,-1,-65,132,652,-171,-35,211,77,-449,-279,-123,-6,-54,-10,357,-519,201,118,126,-17,-55,35,104,175
140192,676,-378,-700,-394,-350,0,108,117,23,-55,121,689,-144,-34,196,-86,-461,-161,-111,-21,-66,-63,325,-528,174,64,59,-5,-101,-64,-48,28
140193,631,-323,-619,-392,-352,-41,6,150,13,-78,25,467,-152,-49,176,-212,-498,-190,-132,-52,-114,-119,315,-570,129,22,0,-32,-153,-173,-170,-92
140194,584,-231,-643,-321,-352,-56,-55,135,9,-77,72,312,-152,-36,155,-122,-477,-169,-116,-39,-68,-148,364,-543,155,73,72,9,-83,-90,-86,-35
140195,520,-252,-766,-326,-357,20,-57,153,21,-63,131,203,-131,-31,172,-27,-442,-153,-94,-30,-65,-163,393,-507,183,65,107,40,-28,-24,-58,11
140196,518,-240,-724,-355,-353,25,-14,107,21,-58,156,119,-131,-30,157,13,-493,-164,-101,-29,-73,-171,374,-512,208,82,147,97,16,6,4,10
140197,498,-265,-715,-400,-364,-32,-14,56,-4,-70,69,200,-137,-27,139,26,-525,-176,-83,-21,-52,-156,378,-478,217,111,211,230,64,72,47,54
140198,559,-236,-652,-414,-365,-19,36,38,25,-42,156,365,-110,-2,213,99,-435,-96,-68,14,29,-254,482,-401,266,163,282,425,172,156,92,42
140199,577,-211,-577,-381,-341,-38,45,47,24,-34,263,384,-125,-8,224,144,-424,-117,-69,12,91,-371,521,-431,236,165,304,269,75,82,59,72
140200,541,-221,-626,-365,-339,-64,0,34,14,-42,233,395,-151,-18,223,67,-430,-150,-89,9,72,-225,463,-457,252,181,342,-62,14,79,102,145
140201,564,-219,-640,-369,-339,85,11,30,2,-30,206,460,-137,-42,195,0,-357,-124,-86,-4,28,-119,543,-406,252,170,343,43,24,74,80,132
140202,640,-257,-621,-377,-331,81,71,74,2,-35,250,479,-133,-43,206,-10,-368,-118,-86,8,24,-130,555,-377,242,129,348,112,39,106,120,199
140203,707,-200,-572,-341,-327,-12,78,107,6,-44,280,489,-126,-32,207,-104,-486,-89,-61,-16,-13,-174,519,-396,234,109,292,67,43,128,144,244
140204,696,-183,-599,-330,-325,-49,87,138,25,-49,267,465,-111,-38,186,-89,-511,-48,-70,-62,-71,-277,555,-418,192,40,117,-16,-3,-32,-97,-226
140205,665,-270,-790,-373,-339,-133,94,152,8,-66,250,419,-106,-51,195,6,-540,-82,-81,-33,37,-436,546,-449,208,107,275,-24,28,50,0,-149
140206,646,-325,-918,-425,-340,-129,96,99,-20,-46,260,480,-125,-26,233,104,-569,-106,-88,-3,91,-419,473,-484,236,163,382,119,118,159,183,90
140207,637,-333,-839,-419,-331,-110,37,28,-10,-39,228,631,-174,-17,215,35,-466,-97,-78,-20,41,-277,477,-492,223,114,240,309,138,91,48,-74
140208,572,-362,-855,-352,-330,-112,-1,144,5,-62,214,496,-166,-43,174,-23,-449,-206,-109,-88,-36,-250,446,-523,173,15,180,248,40,-59,-137,-194
140209,559,-399,-799,-320,-312,-51,22,137,18,-58,218,176,-148,-14,175,-30,-473,-208,-122,-67,-30,-129,342,-501,186,49,241,157,70,69,53,18
140210,512,-383,-689,-313,-333,-87,-47,121,14,-84,186,74,-138,-35,153,-52,-416,-200,-141,-68,-51,-90,319,-512,191,81,146,186,23,39,76,9
140211,561,-281,-622,-315,-352,-69,-65,95,6,-88,188,326,-160,-56,135,-131,-579,-237,-170,-86,-99,-75,243,-562,151,26,44,23,-70,-40,2,44
140212,608,-216,-682,-360,-349,-53,-7,51,1,-86,244,351,-162,-52,167,-101,-512,-188,-132,-51,-79,-94,260,-546,174,52,115,114,11,42,93,125
140213,639,-215,-683,-380,-324,10,72,59,6,-67,227,302,-175,-32,197,-38,-378,-164,-114,-33,-30,-91,308,-531,197,109,184,144,54,95,143,205
140214,648,-239,-648,-380,-358,-40,106,13,-12,-79,219,516,-226,-49,213,-77,-394,-151,-107,-22,-4,-112,358,-533,236,160,258,180,61,168,274,334
140215,653,-289,-654,-372,-362,-37,55,60,2,-72,228,548,-215,-33,216,-70,-382,-177,-90,7,1,-134,406,-502,247,192,339,270,92,198,320,445
140216,649,-366,-681,-333,-347,-23,-8,114,8,-79,201,489,-204,-44,203,-54,-449,-198,-87,-6,-16,-90,376,-531,224,189,284,41,14,107,188,332
140217,646,-340,-660,-343,-354,-49,0,112,-1,-94,186,417,-190,-71,165,-89,-493,-199,-144,-73,-134,-104,323,-563,159,49,10,-50,-124,-106,-168,-261
140218,638,-288,-630,-347,-334,-59,27,93,-3,-92,182,364,-157,-52,181,-124,-441,-113,-123,-72,-127,-159,280,-555,157,67,55,57,-91,-71,-99,-158
140219,598,-232,-676,-326,-339,-106,17,116,1,-74,182,245,-122,-40,200,-65,-366,-4,-88,-28,-61,-132,351,-502,212,145,229,260,-6,65,85,229
140220,596,-213,-687,-330,-362,-118,0,78,0,-84,170,178,-175,-41,181,-75,-336,-243,-127,-32,-22,-101,393,-524,210,156,265,142,-32,42,108,295
140221,567,-249,-714,-299,-360,-48,37,48,-23,-90,214,221,-208,-63,162,-98,-395,-194,-142,-64,-54,-185,357,-553,186,76,179,21,-91,-33,-26,-60
140222,611,-340,-696,-286,-358,-23,65,74,-4,-63,245,253,-204,-62,158,-110,-434,-186,-152,-93,-92,-183,347,-578,154,16,114,-28,-126,-82,-94,-281
140223,652,-368,-642,-309,-344,-15,49,74,16,-68,247,318,-198,-48,173,-177,-487,-201,-146,-85,-72,-88,328,-567,181,70,182,-83,-54,28,66,17
140224,626,-407,-650,-303,-332,5,25,123,1,-72,232,367,-202,-71,176,-272,-557,-194,-151,-102,-102,-159,340,-596,141,15,121,-167,-151,-128,-108,-71
140225,498,-380,-766,-320,-319,-11,-30,115,2,-77,219,421,-202,-42,192,-234,-478,-173,-125,-92,-82,-248,427,-569,162,59,156,-113,-138,-115,-67,10
140226,539,-277,-709,-280,-324,-62,-12,46,8,-66,256,426,-207,-24,208,-72,-493,-174,-139,-75,-56,-229,393,-540,198,77,219,-63,-32,-15,16,25
140227,548,-299,-776,-314,-330,-40,79,-89,0,-66,271,515,-271,-62,183,30,-463,-224,-162,-86,-67,-201,327,-559,185,65,247,-74,-34,-12,20,-39
140228,527,-390,-808,-386,-345,-20,41,-84,-8,-88,240,501,-278,-56,165,-11,-384,-212,-157,-73,-89,-195,426,-521,196,82,253,255,36,24,37,-4
140229,570,-369,-769,-348,-340,9,27,-9,-1,-69,218,286,-224,-31,158,-84,-384,-180,-164,-78,-112,-251,384,-503,194,64,160,394,130,47,-6,-164
140230,536,-332,-805,-351,-365,-38,-24,-50,-18,-93,179,216,-254,-47,154,-114,-440,-234,-162,-93,-97,-319,227,-581,176,60,225,54,59,52,70,71
140231,557,-293,-839,-404,-367,-109,-21,-58,-50,-116,188,181,-250,-56,171,-13,-508,-257,-185,-131,-85,-522,174,-630,129,-10,187,-169,-81,-89,-84,-32
140232,659,-256,-769,-395,-338,-133,73,49,-18,-97,221,204,-220,-52,182,126,-556,-236,-161,-116,-48,-532,122,-631,138,22,173,-354,-108,-144,-122,-156
140233,709,-284,-745,-356,-330,-195,149,82,12,-83,243,289,-173,-34,188,122,-504,-140,-135,-74,-43,-373,219,-570,185,45,124,-158,-48,-118,-170,-432
140234,745,-293,-772,-377,-332,-102,174,39,9,-78,233,215,-190,-29,199,110,-478,-178,-144,-60,-33,-301,320,-529,196,75,148,60,67,34,-40,-275
140235,737,-262,-730,-333,-303,-79,191,77,33,-59,221,56,-147,-28,199,117,-455,-175,-112,-60,-45,-242,395,-493,228,83,213,227,210,193,98,-61
140236,721,-243,-723,-300,-303,-62,176,115,22,-70,205,22,-153,-43,196,52,-442,-164,-109,-86,-61,-167,375,-503,213,74,215,219,192,163,119,1
140237,689,-171,-729,-294,-284,-29,208,41,9,-65,208,233,-197,-71,206,-2,-544,-213,-167,-107,-87,-71,293,-584,166,47,230,1,41,-1,4,-71
140238,656,-230,-724,-313,-282,-22,167,10,4,-51,237,433,-212,-64,213,-14,-670,-252,-211,-125,-104,-40,284,-642,135,66,272,-264,-75,-83,-9,-44
140239,705,-221,-622,-292,-272,-14,118,32,10,-71,241,535,-232,-87,183,-14,-451,-264,-223,-122,-80,-86,304,-646,131,26,250,-323,-174,-144,-49,-57
140240,735,-178,-571,-309,-263,-10,197,-15,-8,-60,271,580,-248,-76,194,-62,-306,-260,-211,-127,-127,-119,308,-643,113,-23,82,-232,-181,-123,-67,-76
140241,700,-182,-622,-319,-262,5,181,-63,-16,-65,301,640,-260,-79,176,-71,-369,-162,-225,-116,-154,-109,242,-644,106,-26,18,-162,-115,-82,-63,-98
140242,642,-173,-807,-302,-259,55,134,-27,3,-67,279,693,-258,-79,164,-63,-395,-110,-223,-116,-144,-193,200,-657,122,-13,8,-112,-116,-50,-39,-38
140243,612,-220,-851,-261,-271,28,75,38,0,-68,263,558,-246,-73,164,-90,-462,-303,-229,-107,-156,-222,235,-681,104,-7,36,-88,-138,-60,0,-19
140244,617,-281,-845,-260,-273,-15,30,83,3,-77,243,421,-235,-86,139,-120,-575,-238,-231,-119,-177,-244,237,-682,101,-3,58,-113,-165,-79,-23,-75
140245,615,-230,-829,-261,-263,0,76,144,51,-51,292,380,-172,-64,181,-107,-545,-148,-187,-105,-132,-225,321,-636,130,32,92,-55,-104,-23,1,-54
140246,620,-323,-782,-279,-284,113,47,100,29,-39,263,246,-177,-59,180,-69,-595,-147,-174,-80,-115,-270,363,-610,152,40,106,62,-39,43,107,29
140247,607,-385,-740,-298,-280,52,-36,96,31,-70,123,206,-173,-47,155,-81,-563,-119,-148,-61,-114,-342,457,-568,178,23,77,338,80,158,231,103
140248,563,-303,-759,-294,-305,-20,10,91,45,-65,210,330,-148,-33,177,-99,-362,-46,-89,-45,-114,-281,621,-454,217,50,104,801,237,252,267,122
140249,511,-277,-728,-296,-303,-65,59,46,23,-66,245,386,-194,-30,191,-61,-387,-114,-121,-64,-108,-188,419,-507,187,24,95,418,125,62,-24,-93
140250,429,-323,-735,-311,-313,4,24,-3,18,-46,235,382,-234,-51,186,-54,-464,-153,-152,-69,-60,-179,342,-573,164,31,181,93,-11,2,28,-26
140251,478,-301,-750,-276,-283,6,-11,-5,26,-41,273,383,-218,-63,220,-30,-509,-181,-148,-61,-66,-123,355,-585,167,25,169,-165,-92,-22,76,85
140252,539,-245,-759,-311,-317,-64,61,-59,-5,-57,204,384,-227,-76,198,-21,-448,-174,-175,-59,-88,-210,293,-603,144,-13,67,-296,-169,-60,0,5
140253,570,-258,-730,-298,-297,-23,139,-1,-6,-33,215,485,-247,-49,207,-2,-467,-158,-169,-43,-98,-306,251,-587,160,-25,68,-318,-202,-112,-58,-91
140254,588,-292,-747,-326,-309,-36,142,71,-6,-45,308,480,-236,-39,222,-180,-492,-140,-135,-54,-100,-284,248,-568,197,26,90,-156,-114,-21,-5,-42
140255,671,-186,-702,-288,-276,-99,126,105,20,-44,331,384,-216,-16,220,-329,-496,-133,-106,-17,-66,-221,272,-553,229,58,124,-140,-67,1,-10,-5
140256,704,-154,-753,-272,-274,-17,172,96,25,-23,334,241,-202,-16,261,-315,-503,-177,-88,-19,-45,-220,288,-547,236,94,165,-104,-52,-8,-2,-9
140257,657,-206,-857,-322,-283,31,171,43,16,-33,342,196,-202,-9,269,-208,-554,-185,-98,-29,-60,-266,270,-533,229,96,157,-135,-76,-13,-27,-115
140258,648,-267,-853,-331,-297,9,115,18,10,-21,361,172,-193,4,267,72,-656,-184,-100,5,-23,-468,254,-545,227,120,191,-257,-88,-19,-4,-114
140259,674,-326,-818,-318,-297,-75,41,35,11,-38,336,262,-211,-15,248,219,-761,-156,-125,-23,-10,-475,257,-539,219,89,182,-242,-63,-2,13,-37
140260,728,-334,-748,-320,-285,-86,48,36,8,-71,263,266,-220,-29,210,129,-539,-184,-150,-56,-95,-267,310,-523,209,17,72,-114,-53,-7,-36,-30
140261,726,-294,-774,-327,-300,15,79,-12,-8,-53,240,253,-212,-31,200,38,-371,-174,-119,-67,-141,-285,395,-480,225,-18,59,40,15,39,6,3
140262,731,-219,-786,-305,-292,15,136,-34,5,-44,284,487,-213,-24,218,-4,-356,-117,-110,-38,-121,-248,514,-440,248,6,87,84,73,86,61,10
140263,718,-212,-771,-311,-277,-15,152,-3,27,-35,295,462,-190,-7,215,-7,-441,-110,-87,-7,-84,-223,480,-409,268,32,144,227,127,140,115,122
140264,700,-237,-739,-299,-292,-39,123,45,24,-46,256,277,-156,-4,193,-25,-562,-132,-91,-9,-66,-262,310,-443,273,74,251,126,164,198,193,284
