,Fp1,Fp2,F7,F3,Fz,F4,F8,FC5,FC1,FC2,FC6,T7,C3,Cz,C4,T8,TP9,CP5,CP1,CP2,CP6,TP10,P7,P3,Pz,P4,P8,PO9,O1,Oz,O2,PO10
85311,-307,-53,73,-186,-78,-97,215,105,-172,39,-332,229,52,-396,40,69,372,88,-111,86,-626,471,494,-16,-101,187,268,53,36,-227,-90,-48
85312,-261,-24,109,-229,-81,-115,217,67,-180,28,-347,204,45,-386,59,199,477,23,-122,70,-607,443,440,-16,-91,201,287,74,65,-206,-70,-21
85313,-207,-3,160,-275,-94,-118,250,74,-169,19,-351,206,32,-388,61,250,388,17,-102,82,-630,394,435,-21,-102,197,243,53,58,-245,-98,-89
85314,-207,-7,212,-257,-93,-97,271,71,-170,27,-380,177,42,-378,39,273,405,34,-122,87,-621,460,444,-7,-90,198,280,130,94,-201,-70,-53
85315,-194,9,206,-246,-79,-119,311,76,-169,32,-352,183,13,-368,52,317,426,42,-135,99,-599,379,405,-7,-83,190,286,165,93,-208,-72,-50
85316,-180,35,215,-257,-56,-99,311,65,-177,33,-337,166,22,-376,69,283,415,41,-123,97,-575,389,412,-22,-85,216,291,202,97,-218,-71,-42
85317,-190,10,209,-257,-81,-73,269,-130,-166,58,-368,254,32,-360,85,270,449,66,-102,117,-526,493,430,16,-62,238,364,246,131,-140,-22,8
85318,-226,-38,109,-259,-102,-96,230,-59,-178,44,-427,220,11,-387,69,314,402,21,-122,92,-553,387,393,-2,-78,207,319,150,71,-201,-87,-55
85319,-249,-44,77,-285,-89,-95,233,138,-167,52,-385,180,42,-366,74,369,385,11,-110,93,-550,389,386,-1,-77,216,291,111,60,-251,-94,-88
85320,-323,-97,92,-246,-96,-113,177,54,-163,24,-323,172,33,-359,66,281,389,20,-97,103,-572,379,410,-15,-81,215,269,120,52,-250,-122,-115
85321,-328,-102,74,-269,-122,-146,152,65,-186,5,-310,171,21,-378,54,181,403,25,-102,103,-608,343,434,-17,-55,208,216,122,64,-251,-136,-107
85322,-283,-91,101,-274,-90,-113,182,106,-156,35,-295,199,70,-370,74,54,438,80,-81,122,-629,393,499,15,-37,224,164,153,96,-204,-96,-101
85323,-257,-45,139,-239,-93,-99,202,87,-168,45,-353,233,73,-358,55,135,475,99,-67,136,-664,439,518,47,-21,208,132,188,124,-182,-76,-80
85324,-222,-79,146,-266,-101,-106,188,145,-176,34,-456,200,82,-352,47,203,479,113,-56,125,-650,464,465,47,-41,201,177,169,133,-161,-27,-15
85325,-210,-134,216,-268,-104,-90,205,122,-155,31,-509,198,104,-346,56,187,512,109,-55,134,-632,453,465,64,-38,221,177,197,143,-162,-36,-25
85326,-235,-169,222,-266,-110,-81,110,67,-165,16,-510,201,83,-366,50,166,518,55,-74,126,-660,429,434,25,-55,214,199,188,123,-191,-53,-74
85327,-216,-219,180,-272,-120,-108,59,65,-147,40,-478,234,79,-344,62,171,454,87,-52,157,-635,419,463,38,-38,242,240,165,109,-186,-46,-74
85328,-271,-262,179,-299,-129,-118,47,64,-136,57,-417,221,67,-335,76,143,407,131,-47,152,-650,367,459,43,-39,222,214,164,105,-192,-60,-67
85329,-286,-289,181,-287,-151,-141,38,33,-146,45,-393,173,49,-335,66,127,419,87,-56,117,-667,300,415,26,-44,195,188,130,89,-198,-74,-36
85330,-264,-204,146,-265,-149,-170,115,28,-163,62,-421,200,77,-330,75,162,456,47,-46,126,-645,324,450,22,-53,213,222,142,116,-173,-33,31
85331,-326,-146,153,-262,-141,-157,165,73,-152,89,-458,235,82,-312,105,187,460,93,-41,151,-622,393,494,39,-31,234,218,175,134,-155,-2,-63
85332,-399,-105,154,-233,-119,-140,193,117,-145,57,-471,255,98,-309,63,178,457,114,-35,143,-634,415,523,50,-13,232,252,157,113,-173,-28,-76
85333,-449,-109,80,-247,-108,-156,195,146,-149,44,-414,278,107,-326,56,185,462,117,-31,144,-638,485,543,61,-8,218,265,123,89,-198,-31,47
85334,-451,-127,57,-241,-122,-172,171,176,-139,53,-454,234,99,-324,55,174,505,124,-46,139,-629,424,491,68,7,196,222,123,103,-190,-48,-16
85335,-446,-124,53,-254,-121,-170,186,165,-158,59,-445,192,69,-339,59,166,511,54,-75,130,-634,399,419,48,-17,219,213,110,76,-247,-92,-61
85336,-434,-102,111,-257,-103,-150,203,105,-165,61,-424,227,72,-335,77,205,417,69,-63,144,-601,393,440,32,-23,231,230,68,62,-225,-80,-106
85337,-388,-93,159,-246,-99,-142,213,77,-155,51,-409,256,82,-351,86,250,426,119,-63,150,-578,392,518,21,3,257,242,80,68,-194,-84,-65
85338,-360,-109,186,-266,-93,-133,222,39,-171,38,-389,282,70,-359,94,232,456,108,-68,141,-599,411,529,32,-10,237,234,125,84,-167,-42,3
85339,-359,-149,230,-243,-74,-98,253,66,-161,60,-367,269,69,-327,88,260,469,112,-49,157,-606,448,488,57,14,265,261,154,157,-125,12,45
85340,-371,-223,208,-278,-105,-96,227,58,-175,53,-338,241,61,-339,91,261,472,111,-27,165,-584,442,492,54,32,281,287,167,185,-91,36,44
85341,-357,-192,217,-290,-101,-101,216,54,-180,48,-363,214,61,-364,78,262,484,106,-43,156,-603,435,507,72,16,292,317,193,175,-79,34,64
85342,-363,-108,196,-290,-98,-110,234,70,-180,50,-405,133,53,-381,47,240,474,59,-73,121,-628,458,464,36,-4,259,251,186,143,-125,22,119
85343,-325,18,203,-277,-79,-105,295,44,-166,55,-380,144,33,-391,52,265,495,61,-64,122,-628,465,478,38,-17,252,228,211,147,-122,20,87
85344,-314,54,147,-264,-94,-116,275,9,-177,35,-401,86,37,-386,52,277,501,49,-79,102,-644,373,491,32,-39,243,205,206,140,-147,-31,-41
85345,-306,72,178,-232,-72,-111,279,97,-153,72,-407,201,83,-363,71,312,507,71,-57,126,-614,385,539,42,-11,256,235,140,134,-167,-31,-29
85346,-292,84,235,-230,-56,-107,278,128,-152,65,-399,300,96,-356,96,318,529,114,-53,143,-573,455,622,78,0,282,287,68,163,-136,-4,6
85347,-303,-14,197,-274,-92,-110,245,104,-166,41,-380,307,73,-374,82,307,510,124,-50,139,-567,443,627,68,-4,275,307,38,147,-121,4,7
85348,-386,-128,147,-281,-90,-107,192,77,-171,59,-359,273,72,-357,89,289,472,92,-48,167,-553,466,598,72,20,299,333,79,166,-112,15,-60
85349,-424,-217,137,-285,-94,-95,230,17,-173,32,-369,246,70,-332,94,263,417,68,-44,155,-545,425,524,61,9,293,374,104,166,-116,35,-70
85350,-363,-125,222,-273,-85,-73,232,-91,-176,53,-375,282,80,-341,110,270,456,87,-42,159,-550,415,498,43,13,284,350,229,178,-110,46,39
85351,-321,-37,259,-267,-69,-83,216,-166,-193,55,-406,273,54,-351,96,314,607,80,-52,164,-571,425,519,55,8,264,255,252,207,-83,35,95
85352,-283,-8,236,-222,-74,-123,195,182,-187,22,-385,205,106,-350,64,389,602,85,-78,135,-597,396,471,49,-16,224,296,177,211,-111,6,45
85353,-214,51,269,-215,-91,-113,165,249,-168,24,-372,260,142,-359,90,351,489,151,-64,143,-584,588,487,41,-15,242,310,218,183,-106,21,26
85354,-198,25,282,-213,-85,-98,152,213,-162,43,-314,312,118,-325,113,281,558,94,-33,180,-545,619,476,47,17,281,306,342,249,-31,89,90
85355,-246,-164,293,-230,-102,-154,104,139,-197,12,-306,300,65,-336,76,76,549,52,-55,155,-592,560,465,25,4,250,274,318,231,-46,49,81
85356,-258,-244,307,-237,-98,-125,116,94,-177,33,-287,319,99,-323,65,137,503,107,-61,158,-610,569,495,55,8,254,289,305,233,-42,56,117
85357,-298,-176,280,-280,-118,-102,135,63,-204,21,-301,276,65,-357,54,219,477,55,-74,125,-654,535,472,31,-16,227,272,230,178,-101,13,74
85358,-276,-83,273,-272,-102,-91,153,68,-201,25,-337,270,70,-352,38,173,488,57,-84,124,-647,532,470,25,-29,231,291,242,168,-103,25,70
85359,-233,-32,305,-246,-76,-93,191,103,-175,50,-425,282,90,-332,43,213,511,91,-47,141,-628,517,488,56,14,263,333,288,223,-38,71,112
85360,-236,-71,289,-236,-84,-110,215,123,-170,10,-464,293,114,-334,41,246,512,104,-47,150,-609,548,506,62,17,241,333,261,193,-75,51,81
85361,-254,-100,210,-236,-90,-120,209,139,-164,16,-436,312,118,-326,51,247,532,97,-48,162,-594,559,516,79,42,262,355,312,209,-60,63,173
85362,-288,-107,137,-257,-112,-153,189,130,-164,7,-434,269,113,-340,56,224,503,76,-40,153,-596,498,478,56,28,276,347,281,189,-56,83,181
85363,-282,-79,112,-255,-91,-166,187,141,-170,30,-411,252,126,-321,57,304,486,71,-37,171,-583,549,472,60,24,259,373,222,162,-93,39,150
85364,-274,-63,102,-249,-104,-153,183,134,-169,7,-432,219,114,-329,33,310,479,62,-55,156,-604,506,437,44,4,237,346,234,139,-114,-6,21
85365,-312,-50,112,-226,-109,-137,165,133,-168,11,-427,191,111,-331,42,270,464,52,-59,148,-630,439,417,36,-1,238,295,186,119,-176,-29,-41
85366,-367,-80,109,-231,-113,-142,136,65,-172,16,-409,187,82,-315,53,182,433,14,-74,146,-612,462,398,6,-4,253,327,125,98,-171,-8,38
85367,-407,-137,50,-185,-89,-161,133,90,-158,26,-430,209,126,-307,39,77,417,37,-46,151,-630,450,442,51,13,252,328,155,107,-175,-9,-28
85368,-378,-148,64,-190,-110,-149,153,102,-162,14,-456,183,114,-317,23,168,420,56,-45,141,-634,363,431,31,11,228,316,135,85,-195,-51,-70
85369,-305,-174,150,-233,-131,-154,161,120,-165,7,-428,161,104,-340,30,177,438,11,-52,149,-642,362,389,15,4,199,325,94,77,-198,-75,-48
85370,-268,-134,209,-213,-96,-116,208,132,-141,50,-374,194,118,-292,82,183,420,12,-24,166,-598,366,400,30,15,237,321,115,102,-191,-40,22
85371,-261,-131,224,-232,-103,-120,178,86,-151,37,-381,186,111,-312,48,127,352,19,-33,144,-637,457,417,25,15,207,277,91,90,-206,-65,-41
85372,-261,-150,204,-273,-113,-178,164,57,-173,13,-433,159,91,-339,2,110,317,20,-90,106,-700,440,407,-2,-5,172,240,66,39,-236,-95,-74
85373,-330,-126,176,-275,-100,-170,151,17,-173,17,-441,149,77,-326,10,109,314,-2,-96,106,-714,354,407,-12,-23,168,220,48,26,-267,-92,-30
85374,-428,-206,143,-290,-117,-194,85,-16,-173,-17,-466,114,72,-325,-16,49,303,-22,-95,92,-725,453,400,-24,-59,158,200,2,13,-285,-102,-42
85375,-413,-276,166,-308,-131,-230,54,-15,-196,-12,-481,65,54,-359,-35,41,276,-49,-111,50,-730,402,336,-54,-79,117,188,-28,-31,-289,-160,-105
85376,-377,-278,148,-336,-154,-244,74,-61,-209,-41,-512,28,34,-368,-26,49,272,-96,-142,51,-751,310,334,-100,-113,100,188,15,-12,-266,-167,-128
85377,-383,-249,92,-312,-136,-212,81,-25,-200,-19,-520,6,46,-356,-23,53,281,-52,-135,51,-753,284,417,-94,-113,89,147,16,-13,-289,-181,-151
85378,-368,-265,66,-311,-116,-191,52,1,-186,25,-533,95,43,-323,2,76,268,-37,-115,53,-740,262,394,-85,-115,95,146,-19,-21,-318,-184,-199
85379,-395,-242,9,-340,-126,-201,64,-6,-174,16,-517,106,36,-313,1,86,238,-84,-127,61,-714,273,302,-83,-110,122,174,-42,-32,-294,-158,-193
85380,-426,-232,32,-348,-153,-221,36,-40,-203,-11,-509,95,6,-333,-18,105,207,-92,-143,57,-742,248,270,-102,-136,117,123,-43,-34,-307,-195,-158
85381,-427,-235,46,-354,-154,-247,7,-57,-218,-29,-492,69,5,-368,-27,66,225,-91,-146,42,-763,263,272,-99,-140,92,13,-33,-36,-307,-193,-210
85382,-460,-245,29,-340,-129,-220,-36,-50,-189,-10,-419,66,6,-364,-5,69,278,-96,-139,57,-759,253,269,-83,-136,68,34,-9,-37,-318,-219,-176
85383,-487,-312,-9,-337,-146,-178,-117,-55,-196,0,-451,32,4,-364,-7,90,291,-160,-157,33,-782,128,245,-116,-160,54,20,-8,-52,-322,-262,-254
85384,-460,-339,-33,-357,-161,-156,-56,-208,-206,-10,-541,2,-6,-361,-37,92,180,-105,-147,25,-780,177,253,-128,-164,50,50,-57,-71,-350,-284,-233
85385,-439,-359,-38,-338,-145,-126,-17,-197,-217,-11,-537,0,-7,-355,-58,65,152,-95,-152,8,-810,260,273,-114,-170,18,41,-47,-59,-341,-256,-209
85386,-456,-291,-58,-308,-125,-154,-12,44,-196,-8,-495,-79,5,-345,-64,36,168,-139,-157,3,-840,247,273,-141,-174,-14,-1,-64,-85,-362,-262,-183
85387,-491,-211,-100,-315,-121,-174,-7,-2,-189,-23,-516,-12,-15,-347,-49,34,143,-158,-174,0,-842,241,273,-152,-174,0,27,-88,-79,-358,-229,-159
85388,-481,-195,-47,-347,-138,-192,-5,-44,-214,-29,-513,16,-9,-365,-85,8,127,-155,-187,-31,-878,151,246,-158,-203,-29,-6,-117,-87,-371,-282,-199
85389,-469,-168,-1,-304,-121,-194,38,-31,-191,-19,-490,47,22,-338,-70,2,171,-101,-135,1,-846,125,290,-121,-167,-14,-16,-58,-48,-329,-275,-264
85390,-430,-133,-20,-303,-133,-206,33,22,-194,-14,-469,101,48,-330,-41,-19,251,-50,-93,32,-814,241,319,-62,-136,34,37,68,17,-262,-216,-276
85391,-391,-109,-43,-341,-121,-183,57,27,-178,-5,-454,107,61,-325,-23,17,268,-45,-93,55,-775,259,297,-38,-125,65,109,67,44,-255,-190,-270
85392,-393,-108,-33,-346,-115,-175,82,-6,-190,0,-439,97,75,-340,-4,86,240,-12,-80,50,-757,240,316,-19,-101,80,122,14,58,-256,-178,-234
85393,-382,-141,61,-294,-106,-151,84,24,-166,0,-389,150,97,-335,25,146,204,44,-59,66,-736,263,387,6,-82,77,83,33,72,-243,-173,-225
85394,-396,-177,25,-264,-101,-159,120,67,-141,4,-347,190,91,-323,11,143,316,17,-61,62,-749,270,438,14,-76,81,22,7,56,-247,-171,-174
85395,-394,-135,13,-282,-120,-162,120,59,-162,-25,-347,185,82,-345,-9,152,333,43,-74,48,-757,182,427,-6,-85,71,10,51,47,-225,-169,-159
85396,-432,-160,51,-267,-136,-175,72,-6,-182,-26,-435,156,63,-363,-26,111,337,40,-92,37,-773,371,409,-15,-93,83,50,21,30,-243,-150,-134
85397,-401,-171,119,-245,-132,-199,58,-3,-168,-34,-515,105,68,-341,-35,73,365,-17,-83,50,-769,415,382,-5,-92,99,48,35,61,-206,-135,-65
85398,-381,-162,130,-227,-107,-205,73,53,-180,-30,-553,58,65,-316,-44,78,299,-12,-75,52,-767,401,343,-23,-93,94,69,111,53,-190,-115,-45
85399,-355,-135,119,-251,-96,-165,111,33,-164,0,-474,125,70,-314,-19,162,317,20,-57,55,-745,403,359,-2,-82,117,99,145,58,-191,-118,-96
85400,-352,-156,137,-241,-96,-145,132,42,-159,10,-428,126,70,-333,3,235,364,0,-74,74,-765,300,344,-26,-99,97,56,124,61,-204,-152,-168
85401,-360,-219,134,-261,-103,-157,106,69,-169,-7,-436,172,74,-328,0,183,353,-17,-76,63,-755,305,327,-53,-114,80,54,73,38,-227,-146,-174
85402,-374,-204,99,-289,-101,-146,76,43,-173,-19,-432,153,69,-325,-6,53,300,-22,-91,53,-760,329,305,-55,-119,61,14,73,32,-241,-153,-219
85403,-373,-225,124,-279,-104,-148,56,28,-158,3,-475,142,88,-327,-13,-85,267,-28,-69,44,-770,295,294,-57,-100,57,4,36,-2,-286,-198,-168
85404,-428,-242,107,-297,-124,-178,59,8,-166,-7,-510,130,84,-351,-19,33,319,-8,-59,50,-796,271,316,-43,-115,47,-13,13,-11,-269,-199,-196
85405,-449,-272,52,-343,-140,-187,34,-83,-203,-36,-571,102,26,-363,-58,85,289,-38,-83,21,-799,211,284,-64,-138,7,-55,-13,-27,-295,-232,-256
85406,-419,-257,88,-340,-130,-175,100,-70,-206,-25,-561,138,52,-333,-55,36,178,-7,-74,32,-790,217,316,-33,-115,26,-75,-20,2,-314,-252,-210
85407,-390,-275,51,-357,-115,-176,119,-32,-190,-31,-536,120,62,-334,-41,59,215,-46,-74,53,-776,135,336,-45,-92,54,-5,5,14,-273,-199,-197
85408,-361,-345,59,-356,-99,-191,36,-18,-167,-3,-471,104,68,-313,-14,164,235,-45,-38,85,-738,148,319,-39,-53,103,78,36,17,-216,-168,-189
85409,-394,-456,36,-309,-108,-148,-11,-13,-138,-18,-510,84,53,-314,-2,194,221,-46,-49,82,-741,264,319,-48,-46,104,87,17,15,-218,-151,-199
85410,-439,-379,22,-313,-113,-140,1,-31,-150,-15,-526,84,58,-323,2,133,262,-41,-51,85,-734,310,310,-39,-43,94,68,-19,16,-218,-168,-194
85411,-455,-257,29,-320,-123,-166,4,-66,-178,-32,-475,77,48,-321,-24,-22,250,-48,-72,79,-752,258,301,-63,-56,87,-7,-27,8,-236,-182,-198
85412,-434,-208,64,-318,-120,-145,35,-81,-164,-22,-448,44,54,-313,-32,-128,236,-55,-69,68,-769,243,308,-40,-79,74,-4,-65,23,-271,-207,-243
85413,-451,-277,-3,-345,-143,-198,13,-96,-159,-39,-479,9,35,-316,-15,-8,213,-84,-59,77,-751,253,293,-63,-79,71,20,-66,-10,-299,-197,-272
85414,-449,-252,-46,-321,-133,-234,8,-42,-160,-46,-485,33,44,-308,4,54,213,-84,-63,104,-745,270,291,-74,-59,84,57,10,-10,-258,-207,-216
85415,-439,-194,-32,-269,-138,-246,6,-18,-157,-29,-525,46,46,-290,-11,82,192,-60,-48,113,-764,285,329,-41,-55,105,76,51,25,-234,-220,-213
85416,-413,-180,3,-286,-108,-236,47,1,-139,-10,-501,90,69,-280,18,125,246,-34,-21,149,-732,330,407,5,-14,126,79,25,74,-207,-165,-134
85417,-416,-179,13,-295,-131,-234,56,15,-143,-8,-484,62,73,-277,17,113,256,-41,-26,132,-712,290,385,-21,-8,116,38,36,40,-242,-181,-197
85418,-445,-200,-41,-310,-139,-251,30,-21,-155,-40,-508,28,57,-299,-12,92,233,-70,-51,110,-757,191,306,-83,-52,90,4,51,-3,-261,-217,-239
85419,-427,-195,-63,-299,-133,-254,24,38,-158,-45,-504,14,58,-289,-9,69,198,-88,-62,115,-776,235,275,-88,-62,76,44,-2,-39,-285,-245,-272
85420,-416,-177,-114,-292,-134,-246,15,51,-150,-16,-437,18,58,-292,-7,61,178,-87,-57,116,-775,296,256,-102,-64,64,54,-1,-56,-313,-240,-210
85421,-438,-197,-93,-287,-104,-216,52,2,-131,-9,-384,6,51,-293,-2,80,148,-100,-70,107,-766,326,219,-112,-73,59,40,0,-55,-302,-231,-184
85422,-484,-229,-66,-344,-137,-222,36,-76,-165,-2,-380,-43,-2,-311,1,65,128,-141,-120,79,-777,314,163,-149,-101,47,19,-20,-100,-334,-266,-164
85423,-462,-241,-49,-384,-159,-238,62,-329,-198,-28,-434,-34,-50,-353,-6,89,134,-156,-144,45,-803,237,153,-190,-162,0,-34,-71,-160,-386,-306,-227
85424,-424,-232,-30,-342,-139,-227,81,-264,-210,-33,-528,-32,-46,-353,-43,104,146,-157,-149,38,-825,134,159,-186,-176,-30,-68,-61,-171,-398,-333,-336
85425,-435,-240,-39,-304,-118,-234,57,-21,-186,-34,-570,-106,2,-341,-44,96,129,-154,-147,29,-823,198,132,-184,-135,-12,-42,-99,-178,-420,-349,-262
85426,-468,-240,-24,-343,-133,-226,42,-74,-202,-23,-515,-146,-7,-364,-35,66,103,-159,-140,16,-818,254,114,-182,-158,-13,-25,-113,-174,-412,-331,-285
85427,-438,-261,-27,-362,-111,-212,62,-72,-195,-48,-505,-108,-14,-375,-27,53,147,-158,-143,4,-823,245,120,-165,-189,-15,-40,-77,-167,-410,-346,-296
85428,-424,-232,-10,-339,-84,-191,48,-75,-162,-36,-504,-46,4,-364,-27,44,99,-190,-148,3,-841,233,122,-200,-199,-23,-66,-162,-206,-456,-362,-348
85429,-454,-262,-49,-330,-113,-225,21,-88,-171,-34,-507,-37,17,-366,-52,25,64,-182,-144,-5,-888,194,163,-205,-210,-64,-76,-195,-213,-487,-379,-352
85430,-455,-295,-82,-327,-112,-250,0,-43,-174,-61,-505,-15,4,-361,-89,-17,43,-160,-159,-29,-893,190,211,-199,-230,-92,-83,-191,-228,-499,-391,-322
85431,-485,-328,-52,-328,-118,-278,-37,-62,-188,-65,-516,-22,-13,-373,-94,-78,48,-168,-191,-40,-918,164,215,-225,-247,-100,-111,-232,-252,-523,-425,-339
85432,-476,-273,11,-305,-118,-298,-38,-94,-166,-55,-525,-50,-5,-357,-101,-87,81,-157,-173,-45,-917,173,191,-229,-245,-116,-107,-228,-259,-517,-402,-329
85433,-467,-260,8,-312,-115,-317,-61,-85,-167,-69,-520,-53,-22,-365,-97,-34,93,-146,-166,-47,-899,152,164,-232,-249,-110,-76,-216,-257,-502,-398,-317
85434,-479,-279,-44,-301,-125,-306,-54,-76,-175,-55,-522,-147,-28,-385,-83,51,113,-197,-180,-39,-885,151,85,-249,-242,-95,-65,-217,-248,-497,-399,-308
85435,-490,-311,-69,-303,-125,-302,26,-68,-185,-60,-519,-132,-36,-382,-73,103,90,-249,-177,-30,-860,-38,33,-253,-222,-85,-56,-206,-270,-506,-445,-361
85436,-542,-347,-81,-332,-128,-329,-33,-94,-205,-69,-551,-112,-40,-408,-86,13,-36,-240,-185,-32,-854,95,58,-263,-239,-84,-29,-281,-300,-531,-451,-418
85437,-552,-366,-59,-301,-102,-326,-36,-57,-184,-51,-547,-29,-23,-377,-83,-78,5,-163,-177,-28,-849,167,140,-225,-233,-77,-74,-244,-245,-514,-427,-411
85438,-529,-445,-41,-290,-107,-308,-24,-49,-171,-75,-602,21,-24,-391,-93,-70,66,-204,-177,-30,-884,110,73,-246,-242,-103,-138,-233,-264,-544,-423,-401
85439,-447,-400,-13,-284,-84,-269,-8,-1,-158,-62,-597,30,-10,-377,-89,-16,23,-202,-176,-34,-896,134,22,-252,-237,-119,-144,-321,-294,-556,-437,-392
85440,-412,-391,39,-313,-67,-252,-61,12,-160,-66,-565,43,-2,-361,-72,-9,85,-158,-164,-19,-898,146,102,-219,-220,-111,-171,-276,-250,-518,-421,-328
85441,-416,-369,64,-321,-85,-260,-90,-25,-165,-56,-454,62,-6,-358,-64,35,114,-150,-172,-27,-898,16,135,-191,-236,-123,-192,-250,-254,-551,-466,-400
85442,-456,-300,-23,-350,-91,-244,-67,-52,-199,-44,-489,35,-21,-380,-66,90,89,-165,-194,-24,-895,-49,126,-223,-250,-131,-179,-294,-290,-551,-457,-408
85443,-443,-178,-38,-337,-71,-211,-30,-41,-184,-42,-562,3,-27,-374,-56,100,68,-171,-175,-12,-879,65,135,-225,-222,-103,-88,-242,-263,-511,-409,-382
85444,-380,-76,-15,-319,-54,-262,29,-46,-187,-42,-552,29,-16,-361,-68,50,49,-162,-165,-10,-869,116,132,-218,-218,-87,-71,-215,-252,-525,-430,-355
85445,-391,-149,-13,-311,-53,-251,36,-57,-168,-44,-533,57,0,-354,-79,-127,62,-151,-146,0,-859,175,134,-208,-203,-79,-68,-218,-243,-492,-411,-360
85446,-429,-283,-32,-317,-63,-215,18,-96,-178,-55,-559,43,-27,-373,-95,-68,32,-173,-149,-17,-884,159,138,-207,-195,-93,-84,-223,-245,-483,-388,-355
85447,-433,-383,-20,-295,-69,-179,-46,-80,-193,-46,-553,15,-33,-368,-99,-4,39,-169,-172,-17,-903,176,103,-223,-209,-106,-80,-208,-252,-502,-363,-243
85448,-433,-293,-60,-310,-58,-178,-34,-264,-202,-48,-547,16,-45,-388,-106,15,45,-133,-165,-26,-915,47,85,-222,-211,-115,-107,-203,-259,-504,-418,-352
85449,-432,-224,-152,-303,-56,-203,-12,-82,-197,-80,-552,-11,-34,-398,-129,103,51,-130,-165,-36,-908,-6,35,-221,-212,-125,-112,-234,-278,-505,-435,-316
85450,-444,-175,-125,-272,-39,-243,31,143,-169,-93,-551,-62,-19,-365,-105,90,118,-223,-163,-3,-895,97,10,-219,-212,-93,-117,-223,-267,-488,-430,-324
85451,-473,-136,-53,-262,-46,-285,54,52,-163,-85,-556,18,-3,-362,-96,10,119,-166,-140,0,-888,103,99,-192,-201,-111,-147,-212,-249,-490,-437,-400
85452,-499,-155,-38,-239,-59,-333,26,40,-186,-96,-584,75,3,-381,-121,-148,31,-86,-133,-40,-934,55,169,-166,-203,-119,-204,-195,-224,-486,-430,-461
85453,-467,-177,25,-229,-43,-285,114,13,-159,-80,-559,98,14,-381,-113,-90,14,-98,-120,-10,-903,76,176,-137,-181,-95,-179,-216,-209,-479,-422,-405
85454,-435,-202,118,-259,-42,-244,152,-21,-159,-70,-525,83,7,-359,-94,26,70,-139,-116,14,-858,166,109,-145,-162,-58,-102,-209,-187,-438,-412,-342
85455,-399,-205,141,-303,-48,-226,100,-44,-167,-81,-474,70,0,-365,-61,39,85,-146,-102,32,-825,210,100,-133,-151,-45,-65,-135,-181,-411,-369,-228
85456,-396,-204,90,-322,-46,-223,54,-45,-176,-83,-507,69,11,-368,-69,36,87,-118,-114,28,-822,184,131,-118,-141,-56,-69,-126,-159,-417,-372,-308
85457,-353,-188,115,-287,-34,-234,46,-37,-180,-98,-486,66,7,-376,-85,63,74,-111,-112,13,-831,135,129,-108,-134,-44,-80,-106,-143,-424,-374,-321
85458,-330,-225,141,-273,-32,-223,-40,-67,-189,-94,-476,45,-15,-399,-114,55,82,-129,-134,7,-855,54,103,-148,-173,-69,-85,-147,-172,-462,-406,-379
85459,-313,-282,103,-304,-31,-187,-76,-21,-180,-60,-482,44,-3,-377,-101,15,129,-132,-145,-3,-859,94,111,-151,-184,-78,-147,-163,-191,-463,-407,-403
85460,-357,-267,19,-324,-44,-209,18,-10,-200,-88,-487,16,-19,-395,-126,-6,118,-186,-175,-28,-895,89,32,-201,-215,-109,-178,-226,-246,-531,-461,-410
