,Fp1,Fp2,F7,F3,Fz,F4,F8,FC5,FC1,FC2,FC6,T7,C3,Cz,C4,T8,TP9,CP5,CP1,CP2,CP6,TP10,P7,P3,Pz,P4,P8,PO9,O1,Oz,O2,PO10
18562,-116,25,204,-43,147,290,75,249,-90,-51,205,292,521,225,61,-21,-122,15,24,137,-117,148,113,-69,-136,-13,168,-271,-88,-240,-308,226
18563,-120,80,172,-39,128,275,46,218,-104,-59,148,342,534,236,2,-66,-121,-10,28,121,-159,158,56,-73,-133,-36,136,-181,-69,-209,-263,247
18564,-123,48,119,-59,120,236,28,191,-101,-74,74,354,507,232,-15,-114,-137,-21,21,87,-213,143,-24,-106,-146,-101,55,-295,-131,-284,-343,172
18565,-105,47,128,-56,121,250,25,194,-89,-61,118,316,504,256,3,-115,-92,-48,13,97,-227,132,-35,-117,-132,-81,57,-365,-150,-313,-360,151
18566,-89,94,146,-77,123,248,28,192,-108,-87,120,305,492,239,-22,-129,-97,-38,15,86,-254,107,9,-103,-144,-82,-12,-299,-146,-320,-375,110
18567,-144,140,136,-45,133,269,76,111,-89,-80,160,361,505,225,-17,-129,-136,9,41,99,-246,107,74,-69,-128,-93,-72,-216,-121,-303,-396,102
18568,-168,140,93,-39,137,278,111,26,-88,-55,169,366,522,242,-4,-103,-75,45,53,118,-231,123,83,-40,-109,-81,-25,-171,-66,-245,-348,177
18569,-130,69,80,13,158,262,103,305,-77,-54,148,324,527,236,-18,-98,-41,12,46,98,-247,84,29,-57,-114,-95,-40,-211,-77,-252,-337,168
18570,-76,57,146,15,160,252,15,329,-74,-56,135,332,511,232,-15,-118,-21,-19,23,100,-250,76,2,-84,-146,-123,-35,-212,-124,-272,-365,193
18571,-47,103,212,6,167,265,-17,271,-71,-52,134,428,510,235,-7,-125,-99,0,25,91,-242,83,70,-75,-151,-119,-44,-160,-92,-263,-372,125
18572,-67,188,235,-23,147,281,41,220,-78,-50,158,458,516,234,-11,-92,-112,44,36,104,-224,89,125,-59,-133,-93,-38,-165,-61,-227,-351,103
18573,-80,195,256,-56,142,309,90,206,-86,-42,204,449,528,259,10,-41,-44,70,54,134,-158,65,175,-9,-125,-61,23,-186,-49,-196,-313,167
18574,-81,198,268,-48,148,348,119,228,-70,-27,250,480,552,255,53,2,1,83,83,171,-121,9,203,11,-87,-13,60,-158,-14,-170,-260,230
18575,-95,165,276,-72,157,348,137,216,-76,-23,243,357,556,238,65,5,-18,69,95,186,-111,31,141,15,-53,-4,69,-127,-1,-167,-220,271
18576,-112,116,242,-20,156,314,87,239,-87,-33,220,220,559,244,47,-16,-37,29,101,179,-107,58,96,9,-68,-9,64,-104,35,-133,-243,179
18577,-60,127,310,-28,161,338,80,231,-81,-33,180,399,543,225,43,-70,3,49,89,170,-117,70,123,27,-51,0,29,-64,69,-112,-230,89
18578,-37,117,300,-27,190,367,76,260,-50,-14,213,427,592,242,90,-90,-48,127,116,206,-88,110,182,78,-19,43,87,-53,122,-75,-191,234
18579,-30,97,217,-49,161,326,69,269,-65,-23,232,396,596,252,67,-119,-120,97,105,217,-89,114,138,64,-23,44,104,-166,109,-75,-161,270
18580,-29,119,226,-54,167,323,69,282,-77,-21,227,384,567,254,79,-93,-81,28,97,211,-99,68,100,46,-32,53,140,-184,104,-72,-131,296
18581,-57,131,249,-97,143,305,39,215,-101,-14,183,383,536,252,70,-23,-125,-16,76,203,-97,120,103,33,-29,70,180,-151,118,-59,-134,260
18582,-49,177,205,-111,129,299,27,161,-107,-16,157,352,520,250,63,-55,-126,18,91,209,-93,154,150,32,-31,94,137,-135,146,-30,-127,208
18583,-64,191,174,-97,152,305,57,145,-113,-26,174,265,506,242,81,-92,-127,11,86,218,-98,123,118,14,-35,79,109,-140,129,-42,-128,193
18584,-76,183,208,-80,158,297,96,184,-110,-18,179,320,508,232,66,-247,-129,-2,77,214,-130,96,70,15,-33,73,97,-113,111,-38,-141,166
18585,-78,158,233,-85,167,319,109,163,-90,-12,190,356,510,253,73,-194,-107,2,74,215,-129,109,87,39,-1,89,129,-74,150,5,-73,245
18586,-53,133,201,-90,152,316,67,191,-107,-44,141,347,501,238,51,-90,-139,-5,77,197,-142,85,52,7,-9,64,109,-139,129,-29,-97,192
18587,-65,148,138,-80,158,304,35,196,-106,-42,132,314,518,221,40,-153,-136,-16,80,185,-160,63,34,-11,-12,51,71,-127,127,-34,-128,169
18588,-105,133,111,-81,169,310,53,169,-96,-50,129,298,497,220,31,-161,-143,-24,71,196,-177,53,46,-2,-8,57,78,-100,154,-12,-101,180
18589,-113,120,126,-66,184,319,45,181,-90,-39,154,271,503,240,40,-148,-114,-38,67,195,-189,33,25,-1,-5,58,64,-182,114,-57,-142,111
18590,-136,84,113,-45,183,315,-8,151,-88,-24,145,210,489,235,32,-163,-144,-105,61,187,-190,18,-24,-7,-6,47,57,-217,106,-83,-155,165
18591,-120,41,94,-50,152,303,-10,113,-95,-38,117,190,483,222,47,-123,-225,-97,55,177,-214,-22,2,-9,-21,37,10,-213,116,-58,-141,208
18592,-50,54,91,-56,148,303,30,156,-98,-42,127,175,506,228,53,-46,-295,-54,66,180,-198,-39,31,-1,-28,12,-29,-211,100,-68,-172,174
18593,-77,98,84,-48,166,340,74,194,-93,-12,153,153,512,234,29,-92,-277,-76,62,162,-219,-69,10,-23,-57,-11,-119,-248,66,-116,-241,10
18594,-127,108,111,-52,168,358,60,171,-95,-16,169,168,499,234,29,-176,-265,-74,35,162,-233,-87,13,-41,-71,-13,-145,-265,53,-123,-262,12
18595,-163,111,117,-57,167,372,33,169,-103,-42,142,192,483,207,9,-341,-227,-132,9,125,-281,-37,-19,-62,-79,-47,-122,-249,33,-124,-272,80
18596,-123,85,126,-79,175,356,34,168,-108,-43,113,171,487,210,3,-268,-252,-140,27,117,-300,-36,-31,-54,-97,-69,-138,-253,26,-148,-323,-20
18597,-113,10,117,-68,176,353,56,73,-98,-48,182,179,471,204,10,-140,-293,-85,40,130,-263,3,-24,-56,-84,-53,-85,-253,23,-160,-312,-4
18598,-109,46,85,-63,148,353,65,-120,-111,-41,194,90,448,208,6,-180,-286,-98,37,135,-253,6,-62,-69,-92,-58,-47,-272,4,-149,-290,53
18599,-82,128,108,-50,163,334,65,169,-92,-53,179,65,483,231,24,-155,-256,-148,40,160,-216,8,-65,-72,-88,-41,-6,-248,-25,-163,-286,55
18600,-74,195,126,-28,161,314,83,222,-96,-55,183,113,485,218,35,-127,-263,-132,28,155,-195,20,-43,-79,-93,-32,-19,-250,-49,-211,-299,46
18601,-109,150,123,-70,152,304,96,157,-84,-48,190,158,484,222,38,-126,-262,-100,35,139,-209,10,-33,-70,-79,-27,-54,-243,-48,-200,-290,65
18602,-149,110,124,-68,142,302,87,155,-95,-45,178,252,501,225,37,-117,-219,-128,45,157,-197,65,-30,-81,-86,-13,-19,-222,-48,-200,-296,68
18603,-82,159,158,-52,144,290,77,169,-101,-46,180,310,511,214,48,-118,-192,-86,56,174,-183,112,-21,-69,-76,15,39,-187,-36,-183,-277,114
18604,-27,200,183,-114,168,320,90,172,-98,-46,203,298,532,254,65,-85,-185,-54,70,186,-172,118,-6,-46,-60,39,75,-206,-46,-176,-232,174
18605,-21,198,197,-146,129,312,111,157,-111,-60,205,214,530,260,59,-69,-155,-56,60,190,-162,149,-11,-56,-80,43,98,-196,-51,-182,-230,146
18606,9,207,246,-127,139,313,115,165,-87,-45,220,220,537,264,64,-66,-113,-40,70,200,-130,187,11,-33,-44,67,129,-135,-13,-156,-215,168
18607,0,200,234,-130,136,314,131,154,-95,-38,186,272,516,256,67,-73,-86,-49,61,206,-138,191,12,-47,-44,81,114,-155,-57,-191,-223,205
18608,-8,179,194,-93,164,346,171,171,-85,-32,215,343,532,260,91,-54,-60,-23,89,215,-93,213,65,-25,-19,101,154,-109,-38,-191,-193,259
18609,28,168,238,-46,169,375,188,218,-72,-16,246,380,571,267,105,-11,28,28,112,233,-66,254,145,18,-14,124,217,-29,59,-115,-100,335
18610,42,196,227,3,160,380,149,262,-57,-23,239,399,605,258,104,5,32,70,113,217,-65,242,184,56,-7,131,213,-25,74,-103,-97,293
18611,82,208,160,19,168,373,131,321,-51,-11,222,424,608,236,99,-7,69,65,110,219,-55,249,209,55,-15,133,242,-45,82,-84,-97,348
18612,62,179,132,12,175,360,138,306,-72,-44,240,402,594,199,67,-11,40,64,98,199,-75,228,192,26,-48,113,251,-72,66,-106,-111,316
18613,4,180,135,35,193,363,131,311,-81,-33,295,394,608,218,78,26,16,104,100,185,-72,217,172,27,-70,109,243,-87,62,-125,-144,267
18614,-63,164,170,20,173,336,79,269,-75,-45,234,402,592,219,63,-12,-13,100,80,181,-95,217,154,42,-75,97,218,-74,93,-121,-123,262
18615,-29,219,218,9,175,342,70,275,-60,-38,217,402,615,225,78,-58,-33,127,101,199,-91,220,167,47,-40,120,204,-88,99,-110,-100,313
18616,10,216,235,-14,173,328,83,238,-56,-31,231,371,584,216,76,-83,31,10,100,185,-89,168,123,21,-42,111,160,-99,78,-101,-115,315
18617,-9,200,187,-45,179,314,79,199,-82,-47,216,381,576,223,44,-101,-52,33,81,179,-118,133,153,36,-46,82,137,-96,77,-78,-158,268
18618,-11,204,225,-43,176,311,87,181,-85,-60,196,381,557,208,51,-112,-95,74,71,181,-134,140,183,52,-46,77,143,-105,89,-95,-141,238
18619,-58,166,205,-52,178,269,64,235,-71,-56,172,317,581,198,38,-97,-55,60,69,189,-118,137,171,47,-52,80,165,-150,81,-115,-137,271
18620,-100,131,142,-24,175,254,42,304,-65,-64,141,135,566,200,28,-83,-114,33,72,171,-134,116,115,0,-59,88,170,-216,49,-144,-163,271
18621,-93,89,182,-27,164,255,11,241,-72,-58,87,239,521,211,33,-81,-82,-25,50,174,-109,111,71,-25,-69,89,198,-168,30,-139,-139,312
18622,-134,77,167,-12,160,265,3,193,-86,-49,134,315,517,198,45,-40,-69,-67,49,177,-76,109,33,-13,-79,100,223,-176,38,-135,-132,349
18623,-99,58,175,-60,147,269,21,167,-116,-83,184,268,510,186,56,46,-154,-27,49,190,-57,116,35,-16,-61,139,250,-208,32,-111,-121,352
18624,-62,-64,115,-77,140,270,13,162,-103,-77,157,318,512,196,64,-6,-172,-13,32,173,-78,99,67,-26,-65,102,220,-204,22,-141,-169,198
18625,-29,-5,105,-71,155,297,9,48,-90,-18,187,379,518,199,83,-64,-139,22,42,181,-102,99,93,-8,-72,94,162,-160,35,-126,-161,117
18626,1,82,135,-83,166,292,97,171,-103,-34,219,342,564,203,83,-211,-105,58,58,199,-111,164,128,18,-54,111,138,-141,61,-86,-142,212
18627,10,70,207,-46,174,286,113,318,-79,-51,206,331,580,206,70,-182,-95,76,87,182,-142,174,102,19,-38,100,136,-130,71,-72,-145,250
18628,-37,91,221,-2,175,291,32,207,-85,-40,204,278,562,205,54,-57,-97,29,75,168,-157,145,80,2,-50,71,96,-105,57,-91,-156,226
18629,-39,161,221,-31,155,293,2,214,-107,-49,177,338,534,199,52,-89,-115,-9,63,188,-147,131,59,-17,-60,47,91,-103,74,-106,-190,186
18630,-34,182,210,-71,175,347,12,217,-112,-50,152,386,517,202,50,-108,-100,-15,51,159,-171,81,43,-23,-69,34,59,-114,52,-115,-239,158
18631,-49,159,226,-64,168,411,-33,206,-116,-38,132,348,512,189,40,-108,-107,-34,33,146,-199,54,39,-44,-127,-4,11,-187,7,-192,-310,90
18632,-59,173,218,-32,167,485,-53,154,-114,-41,158,331,514,200,28,-123,-150,-36,10,131,-223,24,71,-75,-153,-29,-22,-195,2,-200,-302,67
18633,-70,123,193,-71,168,533,-39,132,-117,-38,181,304,499,181,19,-135,-145,-46,5,101,-255,4,79,-94,-129,-48,-58,-147,-18,-219,-316,33
18634,-67,104,188,-90,161,397,-25,152,-110,-53,182,277,484,218,26,-133,-163,-61,-9,126,-231,17,32,-108,-152,-53,-49,-130,-34,-241,-342,106
18635,-44,102,172,-69,166,294,20,156,-106,-44,182,267,484,212,12,-127,-164,-73,-5,115,-212,18,-13,-121,-153,-45,8,-157,-70,-253,-336,79
18636,-16,52,105,-100,151,295,61,147,-133,-28,191,257,491,212,24,-126,-180,-83,5,125,-219,-22,-16,-131,-151,-30,14,-192,-71,-266,-352,47
18637,-57,27,108,-83,157,297,58,130,-102,-33,187,231,479,256,28,-101,-200,-85,2,138,-199,-17,-12,-131,-153,-34,12,-213,-82,-283,-345,55
18638,-80,-50,54,-67,166,305,27,102,-100,-37,162,202,487,228,26,-159,-185,-143,-1,125,-200,12,-56,-148,-160,-38,8,-236,-79,-263,-339,80
18639,-86,-171,2,-106,144,310,-7,102,-106,-41,80,109,470,207,-5,-241,-232,-169,-9,107,-245,-16,-80,-148,-171,-59,-68,-244,-111,-296,-398,-20
18640,-115,-193,14,-87,142,307,-76,109,-99,-58,120,91,465,209,-20,-225,-297,-131,-15,110,-235,-19,-62,-141,-155,-57,-46,-239,-75,-279,-389,17
18641,-128,-192,36,-106,148,263,-46,104,-101,-73,121,105,450,215,-24,-185,-255,-171,-25,89,-238,-74,-84,-149,-177,-71,-63,-239,-62,-253,-361,12
18642,-145,-113,54,-129,147,261,-57,88,-108,-75,81,105,414,199,-35,-158,-260,-223,-45,79,-241,-114,-103,-146,-174,-87,-99,-260,-70,-261,-343,18
18643,-172,49,32,-74,157,259,-108,132,-93,-75,100,81,450,182,-9,-160,-306,-158,-31,70,-225,-52,-79,-135,-171,-72,-87,-321,-87,-283,-371,4
18644,-154,140,31,-46,164,264,-76,89,-100,-59,125,88,465,181,-25,-151,-298,-153,-46,84,-210,-23,-80,-133,-175,-47,-63,-322,-107,-297,-371,-25
18645,-165,93,4,-49,158,265,-31,-45,-105,-63,133,156,445,169,-17,-134,-341,-135,-46,94,-183,-40,-82,-120,-174,-31,5,-273,-102,-294,-354,-26
18646,-183,-21,14,-36,154,243,-36,122,-115,-98,119,27,414,156,-23,-131,-355,-202,-59,65,-184,-81,-151,-152,-192,-34,27,-327,-107,-290,-325,6
18647,-128,-62,23,-58,160,198,-47,138,-101,-112,104,59,443,166,-17,-129,-360,-194,-53,61,-176,-38,-123,-148,-189,-37,33,-329,-104,-281,-319,67
18648,-33,-8,76,-61,176,189,-76,137,-103,-126,87,108,456,174,-24,-101,-348,-145,-48,75,-164,1,-91,-154,-195,-28,35,-344,-105,-269,-295,83
18649,-33,58,97,-36,181,238,-83,184,-96,-101,106,134,465,188,1,-18,-330,-135,-32,95,-145,-11,-104,-141,-184,-7,4,-364,-98,-259,-300,43
18650,-26,105,121,-49,181,299,-56,164,-92,-95,135,117,445,176,6,-42,-271,-191,-37,75,-170,32,-85,-169,-199,-37,-20,-323,-101,-280,-325,54
18651,-111,108,121,-17,182,269,-28,136,-94,-103,155,163,435,189,1,-116,-276,-151,-51,72,-185,81,-53,-154,-202,-48,37,-302,-86,-241,-318,127
18652,-136,93,105,-39,162,189,-120,100,-94,-106,120,112,446,174,-22,-261,-313,-112,-61,70,-186,57,-49,-140,-200,-40,53,-269,-70,-228,-315,153
18653,-130,29,62,-68,160,197,-154,73,-104,-106,109,152,462,163,-40,-289,-300,-121,-63,71,-191,18,-46,-115,-179,-49,45,-242,-47,-208,-292,162
18654,-138,-30,18,-68,172,213,-90,106,-97,-90,81,171,459,161,-38,-75,-309,-134,-52,71,-181,-36,-41,-116,-166,-58,38,-251,-53,-218,-326,82
18655,-139,-2,31,-49,160,207,-81,106,-105,-90,64,188,461,153,-32,-68,-295,-113,-54,71,-200,-52,9,-130,-172,-64,5,-251,-70,-255,-357,-28
18656,-174,51,28,-36,160,234,-38,126,-96,-106,68,109,458,153,-24,-161,-280,-89,-59,76,-180,-6,-8,-112,-183,-70,0,-235,-84,-248,-345,-28
18657,-215,59,4,-46,159,227,-89,130,-78,-104,56,0,465,142,-44,-342,-244,-91,-54,57,-218,-2,-12,-122,-182,-70,24,-220,-84,-246,-354,6
18658,-173,78,-10,-66,156,203,-107,49,-76,-81,39,186,454,155,-47,-317,-196,-86,-45,51,-245,-44,19,-119,-186,-81,21,-216,-52,-239,-346,18
18659,-106,63,-28,-66,164,212,-91,69,-100,-89,35,242,440,155,-46,-240,-196,-108,-44,50,-252,-42,-13,-137,-185,-112,24,-321,-78,-266,-370,44
18660,-102,51,18,-31,185,211,-72,143,-82,-76,75,257,459,151,-55,-250,-232,-57,-42,60,-261,1,50,-115,-189,-90,46,-380,-122,-333,-412,57
18661,-15,82,112,7,194,255,-1,175,-67,-50,123,264,501,172,-31,-210,-237,1,-20,85,-230,53,115,-70,-161,-60,58,-346,-82,-300,-370,91
18662,15,78,101,9,194,285,17,203,-87,-46,143,247,521,181,-22,-177,-209,-13,-22,86,-212,35,96,-79,-156,-59,55,-298,-43,-262,-335,153
18663,-28,81,85,11,197,272,-23,181,-99,-62,117,288,536,155,-24,-161,-159,1,-21,92,-191,42,74,-75,-159,-67,51,-206,-22,-243,-343,152
18664,1,122,142,10,207,274,4,202,-71,-82,95,303,540,150,-36,-177,-177,1,-25,70,-224,54,40,-83,-182,-92,16,-178,-56,-278,-381,115
18665,37,140,208,41,221,282,2,234,-48,-72,83,326,538,134,-34,-170,-138,17,-10,84,-211,107,54,-84,-159,-66,46,-161,-43,-276,-336,128
18666,19,98,233,41,221,261,-33,256,-79,-74,77,318,525,124,-42,-187,-126,10,-32,71,-217,81,41,-100,-163,-65,35,-175,-53,-278,-373,76
18667,1,115,243,40,224,276,-39,227,-86,-65,93,314,496,109,-47,-172,-93,-17,-45,79,-217,99,32,-118,-148,-56,77,-219,-67,-264,-342,219
18668,10,142,228,20,223,263,-42,207,-85,-76,108,314,489,122,-46,-156,-72,-14,-38,76,-193,102,60,-89,-135,-32,122,-209,-50,-235,-303,279
18669,-4,96,182,26,202,231,-97,209,-90,-105,57,335,504,102,-77,-203,-165,10,-48,58,-220,28,87,-80,-166,-64,78,-181,-70,-279,-364,56
18670,11,115,173,31,230,259,-88,235,-87,-81,80,354,518,103,-65,-182,-181,18,-31,69,-218,40,99,-66,-159,-69,91,-125,-35,-244,-356,97
18671,7,141,166,57,232,271,-62,272,-70,-70,95,380,526,124,-46,-164,-133,53,-12,85,-175,69,151,-33,-140,-28,152,-126,0,-190,-308,204
18672,4,223,102,53,228,267,-48,294,-59,-89,107,380,542,121,-51,-156,-91,69,-14,96,-172,91,139,-30,-123,-11,132,-190,-17,-230,-287,212
18673,-3,232,123,36,222,263,-60,264,-57,-83,103,359,545,139,-49,-147,-45,61,0,94,-148,119,120,-30,-107,3,138,-94,24,-210,-287,227
18674,-5,122,193,30,209,279,-91,247,-40,-69,133,332,557,171,-13,-126,-42,59,23,114,-102,144,97,-41,-123,23,158,-80,49,-158,-234,292
18675,-34,4,117,27,192,286,-101,223,-71,-84,92,278,523,141,-14,-116,-36,-32,-26,93,-126,136,39,-71,-152,5,153,-83,25,-159,-216,335
18676,-22,-64,131,40,193,295,-71,232,-83,-100,96,295,505,128,-20,-117,-1,-71,-39,89,-139,116,49,-72,-152,-9,87,-77,9,-198,-279,160
18677,33,6,219,36,203,262,-99,241,-66,-90,94,326,536,136,-13,-133,-67,-1,-19,88,-142,114,114,-49,-129,-3,32,-78,31,-189,-280,58
18678,86,124,230,-33,205,270,-71,34,-79,-74,131,344,535,154,-7,-111,-54,6,4,113,-130,121,110,-34,-102,7,62,-101,41,-169,-253,141
18679,58,163,189,-42,212,285,-43,15,-72,-64,155,339,536,179,5,-102,-9,24,9,134,-137,119,124,-22,-99,12,80,-82,52,-159,-215,204
18680,-12,170,129,-44,205,274,-44,270,-81,-80,126,258,545,181,0,-131,-54,17,5,98,-193,68,88,-23,-134,-21,9,-120,32,-174,-284,89
18681,-65,134,139,-19,198,234,-45,256,-86,-77,105,243,553,184,-15,-151,-90,13,11,105,-209,6,61,-41,-143,-47,-21,-153,14,-195,-320,8
18682,-37,116,193,9,216,238,-27,237,-65,-54,125,353,555,208,-9,-123,-35,-13,22,123,-178,40,85,-31,-101,-13,36,-114,66,-155,-251,135
18683,-39,49,167,-18,192,248,-29,242,-69,-70,115,437,563,214,4,-167,-62,19,35,111,-168,67,112,-23,-103,-19,35,-103,77,-150,-278,130
18684,-64,45,177,-17,177,225,-30,197,-89,-73,108,432,561,211,-1,-180,-135,50,41,129,-180,82,143,-4,-89,-9,37,-157,71,-153,-284,87
18685,-72,54,195,-27,183,240,-45,146,-83,-74,135,354,547,199,13,-134,-62,-9,23,130,-163,32,165,-2,-70,8,81,-165,93,-99,-237,203
18686,-88,58,211,-25,170,270,-60,142,-81,-75,96,323,527,209,29,-135,-65,-22,36,146,-162,39,119,-8,-85,10,115,-162,74,-110,-256,173
18687,-77,59,203,-59,164,252,-84,145,-89,-73,115,269,524,222,4,-120,-101,-69,22,134,-172,21,75,-62,-119,-13,88,-188,40,-167,-288,66
18688,-104,-30,98,-71,156,261,-96,129,-102,-64,132,204,505,216,7,-93,-149,-103,2,133,-170,-4,39,-78,-105,-36,70,-213,24,-203,-310,83
18689,-137,-92,-6,-76,151,244,-108,123,-111,-62,101,129,476,214,0,-149,-273,-132,-11,113,-181,-28,-25,-113,-117,-41,18,-290,-48,-265,-357,117
18690,-144,-110,-14,-112,123,223,-169,68,-135,-85,50,120,438,198,-44,-275,-327,-195,-39,78,-242,-69,-98,-171,-173,-82,-47,-333,-95,-280,-382,42
18691,-125,-80,2,-106,134,210,-149,56,-128,-79,56,113,438,214,-35,-390,-281,-195,-25,86,-253,-21,-99,-143,-182,-85,-32,-317,-74,-255,-375,-10
18692,-122,-71,-3,-115,139,194,-163,28,-127,-88,44,42,425,221,-44,-399,-285,-209,-46,82,-253,4,-131,-169,-181,-72,8,-294,-50,-240,-339,58
18693,-124,-41,-33,-156,138,178,-165,47,-122,-95,31,74,431,221,-60,-249,-313,-204,-40,94,-245,11,-136,-152,-174,-59,21,-298,-49,-241,-297,57
18694,-117,6,-1,-134,145,198,-133,80,-115,-68,48,165,438,247,-37,-178,-244,-176,-13,111,-182,65,-129,-114,-137,-29,76,-291,-23,-186,-258,148
18695,-202,-31,1,-129,136,177,-154,-10,-139,-97,24,143,420,227,-41,-203,-202,-194,-39,103,-194,68,-125,-141,-156,-35,91,-250,-31,-179,-246,164
18696,-219,-46,-18,-126,143,183,-149,-7,-110,-102,47,158,457,235,-30,-209,-183,-130,-44,95,-207,117,-69,-121,-170,-24,94,-224,-12,-157,-242,157
18697,-182,-11,-9,-128,136,194,-120,37,-120,-102,75,186,462,216,-39,-211,-125,-131,-28,94,-214,128,-41,-129,-189,-46,76,-213,-26,-184,-291,134
18698,-165,27,17,-118,151,172,-105,80,-130,-107,61,188,473,220,-36,-228,-157,-156,-17,88,-223,105,-30,-118,-191,-54,104,-150,-12,-193,-272,153
18699,-160,40,-4,-141,128,143,-166,72,-138,-112,46,174,481,204,-67,-241,-242,-106,-28,65,-229,74,4,-142,-223,-48,114,-230,-53,-199,-257,162
18700,-140,11,-56,-176,144,129,-256,115,-124,-103,-9,13,482,209,-90,-245,-241,-113,-32,40,-249,54,-9,-144,-222,-53,74,-274,-82,-224,-299,203
18701,-158,-16,-99,-159,148,113,-244,140,-137,-120,-61,30,452,212,-99,-261,-223,-165,-58,24,-279,29,-29,-165,-238,-83,44,-277,-96,-250,-310,165
18702,-143,-5,-47,-146,170,161,-202,101,-134,-100,-50,101,454,213,-85,-268,-192,-135,-52,37,-286,0,-58,-172,-230,-85,48,-288,-120,-264,-292,234
18703,-157,-11,-5,-127,153,156,-207,79,-137,-116,-51,80,452,206,-108,-293,-202,-137,-47,35,-294,-54,-92,-181,-240,-101,26,-296,-133,-282,-328,195
18704,-186,-30,30,-102,162,143,-209,9,-125,-112,-56,115,441,225,-115,-301,-238,-174,-64,36,-301,-69,-114,-201,-252,-124,-17,-308,-166,-335,-403,37
18705,-248,-58,-12,-108,148,144,-234,-49,-134,-110,-53,171,459,233,-128,-330,-249,-167,-86,9,-342,-97,-119,-202,-273,-150,-53,-323,-206,-343,-457,-103
18706,-263,-57,-61,-187,145,136,-234,-246,-138,-110,-42,279,428,232,-136,-323,-236,-175,-72,16,-327,-136,-110,-205,-268,-169,-76,-325,-187,-330,-429,-53
18707,-211,-74,-77,-207,140,116,-266,-5,-115,-122,-62,247,412,203,-129,-254,-281,-204,-84,8,-333,-162,-153,-224,-271,-159,-115,-372,-211,-362,-445,1
18708,-195,-75,-50,-174,124,110,-270,99,-135,-133,-81,155,420,208,-146,-292,-341,-254,-125,-16,-404,-219,-225,-270,-310,-218,-221,-488,-304,-440,-544,-141
18709,-155,-57,-38,-172,132,105,-271,31,-132,-129,-71,118,414,221,-165,-358,-352,-217,-117,-22,-423,-276,-194,-290,-323,-247,-290,-509,-313,-446,-561,-189
18710,-105,-24,1,-132,158,129,-248,36,-126,-136,-89,154,411,224,-185,-510,-305,-184,-122,-49,-442,-245,-155,-276,-332,-273,-281,-477,-278,-407,-538,-227
18711,-139,-90,-49,-84,160,111,-247,73,-110,-143,-110,170,405,206,-204,-515,-246,-215,-125,-51,-460,-209,-157,-249,-320,-260,-253,-422,-237,-388,-515,-191
