,Fp1,Fp2,F7,F3,Fz,F4,F8,FC5,FC1,FC2,FC6,T7,C3,Cz,C4,T8,TP9,CP5,CP1,CP2,CP6,TP10,P7,P3,Pz,P4,P8,PO9,O1,Oz,O2,PO10
71896,347,257,446,262,157,425,454,197,47,157,396,66,320,110,386,-341,165,133,290,383,210,579,94,450,494,331,336,21,254,104,101,152
71897,331,232,399,335,176,415,366,504,90,136,364,100,384,113,373,-219,124,150,308,376,222,493,70,461,497,333,320,-73,245,105,102,144
71898,339,231,366,295,171,414,357,256,72,140,419,126,316,117,384,306,158,122,313,394,262,492,102,455,513,384,348,21,325,161,153,140
71899,301,209,341,271,162,391,308,263,57,140,460,107,309,109,373,469,127,113,294,397,232,518,59,441,511,372,330,-58,237,147,145,183
71900,271,195,323,269,141,377,343,356,68,109,302,81,323,109,350,382,98,117,287,380,233,516,84,450,505,349,346,-20,296,158,156,197
71901,292,211,309,280,138,328,480,351,69,69,181,82,309,108,289,362,146,143,268,371,232,524,110,469,506,359,369,57,349,173,166,194
71902,269,173,291,245,115,334,383,333,62,98,310,64,305,98,322,277,119,106,253,374,218,493,70,442,486,357,345,-38,306,151,158,189
71903,248,173,279,250,136,335,373,351,68,115,283,63,330,126,327,270,109,116,289,398,238,517,106,462,512,370,385,11,352,171,186,217
71904,247,147,207,258,128,334,407,410,66,100,214,72,321,114,347,182,111,116,278,389,246,534,97,457,509,399,402,-73,303,173,185,255
71905,225,131,216,267,98,298,300,512,66,79,159,64,322,104,391,-58,125,118,274,368,215,487,106,459,506,386,384,-93,318,175,197,240
71906,238,145,325,312,124,291,249,583,80,82,221,84,353,106,430,-94,136,160,283,362,192,428,110,465,488,373,358,-26,338,201,185,221
71907,227,174,327,268,133,310,380,347,71,68,309,98,318,80,254,178,160,155,284,341,168,480,112,462,493,361,379,-56,342,195,207,240
71908,252,176,325,229,118,333,449,225,63,67,350,96,289,86,151,267,169,143,292,323,151,514,166,502,511,383,424,81,432,251,263,267
71909,252,154,327,260,131,318,402,370,80,80,292,103,339,112,261,203,156,177,304,359,212,503,203,542,545,427,464,222,513,311,306,304
71910,245,123,312,272,108,273,244,517,98,58,184,92,391,125,248,163,209,214,330,360,231,495,225,552,584,431,472,233,525,318,291,280
71911,246,124,305,285,124,308,312,661,96,56,237,72,380,111,255,151,191,187,324,352,211,364,165,522,564,403,401,-18,390,197,183,195
71912,259,126,322,276,122,298,287,489,81,62,233,134,350,114,264,160,180,173,332,368,228,436,165,523,559,413,424,-68,374,222,222,253
71913,286,188,433,250,114,339,361,140,54,63,302,185,295,120,312,66,222,160,330,392,230,597,208,540,575,423,439,95,466,277,269,268
71914,265,168,375,282,110,333,353,372,66,62,297,143,315,114,314,81,164,194,326,392,237,619,250,549,582,421,393,173,487,260,220,257
71915,287,187,333,283,128,346,341,407,70,79,215,173,337,137,324,165,201,214,336,399,250,613,277,563,580,437,421,304,522,274,244,309
71916,257,157,373,264,125,367,368,398,50,80,269,151,328,127,308,113,204,197,321,391,200,533,279,552,549,399,398,405,537,280,245,281
71917,281,175,399,293,122,363,331,452,81,106,306,129,352,138,329,75,199,214,343,388,229,570,269,554,565,402,422,290,477,235,203,258
71918,290,170,392,307,140,336,285,467,90,103,248,150,372,157,317,11,145,214,346,413,237,581,211,533,555,388,438,80,406,166,189,283
71919,289,178,393,296,143,380,377,453,67,116,326,185,356,130,356,135,127,201,347,409,231,534,208,529,535,395,413,137,455,205,220,270
71920,303,185,420,305,149,411,425,427,49,127,369,177,307,128,365,225,160,185,339,398,243,552,212,525,532,391,402,200,474,218,228,274
71921,285,179,393,326,152,370,297,457,70,102,225,161,329,106,321,164,197,182,325,376,228,559,196,502,502,376,404,53,422,208,204,287
71922,277,179,369,308,132,361,306,433,59,96,237,145,308,92,304,45,214,160,302,347,200,518,160,473,475,342,386,-56,355,143,149,258
71923,301,161,385,327,141,378,354,463,64,114,286,144,334,85,309,-31,189,161,293,355,195,500,160,464,478,331,388,-38,350,125,156,246
71924,295,161,306,362,156,369,359,560,76,102,328,59,352,81,306,30,116,173,267,331,165,420,151,456,446,288,339,69,364,118,108,148
71925,247,107,181,380,156,338,185,716,96,105,371,15,408,80,328,97,126,162,276,309,129,438,159,427,448,270,350,109,370,119,83,142
71926,207,99,239,377,149,341,188,761,105,108,256,121,400,86,317,23,139,177,277,314,60,448,193,452,472,265,335,224,422,150,116,138
71927,283,173,475,257,153,316,382,151,49,68,57,163,231,94,220,-1,204,112,242,311,81,511,183,425,452,268,369,122,367,146,143,205
71928,242,124,424,240,143,344,345,197,50,92,228,96,244,85,257,-17,137,89,231,313,95,443,122,393,432,254,344,-57,288,105,146,202
71929,218,127,347,287,160,347,310,424,80,108,236,113,287,96,286,-176,163,104,244,338,115,467,110,382,443,265,326,-198,237,67,98,217
71930,280,145,416,314,188,352,301,454,100,112,193,138,298,105,283,8,197,118,252,335,144,499,114,396,430,282,350,-188,208,48,83,214
71931,273,153,336,304,166,350,320,461,79,122,251,110,296,103,301,267,194,119,231,320,160,461,133,415,417,269,346,-80,234,55,86,214
71932,260,174,338,271,160,359,347,369,56,113,277,100,278,76,305,250,201,113,239,332,179,444,127,383,413,263,358,-119,241,48,80,210
71933,278,152,386,253,150,377,378,329,44,90,283,121,268,81,292,214,215,129,245,330,194,499,163,408,418,283,369,-18,278,78,92,199
71934,271,165,407,287,167,403,374,417,73,109,268,153,280,84,318,187,247,153,259,348,194,557,204,422,441,272,368,66,293,83,75,217
71935,280,175,377,309,203,421,365,420,67,121,331,164,295,80,332,210,269,167,255,347,206,567,202,417,433,271,379,-5,259,41,87,247
71936,283,199,281,284,185,391,339,481,59,112,281,137,321,78,316,216,287,146,245,333,181,551,205,408,408,292,385,7,253,32,82,255
71937,313,173,309,322,180,366,297,664,71,124,198,119,338,74,353,116,246,160,257,333,183,481,183,397,397,257,354,71,266,10,44,185
71938,257,158,362,325,182,410,315,664,70,131,293,100,307,79,425,81,161,132,232,345,207,392,131,353,369,254,320,57,213,-32,-2,129
71939,286,178,418,273,189,376,258,291,60,107,246,113,237,65,333,113,164,96,209,319,155,438,114,332,359,246,290,-33,210,-16,4,145
71940,334,232,428,260,208,414,381,143,59,118,388,112,198,48,189,-36,199,70,199,295,89,411,111,327,354,210,221,-58,205,-12,3,131
71941,297,227,281,264,211,440,387,370,49,124,333,82,235,59,304,-327,151,71,197,323,118,275,108,321,331,221,221,-31,200,-20,-28,111
71942,254,202,255,257,203,399,392,352,40,108,312,52,222,35,290,-238,155,59,176,303,139,475,110,315,311,211,288,-4,199,-37,-29,119
71943,289,222,287,275,193,387,292,421,70,124,305,34,226,50,286,-99,144,59,193,302,184,532,113,321,330,224,319,-2,165,-49,-31,149
71944,312,249,293,282,212,433,350,515,58,122,302,24,250,49,305,-165,88,37,184,307,194,418,72,296,321,231,284,-110,114,-113,-49,140
71945,302,246,300,267,209,445,365,362,55,126,346,39,230,63,334,-56,90,44,182,316,216,357,104,306,330,254,309,-53,142,-69,4,154
71946,334,260,329,252,212,457,361,105,27,134,337,3,191,44,317,149,118,39,179,317,203,336,99,314,351,256,296,28,190,-36,-8,121
71947,311,262,279,276,239,484,441,320,36,128,367,14,249,45,324,252,41,23,163,318,196,429,47,299,327,244,286,-49,163,-63,-55,97
71948,337,284,283,279,250,468,447,288,42,140,401,97,203,60,356,330,79,44,197,345,263,555,96,341,363,299,321,-31,198,-15,17,160
71949,314,283,274,262,231,444,389,252,48,130,442,55,190,49,338,264,114,44,194,337,205,548,95,371,363,300,309,-24,233,28,23,144
71950,290,270,259,260,218,438,317,279,46,131,525,35,229,67,361,238,151,56,186,346,197,534,112,365,368,303,335,-5,247,25,15,185
71951,308,292,211,275,222,440,404,384,48,119,356,46,239,41,345,223,194,80,202,350,229,546,135,379,380,298,343,52,229,-1,26,216
71952,329,313,153,335,244,393,493,563,72,85,187,78,263,26,262,93,201,104,214,320,220,585,145,402,387,309,376,75,279,48,53,227
71953,326,278,237,341,225,403,381,616,87,91,296,63,262,35,302,-50,176,89,206,321,209,583,151,392,374,306,357,28,264,28,50,189
71954,373,308,374,227,220,451,462,97,22,91,368,72,181,28,327,241,183,79,196,334,246,588,118,390,399,317,390,-76,241,40,72,222
71955,383,297,419,228,229,429,439,128,15,106,356,92,188,39,320,432,193,99,193,337,254,569,125,393,409,351,421,-31,274,68,126,232
71956,380,268,331,265,229,429,429,310,47,107,350,74,199,52,320,360,143,75,200,344,266,533,85,378,402,351,410,-72,237,33,90,214
71957,350,255,352,274,198,420,396,342,44,109,343,16,220,50,314,281,134,68,214,349,268,494,89,383,418,365,406,-40,246,61,89,244
71958,324,272,279,257,186,410,400,415,45,96,339,-41,258,51,312,251,133,65,209,334,217,489,84,386,414,335,386,-51,248,56,97,216
71959,346,294,310,261,187,402,450,341,43,84,283,38,259,62,264,146,159,74,226,333,212,557,104,395,425,327,386,-8,281,65,104,219
71960,343,292,362,253,183,434,477,176,33,106,347,102,177,68,309,79,195,47,217,355,263,605,138,416,446,342,396,94,340,108,134,232
71961,325,264,319,269,174,434,460,269,47,120,382,95,192,71,322,159,210,78,235,366,272,575,174,446,448,343,399,168,388,125,130,214
71962,341,266,378,261,182,415,384,337,31,111,337,108,231,76,302,229,253,123,249,356,257,554,213,456,453,341,380,205,425,165,154,222
71963,387,309,397,292,215,416,417,357,39,114,299,150,260,67,267,280,279,127,261,361,226,622,207,480,473,344,398,144,398,180,192,261
71964,397,329,386,294,227,439,429,377,60,115,330,135,272,64,296,303,287,131,268,363,243,617,232,490,484,321,428,151,411,186,194,289
71965,410,326,416,311,217,429,394,388,49,99,321,149,291,45,280,256,328,151,262,345,220,588,259,501,471,314,416,247,456,196,191,256
71966,444,378,446,350,246,437,400,405,52,109,277,168,289,48,273,228,323,172,267,338,238,585,259,515,485,321,427,194,428,181,184,250
71967,457,345,421,319,238,438,419,388,43,109,364,134,266,26,297,220,248,146,235,300,205,564,195,472,455,283,384,6,321,105,120,234
71968,488,347,446,362,246,447,390,457,54,128,305,180,314,23,291,174,297,207,275,334,202,590,243,535,478,298,348,100,414,167,153,243
71969,464,345,397,385,244,458,395,536,63,104,254,197,329,54,277,-96,323,246,273,338,176,620,312,570,486,311,354,254,496,230,159,244
71970,463,346,435,387,251,466,434,583,68,108,323,191,318,49,305,-171,287,243,279,338,198,582,306,556,470,309,373,301,505,212,134,230
71971,470,381,457,347,230,478,428,420,32,101,292,175,290,38,350,-4,240,199,273,344,214,433,242,528,457,300,355,251,436,151,88,205
71972,497,398,506,332,230,497,444,255,21,141,356,182,256,49,440,194,277,202,257,370,275,400,239,502,459,327,378,127,413,137,114,223
71973,525,395,472,378,250,489,424,413,38,139,380,164,303,54,441,215,273,194,257,378,277,550,243,505,475,333,363,125,441,156,118,210
71974,527,418,474,409,278,486,521,505,70,106,385,217,337,58,200,136,282,253,302,347,191,630,313,573,516,305,345,428,549,204,124,216
71975,502,386,459,385,257,453,439,470,85,103,360,204,344,74,242,62,215,253,310,356,217,585,325,561,515,296,355,542,513,178,99,222
71976,503,369,467,370,254,454,418,387,78,127,381,153,308,101,318,72,189,190,303,374,243,530,239,520,516,304,394,281,398,124,87,220
71977,495,370,459,341,250,494,417,357,45,123,495,125,253,79,321,148,180,113,256,344,208,499,36,421,434,257,372,-301,123,-41,0,145
71978,490,362,470,370,238,467,346,464,52,124,414,106,278,88,326,223,243,151,274,344,158,494,118,457,445,268,359,-25,262,40,37,153
71979,528,406,520,424,244,403,475,619,96,97,177,113,357,90,264,273,273,196,309,348,166,570,175,506,490,297,392,153,343,105,77,213
71980,524,406,489,432,241,428,455,673,118,90,247,162,401,95,266,240,283,234,308,341,194,572,199,506,489,304,377,164,318,108,106,240
71981,497,408,460,394,229,459,446,513,84,119,329,154,347,77,294,113,285,205,270,340,194,582,161,470,462,286,376,-32,262,53,83,235
71982,504,409,563,412,247,472,486,567,82,100,338,210,322,56,294,-91,292,173,262,333,182,583,126,440,445,274,361,-187,151,-25,34,197
71983,533,395,599,388,236,472,525,308,58,102,382,242,288,46,310,103,306,157,246,318,196,590,142,432,430,266,358,-140,154,-6,49,232
71984,506,402,317,396,211,435,391,461,69,90,305,214,321,79,308,313,318,179,270,344,225,626,182,447,457,315,431,-95,195,31,85,271
71985,480,401,354,438,223,453,412,783,84,104,333,224,382,93,313,213,245,201,292,351,255,593,209,467,447,333,402,39,256,46,86,201
71986,500,440,492,438,246,503,543,586,100,130,483,243,362,105,384,-90,284,215,304,377,278,607,233,496,478,359,409,129,319,101,150,287
71987,576,498,639,324,256,525,506,103,76,161,489,283,311,140,451,-11,393,240,329,455,343,671,291,531,536,425,488,133,364,167,225,376
71988,585,496,616,383,252,469,415,352,74,150,364,294,350,153,443,353,409,248,344,446,388,697,301,522,525,449,548,117,354,181,217,414
71989,585,507,587,407,247,501,511,444,103,152,433,277,366,150,430,440,439,249,355,419,317,646,295,534,534,444,564,147,368,198,219,377
71990,621,542,605,402,239,531,507,459,126,158,417,305,380,151,401,328,485,279,371,459,274,637,341,564,567,452,546,237,438,242,249,371
71991,593,498,536,377,233,525,514,447,97,130,439,267,371,136,430,181,448,250,350,460,315,727,323,543,540,441,506,222,424,218,229,385
71992,603,510,541,376,234,520,498,487,100,140,469,224,396,145,452,128,446,262,340,449,344,807,304,535,526,427,505,179,390,186,206,403
71993,597,509,521,397,233,517,488,501,106,143,432,178,402,137,433,269,421,229,343,420,347,713,254,516,512,417,517,106,318,143,183,385
71994,540,454,456,363,211,519,525,460,78,153,485,235,356,135,421,364,359,210,321,414,333,698,253,477,510,404,532,112,321,131,213,384
71995,544,454,505,344,203,540,552,367,54,156,492,288,276,136,422,401,401,200,312,418,358,742,271,476,492,419,577,161,341,156,238,447
71996,553,504,484,361,223,504,506,432,88,134,376,241,349,134,362,426,418,214,329,406,335,739,265,496,494,430,567,148,341,174,246,464
71997,542,472,411,371,224,501,481,495,95,131,393,235,353,135,379,425,370,219,316,408,358,741,259,497,509,427,564,122,319,158,231,418
71998,535,463,446,383,226,492,497,541,85,124,400,219,350,119,372,337,361,222,297,379,344,719,233,496,494,416,543,118,312,131,182,400
71999,517,444,467,368,248,475,462,495,84,116,337,205,330,93,390,242,266,184,300,373,333,608,197,474,480,389,492,93,292,94,152,310
72000,534,453,484,321,245,475,434,245,55,140,328,176,288,91,476,227,253,169,302,398,377,631,189,472,489,414,506,97,308,104,186,344
72001,490,426,432,316,229,477,357,273,67,157,461,89,282,112,506,135,206,140,289,414,386,616,175,469,493,415,501,83,325,138,187,340
72002,446,407,360,325,212,485,371,324,92,141,557,83,301,114,305,-123,283,173,310,378,273,633,233,511,515,385,480,200,389,196,225,344
72003,430,425,313,320,203,477,482,322,79,110,300,86,285,103,221,3,318,145,309,351,198,615,240,498,497,359,463,165,372,184,241,396
72004,450,384,332,349,208,438,386,374,98,95,216,73,279,98,242,302,263,124,303,363,201,581,191,488,507,362,484,145,379,175,261,457
72005,414,330,293,302,199,403,321,335,76,92,282,23,256,87,244,319,206,95,276,340,186,559,151,466,479,336,455,98,344,168,223,441
72006,426,339,251,276,191,397,388,224,59,93,300,-41,219,73,266,276,162,35,236,331,145,564,107,444,479,308,428,55,304,126,181,406
72007,443,347,276,287,201,385,323,216,69,87,301,-30,206,72,227,245,176,25,243,299,115,544,83,433,465,248,345,42,271,70,84,107
72008,439,360,322,304,190,376,282,261,79,73,260,-30,205,86,202,190,164,50,260,283,106,552,85,443,460,243,338,19,295,81,98,148
72009,424,332,266,271,165,354,248,251,66,55,238,-75,210,85,207,135,148,53,254,276,84,472,120,459,466,241,320,64,322,100,126,175
72010,395,347,154,252,180,392,290,227,58,71,241,-109,235,101,254,145,119,69,270,309,122,475,146,472,481,269,346,145,370,165,159,216
72011,384,345,148,241,181,366,289,207,40,70,242,-83,238,99,237,148,119,77,260,305,135,489,142,480,478,262,338,146,388,163,137,199
72012,397,377,211,235,186,388,342,206,38,83,298,-74,178,94,261,185,127,37,240,314,152,398,119,459,477,250,325,121,357,142,107,158
72013,413,394,170,245,183,422,369,355,60,91,292,-97,222,88,254,136,127,49,246,314,130,428,127,472,488,260,323,99,353,131,90,181
72014,377,381,115,244,173,409,412,515,52,105,355,-151,251,63,249,175,79,52,262,300,97,573,116,464,477,239,322,106,338,121,100,190
72015,405,405,94,268,186,451,490,421,52,126,434,-111,216,68,268,152,93,27,239,290,121,587,107,461,469,233,319,86,322,107,76,180
72016,431,428,156,277,205,439,369,235,59,104,284,-30,170,92,228,112,138,31,247,297,113,562,141,466,487,248,349,104,364,141,110,210
72017,387,400,183,264,174,400,251,301,39,84,174,-79,192,76,194,86,115,30,239,286,100,538,129,446,457,233,340,83,323,112,88,190
72018,417,458,316,143,193,479,372,-241,12,124,294,-100,98,97,249,18,138,-16,228,318,123,545,156,441,474,274,369,116,358,112,108,230
72019,422,467,284,208,199,477,377,-39,34,120,315,-95,129,92,243,-260,145,-14,233,302,95,488,125,427,470,244,330,83,329,89,96,199
72020,429,488,225,240,212,508,354,111,30,113,322,-88,171,94,270,-402,127,-6,238,317,125,506,128,428,477,258,305,88,313,89,98,161
72021,424,490,214,230,213,503,397,86,29,117,354,-112,168,94,285,-214,102,-16,240,329,159,513,128,427,477,284,301,73,303,78,102,183
72022,406,491,173,242,210,493,405,113,28,132,349,-122,168,92,287,81,107,-4,237,327,166,471,121,427,473,289,276,66,296,67,97,189
72023,419,489,204,263,211,471,351,161,51,135,259,-105,177,87,251,215,107,31,263,325,166,463,140,441,489,291,292,71,309,86,101,236
72024,423,498,202,281,219,465,334,220,54,132,272,-137,211,96,248,163,108,33,265,316,153,471,127,435,497,267,310,54,296,96,101,251
72025,382,452,119,253,184,452,334,235,47,127,291,-174,220,96,256,155,52,15,239,324,136,468,100,431,471,263,291,32,285,61,85,193
72026,394,477,140,292,203,466,355,292,25,130,316,-45,169,95,268,-52,53,3,223,340,105,510,115,439,468,273,324,84,298,64,101,236
72027,421,510,242,278,201,519,373,238,12,145,391,-57,110,77,336,-382,19,-38,210,336,104,531,96,398,457,271,340,74,286,40,88,216
72028,425,495,266,250,191,531,312,104,4,181,442,-116,117,79,430,-55,28,-42,225,371,163,476,81,399,456,289,340,72,279,34,85,192
72029,415,491,267,219,193,490,378,22,-6,182,242,-93,101,103,426,287,95,-36,235,386,195,480,119,417,497,315,376,136,318,86,139,229
72030,449,498,230,266,205,479,457,156,18,145,243,-94,141,102,204,363,154,6,249,344,136,553,173,438,520,308,392,270,394,132,154,296
72031,446,498,230,239,207,506,389,151,1,142,355,-109,138,77,152,194,121,-28,237,316,86,481,118,399,463,259,379,204,332,76,90,262
72032,453,493,223,238,189,488,401,141,-20,125,332,-125,116,70,223,68,89,-63,209,309,91,380,126,370,433,239,316,223,328,28,36,120
72033,485,503,262,254,171,480,463,153,-8,127,364,-104,122,57,250,157,114,-65,183,308,136,538,121,352,427,259,346,122,277,-14,21,180
72034,536,558,339,280,200,504,447,201,15,134,361,-64,121,51,266,205,141,-50,184,307,162,654,98,344,414,241,369,-99,189,-49,-7,192
72035,557,557,370,309,213,497,394,247,8,140,326,-41,145,78,264,163,173,-29,199,322,150,567,143,375,396,268,389,24,294,25,61,221
72036,543,528,310,310,215,487,404,284,29,139,348,-30,173,74,285,189,214,-1,215,328,179,582,178,404,415,278,426,164,384,99,113,246
72037,561,542,361,337,240,507,434,322,76,140,346,-38,221,84,288,6,205,26,229,344,199,619,216,419,426,280,419,299,427,120,111,239
72038,553,530,393,331,216,473,434,269,70,129,315,-38,204,82,269,0,214,42,213,334,192,614,240,408,409,287,396,337,413,105,108,256
72039,552,513,304,314,206,492,518,264,66,127,418,10,231,92,309,154,213,53,233,343,226,577,274,442,435,304,421,413,478,180,189,306
72040,608,583,451,352,232,507,504,282,74,132,379,98,199,93,311,197,269,59,238,362,251,671,273,444,468,342,487,271,415,159,193,360
72041,633,589,480,342,213,453,442,318,62,101,281,98,183,88,274,147,281,46,224,341,239,738,192,397,437,340,497,19,279,81,143,332
72042,615,569,456,358,210,476,558,382,68,103,373,100,232,83,307,224,280,72,227,329,243,727,220,414,438,352,501,218,360,126,169,300
72043,616,569,418,409,224,452,504,595,86,102,338,125,291,94,286,356,324,134,265,349,241,744,338,468,467,360,496,599,538,228,209,316
72044,606,526,301,442,222,439,472,880,89,96,315,132,339,94,296,322,343,151,262,336,221,680,342,462,438,341,423,599,518,185,203,324
72045,639,511,492,481,237,440,480,694,84,99,311,238,296,78,278,138,400,153,244,330,198,675,267,433,427,329,400,349,371,89,154,373
