,Fp1,Fp2,F7,F3,Fz,F4,F8,FC5,FC1,FC2,FC6,T7,C3,Cz,C4,T8,TP9,CP5,CP1,CP2,CP6,TP10,P7,P3,Pz,P4,P8,PO9,O1,Oz,O2,PO10
205033,284,-9,264,-243,-44,287,-402,-154,-233,161,54,134,208,-130,-272,-60,-253,19,-23,-119,-339,-36,365,51,-127,-235,13,-356,-112,-369,-286,-296
205034,182,72,350,-290,-46,345,-412,-181,-246,174,46,15,221,-115,-254,23,-193,53,-16,-89,-311,-62,415,87,-93,-191,31,-353,-47,-314,-233,-236
205035,141,242,420,-249,-56,282,-361,-109,-223,184,25,-113,236,-96,-275,90,-128,90,31,-67,-278,17,465,137,-83,-156,68,-254,-6,-274,-172,-175
205036,329,294,398,-232,-57,146,-348,-137,-212,185,54,-125,291,-93,-258,6,-154,84,38,-66,-300,66,466,156,-80,-155,101,-212,-51,-307,-180,-225
205037,406,270,382,-304,-54,148,-310,-26,-218,188,48,94,294,-100,-254,17,-131,108,55,-57,-278,-12,520,191,-60,-114,122,-95,10,-242,-149,-304
205038,380,295,270,-307,-75,7,-367,-90,-246,161,52,392,294,-97,-261,40,-47,133,59,-30,-233,97,551,214,-19,-79,205,31,78,-191,-109,-278
205039,381,347,263,-214,-57,-37,-355,-59,-227,163,114,317,273,-103,-249,142,-12,114,73,-2,-211,132,573,232,-8,-64,246,51,116,-152,-81,-242
205040,188,258,286,-190,-57,227,-344,-91,-237,171,76,235,240,-123,-259,244,-54,85,47,-19,-215,90,566,213,-24,-80,238,-32,105,-135,-51,-261
205041,159,208,374,-254,-53,198,-423,-107,-254,163,29,152,217,-118,-269,229,-56,73,36,-3,-193,196,582,223,-29,-57,244,-7,153,-87,7,-163
205042,81,231,453,-162,-42,96,-407,-90,-240,138,-10,182,212,-106,-254,163,-25,98,68,9,-169,272,594,240,2,-19,269,2,190,-51,53,-68
205043,121,233,387,-144,-40,108,-352,-17,-235,149,84,180,225,-120,-215,229,2,89,71,26,-125,54,539,237,19,1,321,27,221,-16,97,9
205044,180,102,352,-126,-43,228,-262,7,-221,179,102,184,244,-95,-210,211,22,41,70,33,-129,133,458,223,22,14,357,52,196,-30,108,60
205045,-9,-81,303,-106,-42,402,-253,-158,-210,183,75,159,217,-96,-196,356,73,-1,63,30,-103,259,364,183,12,2,381,0,117,-115,32,-70
205046,-39,129,291,-95,-12,202,-166,-330,-213,166,25,276,260,-100,-204,325,82,71,71,37,-88,259,433,213,23,15,370,-40,94,-143,-11,-186
205047,71,216,276,-27,-1,101,-107,-77,-177,170,105,216,315,-70,-191,87,-33,177,110,65,-92,227,568,272,51,45,384,54,180,-57,50,-39
205048,26,140,63,-163,-36,174,-156,36,-206,182,147,65,317,-63,-182,40,-47,165,103,72,-81,99,469,252,58,51,372,79,190,-54,68,-113
205049,-204,208,-184,97,-65,95,-226,69,-154,135,111,201,325,-85,-211,90,41,80,86,52,-113,69,392,216,24,12,326,55,169,-58,40,-243
205050,-79,223,-57,13,-44,257,-195,-45,-178,166,110,276,283,-68,-190,121,120,96,91,50,-123,148,473,228,42,4,316,94,204,-51,46,-159
205051,95,236,203,2,-31,305,-273,-62,-213,176,107,115,273,-55,-203,104,109,62,73,46,-138,263,520,217,46,-5,288,70,182,-73,74,-29
205052,278,275,526,-150,-27,132,-440,-102,-209,181,147,100,288,-41,-175,161,98,90,93,77,-101,237,566,244,63,28,346,40,179,-46,123,110
205053,458,123,636,-345,-33,232,-401,-104,-243,191,153,178,306,-41,-160,161,91,157,133,112,-80,210,622,287,92,73,370,102,233,0,166,207
205054,429,71,595,-354,-44,198,-291,-167,-230,192,124,254,311,-43,-177,177,90,168,132,114,-88,170,663,299,102,86,361,133,256,19,162,194
205055,476,196,573,-336,-59,235,-174,-157,-242,199,140,246,297,-31,-155,227,90,156,111,112,-74,126,643,275,88,68,350,86,229,-9,119,115
205056,474,238,490,-230,-50,228,-102,-169,-214,200,175,255,330,-24,-137,258,58,188,144,137,-60,169,627,288,99,84,341,73,230,-4,141,80
205057,443,200,481,-330,-62,193,-198,-73,-235,201,149,238,316,-53,-155,228,39,185,138,114,-116,262,631,302,105,74,355,33,220,2,167,136
205058,339,249,458,-294,-33,220,-271,-8,-202,208,165,278,337,-36,-118,201,72,232,158,134,-89,289,717,341,127,105,400,67,249,22,193,206
205059,244,349,398,-257,-27,177,-302,-6,-180,192,150,326,364,-30,-101,202,106,254,187,151,-69,237,766,366,140,125,427,104,289,46,210,151
205060,314,381,354,-233,-28,192,-244,-2,-198,200,166,339,355,-27,-92,226,56,221,192,156,-34,291,715,372,148,139,491,144,296,58,235,110
205061,376,392,348,-220,-64,149,-268,-25,-232,188,111,261,316,-58,-127,337,-4,198,169,137,-31,328,662,348,134,133,514,164,276,34,219,150
205062,320,265,361,-230,-57,259,-243,-27,-206,191,112,249,342,-35,-127,496,44,199,167,138,-15,266,635,360,143,144,485,170,301,45,228,184
205063,256,295,392,-273,-16,291,-199,-14,-184,215,133,252,345,-21,-95,365,90,244,215,157,-48,326,646,383,173,174,480,168,341,98,265,212
205064,184,345,400,-180,-31,191,-168,10,-183,197,139,127,355,-25,-113,313,102,254,219,167,-33,342,696,396,174,175,504,161,348,136,265,225
205065,213,357,383,-145,-41,163,-131,59,-164,207,147,26,407,-5,-114,259,112,278,240,172,-2,341,728,433,187,196,499,134,371,151,291,261
205066,224,368,352,-143,-43,148,-139,51,-154,218,163,138,420,11,-100,206,125,291,249,180,0,379,721,471,209,197,513,168,383,154,308,270
205067,178,256,306,-147,-74,192,-219,22,-166,217,182,237,408,-4,-122,200,81,259,250,172,5,452,691,444,200,176,503,177,357,130,287,222
205068,218,244,301,-120,-66,145,-234,77,-187,221,166,256,408,4,-105,413,83,238,240,171,26,471,670,433,201,191,554,195,333,145,315,202
205069,135,50,216,-121,-58,515,-306,73,-178,247,151,327,398,4,-88,640,135,237,219,187,71,411,649,430,195,223,643,227,341,138,328,225
205070,-1,66,91,-104,-46,296,-281,-199,-176,242,157,314,397,3,-60,457,204,247,228,195,75,467,670,443,211,237,647,225,383,161,325,261
205071,-74,82,59,-51,-56,104,-230,-324,-178,198,129,112,376,-11,-94,254,109,204,213,171,23,386,650,421,204,196,579,134,355,140,307,237
205072,5,124,14,-27,-65,201,-191,-151,-154,213,194,-60,381,8,-94,140,-13,204,223,176,-23,288,654,415,194,171,502,45,344,105,271,161
205073,-52,199,-50,86,-70,127,-293,-9,-134,203,190,146,434,0,-104,148,-74,287,232,177,-29,216,700,423,192,152,463,28,325,76,219,47
205074,-78,188,-100,139,-53,127,-288,133,-100,207,200,343,461,0,-104,192,-56,297,236,171,-27,176,678,422,199,154,500,-42,296,66,224,-114
205075,-158,88,-148,74,-79,81,-316,-17,-138,185,199,355,371,-16,-91,174,26,236,209,180,-6,155,683,411,189,174,537,-84,266,51,223,-153
205076,-115,-20,55,-111,-72,198,-322,-113,-182,197,135,-70,320,-17,-92,218,3,113,199,187,6,172,648,392,178,170,573,-19,268,41,195,-27
205077,136,78,226,-375,-103,144,-292,-195,-220,185,120,-289,294,-38,-103,224,-110,93,201,184,-6,244,546,369,186,165,487,78,296,70,213,226
205078,151,186,335,-283,-89,98,-256,-92,-214,166,129,-107,305,-40,-138,218,-121,128,195,149,-50,304,520,370,176,133,373,106,295,74,197,267
205079,257,245,490,-314,-52,181,-221,-5,-203,204,238,127,363,-29,-120,268,-34,199,236,170,-8,301,608,394,199,157,395,149,326,84,192,167
205080,245,250,536,-347,-46,230,-151,-6,-194,227,210,276,374,-16,-90,295,22,278,234,196,0,318,643,414,202,176,422,142,332,56,194,124
205081,259,283,390,-273,-42,258,-67,-136,-208,215,212,409,368,-23,-113,309,0,257,212,171,-10,301,658,376,157,143,438,119,321,33,184,177
205082,374,290,422,-205,-25,280,-78,-124,-194,232,264,450,352,-12,-85,304,68,254,207,171,-11,285,705,371,153,132,420,152,306,39,187,235
205083,316,185,457,-345,-44,255,-90,-46,-210,246,262,388,347,-25,-79,305,68,215,195,156,-16,284,708,390,159,131,418,158,313,66,176,222
205084,177,117,303,-331,-86,200,-126,-44,-209,237,222,360,325,-21,-114,299,42,184,195,159,-23,264,675,382,142,119,410,160,341,44,158,192
205085,97,78,259,-283,-99,153,-174,-63,-217,214,195,410,306,-16,-134,276,88,199,186,148,-47,294,671,368,121,115,415,193,359,58,189,201
205086,175,69,481,-331,-75,153,-173,12,-193,221,188,400,339,13,-123,287,148,266,212,175,4,275,706,416,168,160,448,214,381,104,220,181
205087,101,47,527,-352,-85,135,-203,-2,-211,200,167,299,356,4,-127,276,120,264,217,172,3,273,708,391,175,162,481,193,354,112,223,109
205088,98,73,515,-282,-83,161,-203,-4,-193,208,160,318,365,-23,-142,261,114,247,181,149,-21,253,705,383,147,135,470,192,347,84,203,83
205089,141,47,516,-244,-68,182,-211,55,-180,212,184,347,368,-24,-141,296,157,261,185,141,-18,284,726,401,146,118,437,210,357,82,195,216
205090,119,90,473,-216,-52,175,-153,45,-175,211,208,369,382,-17,-128,370,194,275,197,143,1,351,743,401,153,113,434,191,359,86,180,246
205091,136,168,448,-219,-53,197,-193,-94,-195,214,229,424,375,-42,-120,417,207,285,168,144,3,351,774,392,133,109,442,149,330,45,134,100
205092,112,65,400,-210,-41,256,-250,-57,-196,255,267,410,381,-58,-108,391,187,260,160,136,1,350,777,393,113,126,443,168,311,20,129,-3
205093,43,-31,357,-186,-26,245,-182,44,-172,266,265,345,396,-20,-89,341,157,248,165,163,5,365,754,391,131,138,472,220,334,57,154,9
205094,57,-20,386,-184,-47,179,-123,60,-178,227,224,341,386,-47,-121,333,161,273,163,139,-11,330,737,390,148,126,464,238,342,75,128,56
205095,53,19,418,-166,-47,143,-129,121,-161,200,216,351,396,-35,-125,353,161,303,183,155,4,327,778,415,138,135,476,153,351,91,186,173
205096,152,86,531,-89,-21,168,-105,187,-111,230,235,370,433,-12,-101,380,180,343,225,173,28,351,837,445,162,166,501,81,342,101,222,275
205097,109,121,486,-55,-29,222,-63,152,-132,237,244,385,412,-31,-119,392,185,318,210,148,25,354,820,404,157,156,480,74,330,93,237,306
205098,71,72,395,-119,-18,241,-46,-136,-162,230,246,473,389,-39,-133,399,248,317,187,138,14,399,799,389,138,142,400,173,359,99,217,283
205099,-106,-79,274,-181,-45,216,-174,-167,-174,222,223,401,370,-51,-139,380,245,303,165,143,18,332,821,388,126,126,436,280,362,113,215,235
205100,-125,-61,300,-131,-49,226,-297,67,-155,216,207,246,372,-33,-119,399,253,267,162,155,10,262,770,360,110,102,472,232,273,12,148,205
205101,-37,-11,287,-56,-50,236,-496,182,-131,224,145,308,406,-10,-131,616,300,224,170,150,53,429,701,336,118,133,513,173,247,-18,102,118
205102,-154,25,146,-4,-57,255,-487,137,-162,235,183,646,361,-37,-105,677,363,201,154,137,58,449,657,320,91,123,521,33,209,-55,72,-94
205103,-157,-23,35,53,-54,263,-389,154,-153,231,216,566,399,-44,-111,469,298,257,140,135,36,369,679,314,65,109,521,-56,137,-119,46,-114
205104,-246,-36,74,113,-46,317,-302,187,-125,233,245,432,445,-39,-111,327,224,350,172,146,48,382,776,356,96,101,554,-31,146,-79,73,-74
205105,-423,-139,254,187,-44,361,-228,220,-114,238,261,432,446,-37,-102,333,228,369,178,125,39,310,805,394,107,108,546,57,217,-52,73,-128
205106,-136,-115,331,110,-25,400,-166,191,-117,256,271,444,480,-27,-91,358,279,412,195,145,33,261,816,421,128,122,565,140,280,-5,122,-110
205107,59,25,274,142,-31,174,-97,183,-123,212,242,425,482,-44,-148,249,260,451,202,129,-19,245,816,409,126,94,497,94,272,3,112,-172
205108,1,-14,82,227,-15,157,-85,94,-110,198,268,492,484,-39,-124,271,361,455,206,126,-2,341,838,419,146,122,461,126,293,34,145,-6
205109,5,69,187,160,-7,101,6,166,-111,222,263,508,463,-35,-93,338,502,396,206,147,21,425,839,437,161,151,482,234,353,84,224,208
205110,47,96,436,70,10,214,71,207,-99,252,275,542,452,-14,-72,381,501,394,242,179,54,449,828,460,191,189,506,295,413,163,293,269
205111,125,59,511,-20,-18,172,16,193,-123,208,240,491,458,-45,-96,363,302,389,212,147,17,430,787,442,189,179,508,309,392,158,281,270
205112,165,114,639,-90,-16,184,-14,211,-136,204,258,521,493,-46,-105,407,222,428,226,161,46,516,817,461,195,188,545,359,432,172,307,298
205113,137,119,713,-116,-17,267,-52,206,-129,236,301,620,514,-26,-102,408,323,467,254,170,61,550,879,493,224,208,579,394,467,213,345,385
205114,146,117,680,-192,-59,220,-91,162,-147,219,267,584,497,-24,-118,416,363,434,240,160,73,365,875,473,220,219,582,371,451,216,345,370
205115,138,140,612,-199,-54,168,-170,190,-142,212,250,590,488,-2,-102,410,369,430,260,200,78,384,871,479,243,229,597,330,451,219,355,281
205116,181,143,533,-204,-45,186,-200,181,-142,229,240,629,508,22,-102,397,366,424,268,203,86,413,865,487,258,236,628,334,451,217,346,308
205117,281,124,489,-219,-66,231,-223,176,-163,218,227,619,480,14,-107,421,347,402,258,198,102,410,857,489,249,252,636,339,439,208,345,354
205118,161,70,357,-117,-89,221,-202,178,-152,228,234,644,479,38,-99,437,372,410,273,233,103,383,850,496,261,256,615,333,440,229,336,372
205119,74,99,354,-90,-80,117,-179,114,-144,207,210,642,462,15,-113,423,333,376,273,232,104,394,836,464,261,247,607,301,430,215,354,370
205120,49,86,500,-123,-82,106,-172,101,-149,211,201,549,453,10,-123,409,328,345,265,192,70,403,807,453,253,240,584,260,413,191,347,371
205121,49,45,574,-161,-73,144,-159,110,-150,212,212,475,431,12,-114,395,354,313,254,197,73,383,778,447,245,232,579,251,403,197,349,255
205122,54,91,501,-222,-63,77,-234,-2,-179,190,215,350,387,6,-127,408,338,288,236,193,74,363,762,412,235,220,586,262,392,179,298,178
205123,92,54,442,-243,-73,177,-344,-185,-198,212,188,260,366,9,-123,478,322,299,217,184,47,410,748,393,209,193,538,258,389,169,276,187
205124,116,-96,432,-327,-55,290,-335,-13,-218,223,136,329,355,9,-134,403,196,286,197,166,12,405,745,406,194,161,496,206,347,133,259,246
205125,56,-178,325,-269,-66,173,-224,52,-195,207,132,278,386,7,-173,277,87,274,183,128,-31,360,751,411,184,131,469,65,343,116,250,300
205126,2,-120,304,-110,-53,202,-114,95,-148,211,196,276,444,11,-181,303,68,282,199,119,-19,310,798,408,180,125,448,40,316,92,210,261
205127,-42,-142,355,-183,-51,247,-108,92,-177,203,193,366,409,-11,-173,414,21,268,187,134,-26,306,762,398,180,129,471,77,306,101,224,265
205128,-131,-178,396,-169,-80,238,-118,65,-192,201,186,385,381,-19,-140,429,58,257,190,161,13,275,720,399,185,168,516,149,354,164,313,387
205129,-145,-72,389,-123,-89,204,-115,32,-177,201,218,388,404,-20,-126,409,95,258,191,165,48,296,696,393,199,203,533,129,342,174,352,453
205130,-107,26,224,-158,-73,198,-163,-71,-177,222,251,601,376,-2,-117,506,210,297,193,197,68,380,774,430,215,240,550,129,355,186,346,432
205131,-88,4,140,-126,-68,150,-266,139,-164,208,238,613,365,-44,-124,557,261,226,196,181,73,412,771,425,207,227,582,157,375,209,350,388
205132,-63,-8,112,-49,-73,236,-325,-55,-160,210,262,423,362,-73,-122,395,220,225,198,175,64,389,736,415,194,205,513,218,405,172,290,104
205133,-69,-71,-16,-80,-96,248,-328,-67,-192,194,232,191,396,-81,-128,331,135,212,195,161,35,400,670,381,186,190,482,243,422,173,277,-29
205134,-74,-40,96,-189,-84,361,-346,-21,-190,226,310,191,379,-81,-127,398,114,230,184,172,44,432,674,388,192,207,502,271,448,219,289,-27
205135,-66,-35,159,-150,-81,368,-340,-43,-185,229,357,236,378,-78,-76,496,141,230,177,186,98,323,713,388,187,222,527,182,413,186,275,-175
205136,-20,50,301,-180,-67,281,-260,-21,-173,250,305,356,393,-26,-37,549,260,283,231,225,107,413,807,461,242,270,586,245,486,255,323,-49
205137,-44,38,306,-225,-100,219,-215,-48,-233,207,241,386,355,-44,-101,514,256,267,208,207,82,253,843,447,217,226,549,272,468,234,325,106
205138,-68,-106,276,-183,-97,367,-260,-115,-214,207,281,160,365,-49,-105,441,233,272,207,203,66,251,848,450,234,222,512,288,483,270,373,303
205139,-160,-85,252,-86,-85,195,-467,-101,-185,221,307,96,368,-31,-94,420,307,239,228,210,25,408,797,453,241,234,429,316,499,293,361,288
205140,-391,-148,63,-40,-100,95,-489,-14,-197,217,316,189,357,-39,-118,325,290,235,223,183,-16,264,759,454,212,198,394,384,508,293,338,240
205141,-376,-282,-24,28,-108,306,-307,-11,-178,210,237,333,381,-11,-142,270,238,285,211,191,-1,157,745,451,211,194,418,428,501,272,321,199
205142,-211,-184,152,-49,-91,203,-184,-16,-177,198,141,504,407,-6,-139,275,157,309,230,194,24,317,794,479,241,205,477,429,495,266,351,190
205143,-94,25,300,-164,-98,81,-82,-49,-188,183,135,576,397,22,-169,337,188,332,271,209,57,393,867,540,283,251,554,496,566,348,447,247
205144,24,37,335,-226,-109,104,-56,-125,-199,180,172,497,391,24,-167,365,244,349,276,228,92,409,878,556,300,289,667,389,576,403,518,265
205145,-70,29,321,-222,-99,138,-98,-22,-178,187,187,446,405,45,-146,372,238,396,265,235,102,408,840,538,298,286,683,280,545,366,497,211
205146,4,35,265,-188,-77,195,-154,70,-157,231,231,379,424,46,-150,366,272,438,278,236,67,383,882,521,299,248,618,381,532,311,395,139
205147,103,15,271,-234,-76,113,-173,26,-184,202,215,399,409,13,-164,349,231,371,244,196,40,364,877,495,259,215,548,385,510,301,373,302
205148,-12,23,294,-272,-89,150,-210,38,-219,197,223,400,334,-19,-156,333,237,284,199,188,1,347,813,445,210,182,502,372,506,291,387,362
205149,39,10,361,-326,-73,295,-255,-37,-234,209,189,444,310,-13,-136,352,291,295,184,172,-10,350,826,439,195,182,491,438,512,272,389,320
205150,88,-59,413,-324,-67,342,-225,-302,-229,218,181,565,351,-5,-142,517,313,370,201,165,-3,385,878,466,207,184,500,456,523,285,375,331
205151,82,-67,438,-288,-80,214,-169,-77,-206,202,156,512,382,-1,-181,502,303,384,214,160,-47,416,863,467,221,162,479,455,531,307,366,351
205152,95,-7,441,-290,-76,160,-261,17,-202,189,196,507,375,-33,-180,307,274,373,220,146,-44,387,846,453,198,151,454,390,490,262,356,291
205153,53,41,400,-241,-93,190,-422,34,-199,186,170,532,349,-38,-165,233,260,356,198,151,-39,375,829,458,195,146,469,296,406,178,297,185
205154,-92,53,281,-104,-78,166,-391,85,-157,181,189,468,396,-32,-151,248,233,365,207,146,-41,343,791,441,174,144,500,262,324,121,274,132
205155,-20,60,238,-43,-61,155,-281,120,-148,195,227,407,424,-34,-161,278,220,357,211,146,-18,304,798,433,182,157,503,249,383,158,303,204
205156,88,46,161,-87,-56,190,-235,62,-157,199,242,400,386,-42,-142,292,261,338,209,164,16,311,790,432,200,168,502,177,369,165,319,292
205157,-24,-77,67,-120,-72,250,-252,36,-166,166,213,154,357,-65,-171,307,193,320,182,137,-9,313,761,393,172,166,463,131,319,149,294,323
205158,-182,-159,-8,44,-57,311,-304,78,-142,172,201,-62,368,-67,-198,287,140,323,199,127,-59,347,749,387,161,162,433,119,338,148,303,291
205159,-236,-232,10,32,-43,332,-316,283,-132,182,210,-204,427,-46,-184,256,162,315,201,131,-54,347,678,378,178,152,414,108,307,132,309,291
205160,-276,-38,175,66,-40,139,-252,284,-124,156,160,27,462,-21,-158,275,179,310,220,163,-28,271,666,393,181,163,481,148,314,146,324,346
205161,-151,13,264,-44,-49,131,-164,-18,-172,148,135,365,395,-55,-180,213,139,314,216,157,-52,251,697,376,173,145,476,185,344,154,318,312
205162,0,16,336,-109,-70,109,-104,7,-165,136,117,495,403,-53,-197,183,108,313,194,149,-75,235,683,382,193,134,449,217,351,165,315,240
205163,-34,89,462,-116,-68,106,-116,33,-184,146,162,618,361,-37,-155,255,135,305,192,154,-35,229,724,397,198,157,464,253,373,174,348,259
205164,-84,178,444,-236,-65,117,-128,34,-218,176,183,487,333,-26,-127,306,187,284,210,186,0,259,693,384,216,196,493,213,360,169,355,271
205165,-193,88,226,-134,-75,148,-190,63,-197,168,159,404,337,-23,-153,291,209,242,199,171,-25,275,625,372,209,173,449,129,310,137,327,232
205166,-218,6,156,-15,-76,197,-260,-49,-193,163,155,395,342,-42,-153,286,119,235,176,162,-56,261,609,356,192,147,426,97,287,108,262,192
205167,-118,26,301,-83,-92,212,-314,-61,-196,185,170,326,343,-39,-141,292,32,274,175,165,-30,109,623,351,178,146,472,75,282,92,243,128
205168,-27,-58,321,-196,-89,161,-392,19,-210,177,146,280,348,-44,-163,199,59,266,178,150,-48,159,602,351,169,142,495,108,280,108,242,7
205169,57,-122,369,-170,-61,233,-370,101,-201,201,152,323,367,-10,-160,162,78,261,201,168,-52,215,645,382,192,141,514,164,288,103,211,-118
205170,95,-181,421,-167,-39,370,-387,31,-193,229,190,310,370,1,-125,288,92,270,205,161,-19,229,662,370,181,156,529,176,300,96,179,-63
205171,110,-109,399,-199,-55,366,-685,-222,-226,203,166,265,319,-68,-170,423,61,231,169,124,-42,148,609,326,139,117,469,40,271,85,166,-37
205172,46,-168,373,-199,-75,467,-786,-276,-226,190,56,407,322,-67,-175,521,19,271,160,116,-42,80,717,370,151,105,433,-12,270,67,157,-42
205173,-109,-237,347,-108,-79,413,-608,2,-206,187,128,368,301,-78,-178,206,6,262,154,97,-105,107,733,345,139,55,364,-12,243,13,113,-53
205174,-114,-202,241,-150,-68,381,-357,67,-214,170,88,381,295,-86,-189,-2,-44,226,157,73,-139,143,680,323,118,43,370,-4,221,4,92,-33
205175,-79,-40,161,-121,-59,125,-240,49,-214,170,178,349,291,-82,-179,25,-94,185,152,93,-118,101,625,303,131,59,381,41,229,4,120,40
205176,-82,30,156,-79,-53,117,-127,88,-168,205,219,242,335,-48,-133,171,-142,202,184,137,-85,104,543,315,170,91,394,99,257,43,182,106
205177,-154,31,63,-105,-49,135,-96,79,-188,198,130,221,328,-32,-133,205,-102,222,179,138,-61,96,512,324,185,113,375,115,259,48,193,122
205178,-91,10,0,-119,-68,70,-126,106,-161,173,123,223,338,-43,-146,223,-19,168,186,153,-66,162,547,336,204,132,366,130,267,67,206,75
205179,94,28,88,-154,-78,30,-86,58,-171,183,111,338,312,-9,-145,260,73,180,219,172,-54,173,615,385,231,159,407,206,305,100,259,137
205180,205,50,341,-243,-57,157,-60,6,-188,210,181,103,333,1,-129,262,121,230,234,180,-45,194,654,429,250,171,423,224,328,101,237,137
205181,182,54,334,-229,-83,103,-193,-31,-203,181,172,-66,327,-25,-122,237,80,226,218,176,-66,182,631,407,227,148,379,179,315,85,215,115
