,Fp1,Fp2,F7,F3,Fz,F4,F8,FC5,FC1,FC2,FC6,T7,C3,Cz,C4,T8,TP9,CP5,CP1,CP2,CP6,TP10,P7,P3,Pz,P4,P8,PO9,O1,Oz,O2,PO10
55198,-73,-144,48,80,-8,502,-109,343,-34,-19,189,-346,141,157,149,17,-141,-74,166,92,-212,-242,75,69,124,95,91,-251,-45,-17,1,-285
55199,-117,-151,33,76,-22,481,-101,333,-51,-31,154,-371,107,123,105,-3,-184,-113,115,41,-265,-268,43,15,83,73,78,-322,-125,-80,-35,-317
55200,-87,-171,12,59,-9,452,-140,298,-63,-59,115,-386,88,74,56,-40,-204,-116,94,3,-318,-278,-30,-17,52,32,0,-377,-161,-147,-95,-346
55201,-70,-180,53,76,4,468,-164,315,-56,-52,108,-370,96,90,72,-27,-214,-85,93,-4,-281,-274,22,6,77,42,3,-353,-124,-117,-101,-358
55202,-24,-158,36,82,11,466,-145,317,-54,-60,97,-338,119,90,83,-62,-157,-58,126,32,-265,-267,108,71,100,68,19,-251,-38,-53,-56,-341
55203,1,-145,59,89,17,484,-124,334,-35,-51,108,-290,165,117,102,-76,-84,-4,172,59,-225,-215,170,135,157,102,64,-109,48,-2,-20,-320
55204,6,-136,85,100,1,490,-99,311,-41,-41,148,-287,175,147,141,-40,-31,2,199,83,-192,-152,217,161,184,152,166,-9,148,82,48,-256
55205,9,-131,82,110,-13,489,-91,370,-35,-51,164,-279,208,141,163,12,-42,24,231,90,-142,-99,215,184,191,176,207,-116,131,108,106,-191
55206,7,-150,83,101,-11,467,-137,410,-14,-59,120,-248,248,163,142,14,-40,63,249,91,-155,-102,254,202,185,163,209,-117,102,105,116,-186
55207,14,-155,87,85,-17,457,-130,399,-32,-62,135,-246,225,170,122,40,-26,66,232,84,-171,-129,284,191,201,169,154,-122,84,72,94,-209
55208,9,-154,126,61,-31,460,-160,363,-63,-61,108,-261,211,143,104,33,-46,44,230,75,-151,-94,273,201,219,147,160,-132,85,60,77,-252
55209,14,-137,126,68,-5,498,-120,374,-49,-51,115,-253,211,151,117,35,-21,32,242,79,-155,-30,222,195,193,162,171,-119,97,36,87,-206
55210,-2,-148,81,76,-22,494,-119,394,-36,-63,140,-250,222,149,127,32,-12,30,233,74,-151,-9,228,200,194,182,223,-129,59,25,104,-145
55211,-20,-113,80,113,7,514,-62,429,-18,-42,188,-238,239,164,168,78,17,80,239,80,-99,41,307,245,217,209,282,-101,81,82,131,-112
55212,-26,-101,26,96,10,530,-24,359,-33,-7,220,-257,206,162,177,95,22,61,251,96,-111,68,280,228,208,196,284,-35,116,93,153,-81
55213,-14,-123,41,99,21,541,-38,356,-24,-14,281,-260,198,156,195,100,-5,48,236,96,-112,17,293,217,218,194,283,-18,159,119,145,-137
55214,5,-98,47,110,26,522,-49,326,-22,-23,209,-289,167,157,177,79,22,38,228,86,-121,7,303,224,218,191,277,-19,176,152,168,-150
55215,7,-103,71,93,10,482,-35,341,-9,-38,136,-278,188,151,129,100,18,33,205,65,-142,-2,262,200,172,184,254,-67,134,103,152,-117
55216,-24,-114,43,80,13,481,-67,310,-35,-59,179,-332,149,124,128,20,-35,-28,183,61,-142,7,197,157,152,174,220,-129,80,97,118,-94
55217,-37,-145,33,80,7,479,-114,298,-34,-27,158,-353,130,132,155,-211,-5,-23,170,53,-173,-8,161,139,136,141,183,-134,33,24,39,-179
55218,-24,-165,71,78,-18,486,-137,320,-37,-16,129,-340,132,108,171,-159,-24,-30,152,32,-176,-39,192,116,98,88,157,-127,-9,-8,-31,-298
55219,-2,-163,101,96,-6,466,-106,348,-41,-48,129,-282,120,78,124,-49,-19,-39,124,-11,-173,-87,215,104,75,63,127,-96,37,1,-27,-267
55220,0,-163,121,110,-10,471,-88,359,-41,-37,89,-295,142,95,107,-9,-13,-55,125,-28,-196,-97,219,104,47,73,190,-94,51,16,-6,-236
55221,-6,-131,135,94,0,493,-136,357,-32,-18,97,-289,146,105,144,24,-17,-21,153,-6,-189,-106,229,138,72,108,223,-4,102,61,56,-176
55222,12,-139,129,93,0,499,-127,359,-41,-48,157,-286,150,109,52,64,-36,-24,146,-4,-203,-101,225,123,77,95,208,-21,93,61,57,-183
55223,-8,-168,100,62,-28,485,-139,338,-45,-49,111,-330,131,126,30,72,-79,-51,123,-21,-261,-121,168,79,57,50,130,-158,-10,1,5,-228
55224,-7,-184,125,44,-42,463,-160,269,-40,-61,88,-303,123,122,37,-14,-55,-73,118,-25,-275,-122,141,62,35,31,111,-122,-5,-14,-4,-234
55225,3,-154,116,64,-22,474,-146,208,-42,-41,133,-285,148,126,84,-53,-74,-31,132,7,-175,-44,197,93,58,91,245,-140,18,22,24,-138
55226,-27,-168,64,41,-44,484,-127,305,-64,-50,134,-281,134,104,72,-45,-72,-19,122,-9,-171,-21,162,59,65,89,290,-155,-3,20,42,-156
55227,8,-147,117,19,-25,508,-114,390,-89,-36,148,-277,126,113,78,16,17,-22,127,17,-152,4,186,89,82,129,267,-28,76,76,107,-112
55228,13,-111,121,26,-29,513,-68,350,-78,-30,175,-337,131,157,121,98,15,3,162,41,-129,30,214,119,91,135,258,-72,87,55,101,-101
55229,-43,-125,39,13,-49,514,-86,358,-60,-24,175,-296,141,160,140,126,-14,26,173,53,-95,64,198,114,96,113,252,-159,36,17,50,-106
55230,-31,-102,88,12,-26,532,-53,354,-53,0,208,-229,170,179,170,132,-20,60,199,84,-29,117,210,130,118,192,335,-121,58,92,123,-50
55231,-18,-119,141,33,-21,507,-91,328,-61,4,192,-198,142,186,165,150,-2,13,190,108,-1,99,234,127,123,236,358,-111,82,117,174,6
55232,-61,-167,70,9,-18,478,-106,319,-50,-15,152,-236,136,170,147,140,-20,8,189,96,-13,86,234,157,148,234,372,-56,149,173,217,-9
55233,-79,-199,22,13,-53,463,-127,295,-60,-41,152,-220,146,162,135,149,-56,45,209,84,-90,49,242,175,146,218,333,-23,179,189,195,-64
55234,-44,-148,108,56,-29,477,-85,356,-32,-38,153,-188,192,162,163,170,-5,85,227,104,-42,79,303,218,186,273,354,-23,197,212,238,-8
55235,4,-131,145,72,-3,513,-50,397,-9,-9,201,-186,207,152,203,196,56,109,254,142,11,128,313,249,256,346,432,57,245,270,275,40
55236,1,-144,143,80,-20,505,-64,431,-15,-32,197,-166,223,144,200,189,26,129,283,149,1,102,309,267,252,325,388,79,251,252,243,64
55237,-6,-155,179,136,-20,488,-53,453,-23,-32,191,-165,248,151,228,171,6,150,286,141,11,31,283,290,269,317,394,32,250,256,236,-7
55238,35,-121,204,146,-7,485,-64,472,12,-10,186,-150,258,153,256,175,47,161,311,151,3,32,309,278,260,338,410,3,209,233,239,-33
55239,55,-125,213,150,9,500,-74,495,1,-23,192,-108,268,177,235,168,60,175,320,165,-1,54,351,303,260,337,397,72,231,233,240,-49
55240,97,-58,271,195,33,499,-29,510,22,-27,189,-73,290,192,157,208,104,175,311,164,5,124,294,300,262,341,393,5,180,172,210,-20
55241,146,-15,305,207,43,543,0,517,30,-11,221,-97,281,163,209,227,127,174,277,172,31,183,220,253,253,332,407,-228,1,67,188,37
55242,112,-69,283,179,13,526,-31,497,2,-12,254,-118,252,159,264,184,111,148,272,147,12,169,167,225,222,323,407,-229,-52,75,205,31
55243,119,-63,264,182,29,511,40,497,30,-22,219,-105,285,172,176,243,79,151,312,165,24,157,200,273,248,358,428,-100,89,195,286,80
55244,106,-64,224,157,3,491,-36,462,12,-48,184,-136,282,189,144,199,37,123,307,170,-11,107,225,255,280,348,394,-110,124,211,294,75
55245,44,-94,191,129,-23,490,-62,428,-8,-37,191,-217,263,184,175,111,-22,97,282,132,-46,48,231,229,258,297,340,-182,95,160,201,-56
55246,50,-81,181,106,-34,502,-54,397,-30,-21,211,-234,239,178,204,43,-19,104,284,147,-37,55,157,230,245,299,320,-157,102,136,174,-105
55247,67,-75,181,78,-34,536,-36,376,-32,10,217,-232,231,193,274,-69,-7,67,286,172,-13,40,155,240,263,330,374,-71,179,172,206,-96
55248,33,-103,145,91,-18,540,-30,416,-10,15,240,-241,288,194,270,-12,-53,123,310,186,-8,31,251,276,292,349,387,5,249,245,257,-45
55249,24,-110,146,99,-25,541,-26,424,-6,25,268,-184,313,187,196,96,-39,192,335,178,-10,45,297,308,295,317,323,-40,196,214,249,-47
55250,-1,-132,150,82,-23,549,-31,374,-21,22,265,-202,301,178,258,195,-44,139,320,177,18,19,233,272,274,307,306,-111,126,127,154,-137
55251,-27,-123,121,83,-14,566,-11,390,-33,3,263,-256,268,143,240,177,-28,89,284,155,-14,11,168,215,216,273,277,-183,34,8,38,-176
55252,-6,-98,136,106,5,603,-2,412,-19,24,286,-245,292,151,267,181,17,99,284,150,-27,19,177,213,223,249,251,-206,1,21,65,-164
55253,40,-74,205,151,12,644,37,441,2,65,313,-196,305,172,295,215,38,143,297,173,12,80,190,224,255,293,325,-164,27,81,138,-79
55254,18,-98,142,131,-1,639,57,422,14,42,315,-229,276,181,299,190,18,116,301,173,1,75,222,222,303,303,357,-127,67,108,152,-68
55255,8,-101,128,121,10,620,33,438,7,56,312,-210,273,161,294,221,28,98,288,152,-24,21,232,215,258,257,275,-140,65,89,105,-111
55256,18,-80,157,149,17,615,40,484,6,81,293,-160,298,175,255,234,8,138,297,156,-53,11,283,229,258,266,301,-90,93,89,87,-129
55257,69,-55,218,144,24,592,22,473,22,72,292,-146,270,176,249,210,47,153,287,150,-62,60,319,227,249,272,338,-53,102,120,116,-118
55258,92,-48,278,176,43,597,6,514,28,45,284,-72,291,152,229,294,109,171,263,120,-74,135,357,219,241,251,362,-50,103,114,147,-71
55259,120,-48,281,199,43,586,48,534,29,35,290,-99,291,143,241,219,114,162,250,116,-45,128,324,206,214,242,361,0,136,137,185,-49
55260,134,-31,287,206,33,592,72,515,39,38,294,-94,306,133,247,180,116,182,265,142,-13,109,354,237,247,263,357,97,226,214,198,35
55261,125,-39,299,206,45,575,45,468,33,24,283,-59,292,115,216,205,118,171,264,126,-25,99,416,253,258,284,385,134,281,256,225,35
55262,118,-50,312,209,41,560,18,428,25,17,246,-55,287,133,205,211,109,169,259,126,-25,84,427,255,260,271,403,132,274,247,218,-17
55263,117,-55,269,215,43,565,30,511,42,25,241,-99,281,142,201,221,138,154,248,139,-16,102,420,248,266,276,406,89,215,190,187,-21
55264,142,13,319,185,60,575,75,597,11,38,290,-77,264,147,215,251,172,179,237,149,-15,156,425,257,254,274,370,100,205,155,161,21
55265,129,3,312,148,65,599,100,533,-6,37,267,-79,223,132,248,243,117,176,216,137,4,154,476,244,241,245,372,101,197,134,113,3
55266,131,-36,294,170,44,600,101,532,-4,20,261,-111,237,128,248,234,133,149,215,122,2,160,461,241,225,221,368,72,184,113,116,-46
55267,116,-54,292,172,29,601,34,527,3,24,266,-152,223,129,252,143,166,162,228,111,-38,87,455,238,203,187,314,121,217,145,68,-170
55268,166,-45,298,169,23,610,56,531,-18,30,270,-117,229,132,233,137,180,176,229,110,-45,46,494,243,203,197,306,172,275,184,76,-158
55269,189,8,354,187,44,628,88,490,-12,24,293,-81,214,121,171,186,178,157,224,85,-30,87,454,226,196,189,324,134,206,132,79,-112
55270,155,10,279,160,27,644,105,436,-38,62,326,-74,189,124,180,126,158,140,196,66,-81,16,354,165,147,136,286,-11,54,16,38,-152
55271,141,0,234,144,26,651,105,443,-40,42,316,-80,182,121,187,135,187,79,166,46,-100,18,350,148,136,129,306,-51,-4,28,50,-67
55272,117,15,236,164,38,623,84,475,-35,49,266,-155,190,127,190,172,159,92,191,65,-52,47,414,164,159,161,375,-34,51,65,107,-7
55273,119,-7,234,171,30,621,75,491,-32,49,294,-172,206,124,212,209,145,87,176,77,-52,33,337,173,160,165,351,-44,102,101,113,-70
55274,138,-13,264,190,33,619,59,513,-33,28,275,-169,177,122,199,171,166,62,153,63,-106,32,286,143,128,126,236,-3,88,95,63,-33
55275,143,-25,288,209,36,634,52,486,-19,50,322,-157,188,109,212,124,143,95,152,45,-131,35,349,127,113,112,297,45,99,52,31,-95
55276,125,-30,305,207,9,604,4,502,-8,32,218,-135,191,99,189,-49,127,123,133,25,-177,49,353,124,95,103,281,15,76,69,62,-61
55277,132,-42,274,194,13,556,-13,502,-1,17,137,-112,211,125,207,85,161,128,170,56,-115,84,386,150,138,119,309,66,117,104,102,-9
55278,104,-65,269,194,9,533,-79,493,-7,7,175,-111,217,117,235,147,166,135,194,63,-58,40,412,166,155,168,356,96,189,165,139,-1
55279,109,-37,302,222,23,523,-19,506,10,15,243,-126,241,129,191,204,160,132,216,71,-43,100,334,155,160,190,356,110,176,192,188,93
55280,113,-49,291,192,11,521,-25,511,11,-1,212,-118,238,133,149,174,92,129,203,37,-103,120,327,171,133,155,336,101,172,160,127,19
55281,119,-22,312,182,25,546,14,480,16,19,234,-108,228,121,146,183,93,126,174,25,-104,113,359,156,104,137,368,-11,86,90,70,-12
55282,119,-11,304,174,37,529,10,459,16,0,196,-116,216,112,150,160,87,123,168,30,-98,103,354,128,82,122,315,-12,9,15,38,-36
55283,113,-44,287,171,16,535,-13,453,8,3,183,-129,232,119,154,116,64,131,170,28,-116,80,348,139,79,124,286,7,20,-11,14,-115
55284,92,-67,243,168,9,547,-10,450,-13,6,193,-152,224,113,183,100,34,116,164,25,-103,74,295,133,83,120,287,39,55,9,9,-124
55285,83,-66,224,168,22,565,-13,465,0,13,214,-156,221,113,224,145,16,115,192,41,-77,61,284,136,87,133,313,33,79,35,-9,-177
55286,86,-58,243,180,18,559,-9,468,-17,20,219,-171,231,97,218,154,-4,107,162,45,-78,48,241,123,73,137,320,-112,-4,-35,-41,-240
55287,87,-24,243,158,10,584,5,447,-41,9,237,-175,185,93,183,145,-52,78,136,19,-108,60,200,95,35,125,229,-179,-71,-115,-90,-196
55288,92,-23,243,155,20,609,15,437,-24,24,240,-171,180,83,168,150,-48,65,127,25,-91,74,199,71,26,120,230,-191,-105,-122,-101,-194
55289,99,7,249,170,38,639,45,456,-9,42,266,-169,194,63,206,142,-38,74,128,28,-59,38,229,102,57,131,273,-197,-53,-80,-53,-184
55290,137,11,248,176,64,629,22,471,-12,31,253,-157,192,69,217,107,3,70,112,18,-66,53,221,107,57,152,257,-176,-52,-62,-24,-132
55291,124,6,242,192,72,628,39,510,-12,45,244,-125,190,68,199,113,36,64,115,22,-93,41,172,82,74,149,260,-168,-50,-19,-3,-116
55292,122,4,268,190,71,625,56,509,7,37,212,-142,200,56,191,112,16,64,108,3,-112,0,185,82,92,137,240,-143,-28,-11,3,-160
55293,109,9,242,171,66,630,35,446,-14,45,200,-155,192,64,214,116,32,61,109,15,-94,-3,207,104,107,159,285,-106,30,28,34,-192
55294,120,12,215,171,69,615,10,463,-6,47,267,-144,198,60,245,156,40,73,128,47,-53,12,248,152,167,212,311,-41,117,118,89,-195
55295,183,38,280,224,88,597,0,486,19,19,248,-102,252,75,131,200,92,122,174,41,-65,79,292,184,205,208,292,-11,149,153,114,-98
55296,182,39,303,236,71,577,36,421,30,-17,230,-121,250,67,123,181,119,110,159,27,-81,99,272,152,205,202,304,-115,74,99,106,-91
55297,189,42,318,262,75,603,80,482,52,20,271,-102,280,71,208,211,109,144,191,56,-39,121,253,178,222,256,360,-63,90,152,158,-60
55298,196,50,353,265,67,612,104,607,39,25,303,-85,281,106,235,201,109,181,221,111,48,119,347,242,273,305,441,23,176,226,227,-3
55299,217,63,334,236,48,619,76,564,19,11,267,-64,270,116,230,212,177,200,254,127,44,146,427,289,317,315,490,54,248,283,287,16
55300,200,68,287,239,50,635,78,529,33,10,294,-51,283,130,252,244,195,189,254,139,36,148,404,297,356,344,432,126,279,313,318,66
55301,196,78,298,221,91,649,97,536,37,22,304,-86,286,161,264,293,175,201,253,141,38,157,442,329,361,361,458,132,321,342,315,65
55302,204,43,288,221,70,615,74,501,28,24,289,-60,260,145,240,272,168,185,250,142,37,172,436,319,343,352,456,129,326,338,318,74
55303,185,41,278,225,71,634,119,483,24,20,318,-124,241,153,273,249,160,127,252,150,44,184,391,299,344,370,455,195,335,360,340,93
55304,177,20,248,207,70,615,113,470,11,22,311,-178,226,143,273,200,153,122,233,137,53,132,343,280,319,356,443,201,328,369,295,26
55305,153,11,248,191,62,613,45,461,6,28,320,-147,206,131,280,105,143,130,218,141,78,188,355,261,322,362,473,130,312,365,310,32
55306,141,22,211,188,46,617,66,467,-18,32,331,-163,217,115,289,178,103,153,213,126,67,236,358,250,305,330,487,116,264,317,298,79
55307,180,71,245,215,72,637,101,494,3,49,325,-148,241,124,283,299,103,166,194,141,67,229,348,224,287,311,513,37,139,211,240,63
55308,237,103,289,218,96,679,86,448,1,80,374,-152,222,153,291,278,105,171,178,120,38,246,343,208,248,289,429,10,89,178,242,85
55309,199,76,259,184,80,647,63,453,-9,47,265,-123,199,130,279,279,62,130,181,90,9,207,305,197,223,260,416,58,145,227,268,111
55310,195,69,259,192,58,633,79,435,-33,42,250,-176,166,108,277,278,67,58,168,74,0,200,289,161,206,248,458,40,137,196,238,81
55311,216,59,273,209,76,637,50,455,-9,46,290,-182,184,106,251,195,101,61,169,64,-32,157,369,174,195,216,424,38,131,165,183,-7
55312,197,75,243,185,76,629,80,436,-10,36,339,-197,147,101,185,211,129,46,153,50,-45,191,263,139,171,172,370,103,162,172,158,-22
55313,172,68,213,160,64,619,98,410,-24,19,336,-204,156,91,207,232,101,64,150,15,-79,194,271,146,167,171,340,77,156,135,121,-46
55314,193,75,288,188,78,648,116,430,-11,27,330,-162,176,101,222,235,83,84,165,25,-29,221,331,165,155,172,388,75,163,144,143,29
55315,193,79,300,185,78,656,112,454,-17,30,320,-146,173,112,219,271,89,90,152,17,-20,225,297,144,109,156,446,35,81,88,125,32
55316,190,44,271,166,55,627,95,453,-14,20,284,-145,157,91,190,303,119,71,132,-13,-55,180,292,112,76,119,353,3,-7,-5,40,-107
55317,213,68,320,177,75,657,120,509,-7,42,264,-118,192,109,202,240,125,97,138,3,-94,160,305,138,68,98,313,5,34,18,38,-79
55318,207,73,283,193,63,681,96,474,0,56,315,-157,193,144,256,228,108,111,173,28,-71,163,245,143,100,127,337,2,24,21,42,-45
55319,179,43,237,172,57,662,97,447,-3,23,338,-165,177,105,155,285,93,69,171,25,-53,175,261,113,137,122,369,-14,-10,15,47,-57
55320,190,56,237,179,70,679,118,449,-8,31,350,-179,192,112,167,285,91,57,143,16,-23,140,247,100,121,112,343,-60,-37,-6,35,-64
55321,188,71,236,178,80,698,141,446,-19,20,350,-233,140,76,202,253,61,-31,93,-12,-47,155,187,30,66,83,311,-110,-112,-60,7,-49
55322,199,110,274,202,111,738,200,434,7,65,415,-220,151,91,252,236,94,23,116,29,-4,237,263,72,92,142,426,-78,-44,4,85,15
55323,183,86,187,186,100,749,224,387,-4,67,419,-240,148,78,263,208,48,27,113,30,-15,210,250,71,82,144,381,-70,-2,9,112,28
55324,166,104,153,186,108,771,237,422,3,82,407,-240,160,76,274,295,-4,32,124,43,-31,178,183,81,94,154,365,28,42,72,132,45
55325,188,100,163,182,104,742,208,441,4,77,390,-212,196,105,272,362,30,75,152,51,-18,219,252,112,116,175,397,-1,70,76,129,31
55326,209,130,179,192,88,749,235,430,1,68,384,-209,194,101,275,358,29,57,137,45,-4,263,165,88,96,178,410,-132,-28,0,66,28
55327,263,164,268,213,116,772,293,463,9,94,365,-145,219,110,324,338,81,81,153,55,1,257,201,103,110,172,409,-136,-87,-37,35,7
55328,293,167,310,246,108,739,238,473,8,88,385,-125,211,109,293,328,94,99,159,54,-1,240,256,133,122,176,408,-75,-26,10,85,-4
55329,263,170,287,217,107,725,247,465,13,78,428,-169,209,86,240,280,106,71,149,42,5,251,222,110,129,175,432,-70,1,77,132,33
55330,253,160,296,227,101,730,224,529,22,74,387,-113,260,89,262,276,159,126,170,56,19,225,259,156,150,200,468,-9,55,125,162,71
55331,253,170,276,231,94,755,267,506,16,65,408,-117,271,99,301,287,110,148,186,66,66,140,339,205,166,222,466,-33,81,105,136,-20
55332,248,192,266,247,129,753,290,401,29,85,450,-142,254,112,327,200,100,151,202,87,113,188,331,221,204,247,472,-12,127,127,168,15
55333,285,199,308,275,112,741,271,443,43,61,400,-122,284,111,288,263,140,182,221,104,63,298,349,254,266,279,517,85,209,182,232,119
55334,314,223,334,277,136,759,288,608,37,68,428,-56,316,110,275,328,192,206,262,110,40,304,418,272,274,275,523,48,183,160,201,56
55335,329,235,397,275,155,771,282,667,40,79,486,0,336,134,316,373,257,265,301,143,112,302,451,349,313,304,558,120,263,214,257,63
55336,348,210,424,317,147,764,264,660,61,84,492,21,380,142,356,429,272,305,334,163,119,318,492,386,339,323,519,161,307,266,296,173
55337,378,237,457,304,146,774,296,653,78,92,405,26,409,133,366,428,268,313,362,165,133,369,503,407,373,340,560,123,326,281,308,181
55338,352,239,390,298,133,783,277,656,71,114,395,47,403,115,387,448,303,323,363,187,151,352,525,426,402,365,563,190,351,312,330,169
55339,346,262,396,301,158,763,271,658,80,107,437,67,435,111,383,439,308,343,364,203,154,343,566,452,425,400,571,236,405,365,358,206
55340,331,241,395,282,154,756,270,637,64,89,455,38,418,105,361,417,250,339,351,196,139,325,528,424,407,376,573,177,381,344,347,159
55341,317,212,383,290,152,763,272,587,51,75,470,2,399,111,329,461,242,314,344,172,142,331,497,409,401,386,594,210,404,366,375,166
55342,341,226,386,279,152,745,267,601,54,67,469,14,409,107,318,442,235,283,342,153,134,314,470,393,394,386,560,173,382,346,329,122
55343,320,215,366,281,134,745,256,606,60,80,458,0,400,108,350,417,175,312,339,162,107,255,465,371,382,361,522,133,312,272,278,85
55344,330,223,407,308,148,788,276,620,81,104,486,22,424,130,349,459,212,313,328,177,91,284,517,402,378,376,514,89,303,307,312,134
55345,361,242,442,340,157,785,291,669,84,98,465,78,412,123,342,448,258,278,321,171,108,316,523,387,365,369,532,151,332,354,328,162
55346,373,224,442,334,157,787,276,643,70,96,496,27,397,88,384,441,255,240,296,162,137,313,502,352,360,388,586,222,361,372,383,192
55347,361,221,443,338,130,777,314,639,40,91,520,26,367,78,371,423,256,261,272,148,111,308,501,334,338,381,517,191,337,350,367,165
