,Fp1,Fp2,F7,F3,Fz,F4,F8,FC5,FC1,FC2,FC6,T7,C3,Cz,C4,T8,TP9,CP5,CP1,CP2,CP6,TP10,P7,P3,Pz,P4,P8,PO9,O1,Oz,O2,PO10
45980,127,263,188,-59,-3,227,145,554,929,-7,203,142,410,-146,233,268,76,-30,27,152,-106,332,508,226,210,142,198,-86,250,128,37,137
45981,111,252,138,-44,-16,267,127,404,905,-15,171,164,374,-179,226,145,56,-94,10,137,-108,304,371,172,166,133,182,-57,218,94,-19,99
45982,55,335,130,-5,-14,361,125,332,904,-26,143,155,342,-186,209,53,-23,-163,-20,99,-121,379,207,129,128,95,141,-53,210,79,-76,-54
45983,119,432,143,-26,-21,277,154,318,909,-29,133,97,320,-186,212,58,-52,-198,-18,110,-114,344,151,140,158,87,139,-116,253,132,-4,88
45984,144,397,152,-9,-27,279,139,330,894,-31,161,-3,310,-175,231,127,-47,-222,-12,124,-96,284,125,112,145,82,177,-158,224,69,-41,194
45985,155,332,193,-18,-31,422,112,314,872,-35,173,-80,283,-189,241,235,-86,-303,-73,83,-122,282,2,16,70,19,100,-84,72,-108,-249,-30
45986,178,423,242,-19,14,423,163,294,915,-3,204,-111,295,-165,255,327,-108,-303,-53,104,-132,283,-12,39,91,32,72,-85,98,-102,-275,-264
45987,169,429,225,-57,-1,390,171,278,904,5,221,-101,277,-157,276,319,-141,-325,-37,146,-126,311,7,32,99,50,97,-81,97,-96,-265,-363
45988,230,345,196,-80,-36,383,134,275,891,-4,158,-75,286,-159,260,304,-186,-345,-60,138,-111,286,39,24,110,36,94,-250,49,-140,-301,-297
45989,179,286,119,-31,-57,417,83,291,894,-15,171,-135,272,-154,269,228,-206,-396,-87,122,-98,241,105,-25,97,38,126,-352,0,-143,-273,-292
45990,107,269,104,-20,-48,406,60,309,901,-14,202,-165,277,-141,277,229,-244,-422,-96,132,-73,223,118,-75,81,80,149,-305,-25,-157,-243,-382
45991,-3,257,54,-140,-63,335,114,224,865,-10,175,-110,223,-159,259,177,-243,-457,-102,131,-87,193,-4,-115,78,62,62,-319,-65,-178,-289,-237
45992,-60,119,53,-33,-61,265,162,180,888,-19,161,-286,192,-178,276,-33,-311,-554,-126,118,-76,190,-297,-169,51,30,53,-313,-85,-178,-282,-97
45993,100,112,78,14,-59,327,129,174,904,-10,205,-432,200,-153,271,-180,-357,-584,-136,148,-99,289,-373,-169,73,48,74,-290,-72,-144,-226,-98
45994,133,239,-21,-4,-73,244,116,163,884,-45,152,-386,216,-174,243,-172,-391,-563,-96,153,-122,288,-286,-143,103,90,93,-386,-46,-152,-202,-96
45995,79,386,-110,-27,-85,58,108,175,889,-62,110,-312,220,-164,229,41,-394,-541,-81,167,-100,277,-214,-83,111,138,206,-453,-2,-105,-130,-40
45996,-18,220,-177,-52,-85,238,14,172,897,-46,162,-340,219,-129,275,312,-397,-550,-43,212,-17,270,-201,-65,162,216,290,-309,23,-34,-21,82
45997,-19,150,-179,-60,-78,288,-68,134,895,-24,203,-378,218,-123,295,464,-404,-525,-31,229,6,211,-146,-39,186,218,268,-363,52,6,15,145
45998,23,248,-134,-104,-80,273,-39,138,898,-22,175,-406,238,-128,231,197,-359,-467,-31,190,-86,120,-145,-35,191,183,144,-304,39,-13,-34,-32
45999,-15,297,-82,-111,-79,200,0,150,900,-43,99,-413,241,-133,213,79,-359,-421,-37,200,-70,145,-93,-29,192,199,166,-280,20,-74,-102,-277
46000,-111,268,-71,-137,-62,249,-12,160,914,-19,107,-363,260,-122,224,-111,-303,-351,-37,213,-33,199,117,14,211,221,175,-217,79,-45,-85,-270
46001,-228,222,-184,-131,-74,316,-45,109,900,-25,28,-338,252,-147,210,-591,-348,-390,-18,203,-59,172,6,36,223,210,114,-120,163,46,-34,2
46002,-263,187,-260,-60,-62,187,-28,126,900,-44,-11,-311,289,-107,207,-184,-325,-399,14,246,1,257,0,127,302,284,235,-122,225,142,91,153
46003,-156,155,-267,-93,-62,218,13,146,914,-43,58,-259,335,-94,205,247,-244,-302,57,257,-58,283,233,203,341,302,292,-236,254,151,107,91
46004,-19,221,-212,-126,-46,187,27,154,915,-39,107,-250,377,-103,202,214,-200,-252,69,250,-111,312,229,215,364,332,287,-63,290,198,157,151
46005,4,133,-169,-128,-69,172,-83,189,904,-53,83,-252,357,-111,222,235,-180,-206,59,272,-10,297,213,236,367,355,357,-8,312,222,176,160
46006,38,99,-117,-131,-52,316,-99,210,917,-16,145,-224,368,-90,287,197,-162,-160,125,316,75,283,298,294,414,409,457,-5,368,245,242,173
46007,-6,172,-140,-171,-67,307,-94,171,886,-48,108,-161,353,-108,252,264,-271,-143,111,322,42,296,336,325,423,429,437,-83,355,228,260,276
46008,-97,193,-147,-156,-75,288,-57,114,882,-28,88,-109,335,-113,238,202,-262,-138,116,327,23,310,343,349,434,451,435,-94,365,291,342,441
46009,-56,229,-118,-144,-43,288,37,114,904,-4,126,-110,347,-84,297,298,-139,-107,169,357,83,311,424,412,480,479,469,-161,444,332,383,438
46010,16,238,-32,-140,-48,251,74,97,911,-1,153,-148,348,-91,322,351,-48,-125,158,363,132,369,395,408,480,480,489,-53,414,343,339,370
46011,47,175,15,-114,-37,201,59,148,898,-15,158,-146,337,-104,345,348,-29,-150,115,368,119,433,263,362,449,465,491,61,413,329,311,309
46012,22,142,49,-89,-22,132,78,204,908,1,175,-72,380,-82,360,325,-5,-111,141,392,158,441,229,401,489,518,558,179,504,399,414,405
46013,-9,189,71,-64,-16,227,105,222,923,-7,201,-35,381,-96,346,231,-20,-62,130,373,145,407,317,408,466,466,551,194,484,328,225,17
46014,8,179,59,-58,-23,325,-3,219,917,2,190,-31,351,-112,332,240,-53,-72,106,368,143,423,313,386,437,457,598,184,470,309,235,189
46015,76,198,2,-25,-58,411,-79,250,910,-5,177,-38,363,-105,346,196,-2,-63,94,338,132,379,309,374,423,435,481,70,415,269,220,253
46016,148,260,10,36,-46,447,-55,327,938,13,253,-82,373,-105,376,80,32,-47,112,313,136,333,327,378,396,418,432,-79,322,195,170,294
46017,116,233,94,78,-39,377,42,408,964,11,291,-18,406,-96,364,180,31,-20,108,318,108,332,372,353,385,365,350,-40,256,158,82,69
46018,153,224,172,83,-36,326,99,395,951,-12,224,83,421,-114,330,303,5,-15,98,283,51,379,420,343,350,320,283,-46,242,132,50,-157
46019,212,331,268,141,-11,303,147,478,972,-8,187,159,432,-125,316,313,23,-34,111,295,32,467,323,321,359,315,329,-132,256,163,57,-17
46020,196,359,279,94,-29,261,103,543,974,-44,173,201,457,-129,311,247,112,-23,106,294,31,486,321,342,367,332,342,-58,314,202,129,89
46021,233,272,269,100,-27,242,119,543,977,-60,164,206,481,-156,243,71,170,37,143,256,-25,487,447,381,349,310,330,-3,364,253,163,82
46022,217,295,297,34,-30,106,148,520,971,-77,96,204,492,-152,214,56,158,46,122,249,-78,537,412,389,349,274,307,56,393,282,184,44
46023,185,393,301,115,-14,91,181,487,995,-69,127,281,521,-142,237,102,203,64,137,265,-54,476,475,402,359,275,292,-7,408,261,167,148
46024,173,390,257,115,-10,232,138,432,987,-66,225,283,484,-156,246,193,167,16,101,237,-5,438,407,349,301,243,290,-35,292,144,78,176
46025,177,382,272,34,-29,136,129,451,952,-66,229,273,479,-139,270,367,177,28,109,235,54,385,486,357,317,250,350,-31,316,194,116,221
46026,75,324,219,41,-49,236,172,475,967,-59,210,268,487,-139,256,341,192,83,119,227,34,413,594,373,301,255,343,-71,325,212,133,260
46027,45,305,210,63,-41,269,198,453,971,-74,135,234,489,-131,191,-107,196,98,102,213,-80,392,584,350,282,222,314,-92,331,175,97,83
46028,41,267,208,23,-31,316,107,457,963,-62,95,104,465,-152,166,-165,120,-37,69,188,-60,297,331,267,234,176,241,48,254,96,-21,-87
46029,85,348,214,5,-24,234,11,442,974,-57,168,156,459,-136,195,442,101,-67,73,178,-67,363,284,249,225,136,196,-40,234,84,-51,123
46030,94,413,248,-11,-30,89,70,386,952,-73,200,176,445,-131,173,550,147,-98,64,146,-177,417,292,262,245,137,223,-65,239,106,13,223
46031,-93,339,184,-103,-35,264,64,317,919,-76,166,81,395,-152,173,359,108,-188,31,142,-164,368,134,166,202,126,210,80,200,113,39,200
46032,-105,272,194,-53,-31,291,100,348,923,-65,157,78,364,-134,190,270,99,-203,38,164,-139,344,118,123,182,121,195,77,197,67,-38,12
46033,-154,122,169,-71,-50,266,109,343,900,-72,97,64,363,-152,188,264,121,-228,10,142,-115,348,136,110,176,93,179,6,148,13,-101,-122
46034,-85,48,138,-91,-52,271,133,320,883,-55,92,27,352,-168,210,151,108,-207,20,177,-82,355,121,95,170,131,202,15,165,57,-12,186
46035,107,140,97,-118,-48,264,158,366,895,-62,124,54,323,-137,215,7,42,-216,-3,190,-108,409,103,101,176,137,226,-23,168,112,52,404
46036,198,231,32,-128,-44,277,123,426,889,-59,135,57,307,-142,235,-89,14,-273,-33,185,-106,276,115,74,171,121,224,-151,139,59,-48,144
46037,122,307,34,-113,-42,295,106,382,892,-36,149,52,297,-143,252,109,37,-306,-28,190,-68,245,156,52,171,143,194,-158,128,24,-75,-62
46038,86,336,102,-103,-49,226,151,263,878,-33,192,-40,244,-157,266,285,21,-374,-60,198,-69,302,128,-18,155,122,152,3,49,-36,-132,-25
46039,40,355,148,-92,-49,228,149,205,854,-32,200,-131,249,-155,256,202,-19,-359,-79,190,-79,339,148,-10,155,142,171,-93,67,-50,-116,158
46040,49,325,139,-118,-36,467,98,151,863,-3,221,-116,233,-154,244,53,-22,-359,-57,193,-72,280,163,8,161,146,168,-96,81,-28,-149,-18
46041,68,357,82,-122,-55,500,53,145,845,-15,174,-138,208,-173,247,-61,-68,-410,-70,178,-75,353,16,-43,129,109,122,-112,52,-76,-193,-150
46042,94,355,45,-124,-39,376,76,146,860,-11,195,-168,222,-161,268,-71,-60,-407,-71,212,-71,382,-24,-34,154,130,110,-90,70,-111,-213,-186
46043,86,356,49,-131,-47,340,46,165,875,-30,166,-157,232,-150,246,73,-59,-372,-69,213,-108,311,23,7,182,149,78,-171,74,-77,-211,-399
46044,119,281,42,-134,-60,293,0,193,878,-55,136,-135,212,-163,215,152,-55,-393,-67,216,-108,301,123,10,200,166,137,-133,86,-25,-120,-247
46045,45,252,7,-84,-64,229,35,224,892,-58,134,-149,228,-139,244,200,-75,-414,-60,232,-74,275,144,9,219,219,180,-70,111,30,-72,-183
46046,-20,312,-31,-67,-67,283,99,251,911,-23,172,-105,263,-112,283,218,-81,-365,-31,283,0,233,146,78,270,281,239,-81,171,100,2,-201
46047,-68,340,-70,-67,-74,272,138,232,894,-15,187,-113,278,-98,308,117,-93,-345,0,314,32,261,119,125,298,330,257,-47,216,146,83,-101
46048,-106,263,-71,-9,-83,201,36,211,890,-30,139,-161,291,-96,306,203,-111,-356,22,316,43,336,90,131,323,350,280,-31,258,182,113,-12
46049,-72,241,-8,-50,-97,122,45,197,904,-40,134,-189,304,-107,305,180,-66,-309,57,332,69,373,123,185,371,378,319,90,345,226,135,60
46050,45,280,72,-87,-82,223,99,230,912,-16,143,-170,314,-89,299,-104,-31,-248,50,354,31,380,300,238,412,403,332,30,338,235,140,87
46051,-38,187,-16,-92,-93,254,-4,219,900,-33,99,-156,316,-108,304,-247,-15,-179,74,356,88,304,481,268,406,428,386,-124,320,226,160,75
46052,-272,135,-217,-117,-109,241,-77,173,897,-29,112,-107,311,-92,326,245,-46,-147,109,372,158,327,477,291,433,472,426,-116,324,245,206,88
46053,-375,201,-349,-56,-91,145,-64,236,925,-38,155,-19,350,-57,304,613,6,-74,155,390,65,340,626,405,483,482,457,-338,378,272,226,108
46054,-323,180,-342,-127,-103,217,-80,173,891,-43,151,-109,314,-89,300,490,-38,-213,99,382,46,368,251,350,463,475,486,-201,356,275,236,117
46055,-223,163,-219,-166,-106,208,-27,108,862,-66,53,-189,263,-101,299,415,-10,-297,70,389,110,392,-3,285,457,502,529,193,350,322,299,186
46056,-11,239,-64,-177,-73,174,50,132,892,-36,123,-105,307,-78,324,359,56,-196,140,404,113,406,174,342,496,518,473,77,397,334,294,186
46057,119,195,-58,-169,-86,197,68,126,898,-34,123,-59,334,-76,308,363,40,-142,137,402,134,422,265,386,517,527,514,6,440,388,374,344
46058,72,67,-63,-181,-91,189,76,154,883,-40,118,-34,328,-98,306,336,65,-112,159,395,122,420,340,454,526,545,493,-44,499,435,425,436
46059,35,44,-57,-203,-75,213,122,179,899,-29,158,22,354,-96,331,264,128,-63,188,419,162,444,415,473,555,567,568,73,530,454,449,318
46060,15,89,-33,-172,-68,213,135,197,918,-24,190,31,369,-87,318,180,183,-31,191,401,164,459,444,477,541,549,595,135,536,430,366,-11
46061,-28,28,-61,-163,-66,268,95,203,880,-42,146,-27,351,-133,265,85,173,-29,142,333,51,454,405,450,460,456,408,74,494,385,301,112
46062,-83,107,-71,-129,-73,352,20,183,881,-49,99,-38,365,-149,241,108,160,0,126,286,-17,495,406,471,428,398,379,52,509,363,278,377
46063,11,291,-2,-121,-39,325,56,242,910,-17,125,84,395,-131,241,193,196,54,156,286,-3,584,516,504,456,432,471,69,527,353,269,299
46064,77,359,53,-149,-50,247,78,246,895,-39,140,202,370,-141,269,177,245,46,135,303,77,489,535,466,461,457,537,214,560,426,379,448
46065,33,324,15,-148,-64,395,95,288,887,-15,218,187,381,-144,299,81,271,51,156,316,125,458,541,497,458,476,577,254,602,474,409,451
46066,54,320,-33,-93,-58,469,156,359,906,5,262,142,424,-116,322,174,228,67,155,339,159,503,629,523,475,507,647,103,593,462,432,505
46067,50,389,24,-67,-33,303,165,360,915,1,257,156,424,-97,321,308,201,39,146,312,142,522,599,485,444,439,568,33,524,366,288,254
46068,28,372,79,-59,-43,248,110,388,928,-25,222,231,439,-109,305,209,176,74,165,279,69,517,674,472,402,377,411,-80,455,261,148,80
46069,56,314,141,-119,-70,329,135,405,922,-30,226,271,437,-121,309,268,142,107,145,293,85,536,651,439,403,398,457,60,471,289,193,276
46070,90,336,195,-110,-53,319,190,368,925,-22,270,191,416,-118,320,380,188,33,104,283,121,570,409,405,401,428,512,172,476,329,260,329
46071,56,315,157,-100,-56,260,188,356,909,-54,242,194,384,-119,290,357,243,-40,90,276,83,557,279,384,380,380,495,163,467,345,265,289
46072,64,286,26,-69,-64,254,164,362,909,-52,218,226,379,-107,289,331,227,-70,85,277,72,542,268,346,368,355,482,97,415,303,241,318
46073,30,192,-50,-82,-70,236,53,393,935,-14,237,225,402,-94,306,394,224,-66,111,275,97,549,304,365,377,382,533,81,439,324,305,461
46074,-187,98,-52,-91,-97,284,-47,392,906,-34,217,152,376,-113,303,421,146,-89,75,242,67,466,275,320,340,341,442,-40,352,232,196,302
46075,-292,71,3,-113,-117,239,-112,423,910,-20,177,125,360,-120,292,232,98,-88,75,238,68,416,286,278,332,332,416,-81,315,200,148,175
46076,-175,137,83,-23,-85,238,-58,458,934,-24,156,141,394,-103,265,-45,94,-83,69,226,-30,342,321,278,307,283,322,-38,320,190,133,11
46077,-1,175,133,40,-70,216,-15,414,925,-57,167,109,347,-143,257,-196,55,-154,30,209,-4,370,199,208,240,238,342,-91,244,151,80,-1
46078,120,222,199,-44,-38,206,40,445,930,-24,240,140,329,-148,279,102,54,-181,4,213,91,416,143,179,230,275,413,-105,216,140,80,101
46079,129,331,224,2,-24,283,115,470,946,-31,276,172,316,-144,253,590,47,-218,-14,169,-19,402,115,136,213,220,360,-100,200,136,79,135
46080,127,273,187,26,-13,309,220,426,932,-61,218,134,287,-174,210,510,8,-260,-51,159,-162,377,61,80,173,157,281,-155,155,87,24,163
46081,-12,127,176,-7,-45,282,193,363,920,-61,138,61,263,-194,201,335,-41,-286,-77,126,-114,313,20,52,140,168,287,-195,121,46,25,147
46082,-39,177,251,-15,-35,248,163,349,921,-78,99,12,245,-188,177,274,-103,-331,-107,115,-96,279,17,42,119,150,289,-184,122,71,59,195
46083,-61,209,304,17,8,238,126,384,952,-82,98,12,262,-175,185,266,-126,-344,-99,136,-105,280,-26,32,125,155,297,-224,125,87,88,204
46084,-77,41,268,8,-15,155,68,337,940,-102,58,-4,239,-197,179,202,-130,-368,-128,142,-121,196,-41,2,119,154,293,-245,115,123,148,302
46085,-19,-100,191,4,-34,130,48,289,907,-130,23,-52,190,-219,142,126,-128,-388,-152,82,-151,151,-46,-48,53,65,165,-228,47,14,-66,-4
46086,37,18,165,41,-15,148,100,289,904,-121,50,-59,175,-222,137,125,-164,-410,-158,56,-192,254,-82,-76,22,27,102,-251,-7,-131,-242,-266
46087,6,141,163,-65,-19,97,94,255,886,-132,70,-72,158,-212,123,107,-148,-417,-182,55,-222,296,-59,-88,19,21,114,-193,4,-147,-231,-149
46088,-115,51,153,-117,-27,212,38,228,875,-111,61,-75,152,-212,118,56,-95,-389,-179,40,-198,298,37,-59,9,13,124,-85,73,-57,-181,-110
46089,-164,40,174,-83,-6,220,50,243,903,-95,71,-80,152,-209,152,15,-93,-320,-194,56,-167,281,181,-48,6,36,113,-245,27,-50,-140,-170
46090,-109,169,189,-30,10,145,98,306,907,-98,114,-55,190,-202,167,-23,-45,-262,-190,88,-150,279,242,-32,43,55,146,-205,34,-34,-110,-72
46091,-110,111,142,-25,-37,196,47,279,852,-126,64,-119,142,-235,133,-189,-97,-358,-221,57,-173,329,-26,-84,9,18,151,-111,3,-75,-125,43
46092,-62,166,140,-35,-5,139,56,290,879,-129,2,-29,126,-218,142,-35,-99,-383,-173,69,-136,336,-14,-47,44,67,224,-126,79,-46,-69,58
46093,-50,91,174,-52,-4,282,66,347,879,-103,71,49,160,-216,170,196,-51,-324,-171,114,-121,334,209,3,74,121,285,-497,66,-56,-41,-33
46094,-48,31,130,-92,-22,221,137,279,854,-95,78,-14,143,-230,171,167,-37,-330,-189,95,-130,350,112,0,85,122,315,-320,91,-6,14,235
46095,11,133,113,-62,3,252,188,298,873,-78,83,5,163,-232,171,56,32,-299,-162,115,-132,368,141,2,91,115,274,-46,123,35,-14,225
46096,13,224,125,-44,9,274,172,351,876,-60,145,52,173,-226,195,99,40,-271,-167,121,-115,391,201,58,132,149,281,-109,205,91,0,13
46097,-110,263,162,-10,19,276,152,336,870,-50,106,139,204,-210,202,168,78,-214,-135,139,-86,378,413,125,176,188,303,-182,279,146,58,-25
46098,-192,240,204,-55,0,298,145,319,863,-65,109,116,173,-224,218,163,40,-273,-145,146,-66,332,260,85,158,195,306,-24,277,147,40,-96
46099,-146,251,236,-24,30,331,174,323,905,-35,144,82,201,-186,266,-43,71,-299,-115,188,36,430,138,79,210,264,392,190,292,184,112,36
46100,-97,230,241,-32,14,321,176,298,905,-59,159,70,233,-172,283,394,164,-236,-78,213,115,497,273,161,259,321,461,87,335,243,217,291
46101,-33,237,182,-58,1,295,205,278,892,-62,173,85,252,-181,273,742,216,-141,-45,230,30,564,393,222,286,340,469,89,418,356,309,515
46102,47,271,181,-101,20,310,277,334,896,-38,219,137,260,-193,269,479,224,-70,-2,251,-38,576,535,284,328,348,472,98,509,416,330,565
46103,7,289,189,-50,6,186,241,384,903,-49,244,185,296,-187,262,462,272,-28,-6,253,35,576,660,314,332,381,450,137,447,341,283,237
46104,-3,187,145,14,-2,301,215,421,904,-32,281,137,292,-195,278,282,298,-107,14,237,45,545,411,242,324,372,413,212,402,298,235,-17
46105,-69,101,67,-18,-25,305,93,389,908,-37,295,219,292,-186,307,64,296,-129,6,264,83,570,347,271,367,404,517,265,477,391,322,194
46106,-70,197,149,-92,4,211,100,295,947,-34,287,273,319,-140,345,189,341,-78,56,310,151,682,370,351,407,482,645,357,541,495,457,444
46107,-60,121,189,-73,-18,323,147,310,936,-50,284,214,333,-128,322,303,357,-71,73,306,140,675,415,348,418,470,578,300,490,417,378,421
46108,-222,6,59,-42,-56,236,110,287,910,-54,193,240,341,-129,285,186,383,-17,96,314,114,612,570,377,413,450,548,276,499,377,315,331
46109,-271,79,43,-69,-23,334,193,336,940,-31,246,254,389,-94,322,217,397,29,153,351,185,682,551,408,444,502,640,268,525,447,408,465
46110,-231,-43,86,-102,-35,372,193,373,963,-14,285,232,424,-70,345,360,437,56,188,360,206,740,551,460,490,535,681,308,590,492,485,545
46111,-180,28,84,-136,-65,284,127,301,939,-66,206,139,416,-74,324,418,383,68,194,354,177,725,639,518,490,520,694,145,621,533,490,549
46112,-256,219,95,-144,-57,251,182,323,946,-79,195,178,442,-72,316,608,430,125,204,337,158,721,831,510,485,523,730,148,555,473,432,482
46113,-310,276,76,-94,-79,212,259,334,966,-57,245,205,442,-58,315,659,420,105,202,331,187,665,633,484,481,524,767,243,547,472,468,582
46114,-207,239,-6,-78,-82,217,300,329,939,-62,255,144,433,-69,326,659,345,-3,164,323,219,660,362,442,467,522,827,399,556,499,503,730
46115,-106,200,-62,-105,-97,212,284,288,928,-83,211,179,410,-84,319,521,308,-12,157,318,209,651,398,447,460,529,833,341,565,518,514,650
46116,-86,232,-10,-104,-82,223,298,329,956,-59,221,207,428,-75,317,484,328,0,194,332,212,724,481,496,470,539,866,280,647,540,571,777
46117,-77,267,92,-56,-62,232,341,342,976,-46,202,183,436,-91,286,427,326,-23,158,302,153,708,411,442,424,462,737,309,570,476,456,595
46118,-100,328,113,-82,-74,60,274,341,960,-106,144,172,427,-119,228,305,354,-4,89,242,39,542,407,398,342,349,484,262,467,366,339,344
46119,-183,344,148,9,-37,134,261,392,989,-107,145,210,452,-126,219,367,371,45,128,196,1,529,429,401,323,287,396,220,467,332,239,134
46120,-116,319,168,48,-34,197,244,398,990,-85,143,232,472,-127,236,514,360,34,123,199,37,608,442,393,321,330,526,245,479,392,312,314
46121,-68,241,165,4,-55,239,237,410,953,-95,178,212,428,-165,218,458,329,1,77,183,-1,578,466,354,263,284,526,137,449,294,240,310
46122,-19,241,200,3,-41,147,257,412,946,-107,163,220,405,-180,198,318,325,-43,43,132,-45,506,452,294,214,221,444,232,384,200,130,40
46123,0,220,182,-26,-17,156,172,385,953,-99,147,208,405,-156,191,288,325,-37,15,121,-49,514,503,301,211,215,409,196,402,292,202,195
46124,-39,166,165,-18,-55,313,59,346,922,-105,151,178,359,-189,147,329,275,-54,-18,88,-145,510,429,241,161,121,268,215,376,257,121,333
46125,-13,149,196,-33,-35,390,17,353,931,-80,186,151,353,-191,153,347,231,-62,-27,78,-127,546,424,222,125,108,303,118,357,239,155,418
46126,-53,133,250,11,-21,337,14,358,924,-100,86,49,344,-204,127,145,231,-51,-55,68,-176,531,451,226,105,100,359,-34,347,257,206,472
46127,-30,131,231,16,-12,272,-27,402,936,-94,113,38,351,-196,139,218,171,-49,-46,69,-174,449,480,263,120,105,377,-258,353,229,187,519
46128,-90,48,185,-26,-28,280,7,376,931,-72,136,103,315,-195,140,102,120,-146,-78,54,-168,398,377,172,105,90,348,-89,281,172,145,477
46129,-133,-37,135,-11,-15,248,79,353,923,-88,101,103,250,-225,121,-351,148,-247,-147,37,-173,362,209,65,49,29,257,178,205,72,-33,54
