,Fp1,Fp2,F7,F3,Fz,F4,F8,FC5,FC1,FC2,FC6,T7,C3,Cz,C4,T8,TP9,CP5,CP1,CP2,CP6,TP10,P7,P3,Pz,P4,P8,PO9,O1,Oz,O2,PO10
32191,137,438,962,441,42,689,471,820,369,281,699,316,588,179,274,233,310,282,309,231,236,569,379,173,315,282,359,250,407,230,29,11
32192,123,428,965,442,35,692,448,826,359,272,677,302,569,158,249,255,305,249,286,216,209,525,327,143,285,247,341,94,332,199,15,-57
32193,105,417,945,431,51,686,413,816,353,273,652,283,561,146,221,280,244,244,266,220,180,559,309,167,277,245,381,73,346,214,32,11
32194,124,396,933,444,42,675,384,811,357,255,629,295,537,137,206,246,242,217,244,186,140,560,322,144,265,229,380,136,361,197,36,-6
32195,139,421,940,456,30,670,401,820,362,261,628,304,548,135,216,182,293,251,256,195,165,530,350,151,275,235,357,153,373,235,50,4
32196,146,441,958,450,33,675,412,820,367,276,658,266,578,148,226,106,298,251,260,209,194,569,364,159,288,255,359,192,394,253,75,10
32197,160,462,971,473,59,704,402,841,384,299,671,274,576,173,244,122,314,266,273,225,190,571,366,172,304,264,377,225,423,291,82,10
32198,146,431,975,469,48,686,377,822,353,291,633,284,555,171,236,206,317,265,248,225,181,489,351,182,308,257,356,259,478,328,121,20
32199,160,426,961,465,49,676,392,806,351,285,632,255,520,147,232,298,277,230,233,207,193,569,346,164,309,249,403,187,425,278,119,103
32200,202,465,1000,460,59,674,387,812,371,267,640,282,530,128,198,267,292,222,235,193,191,552,330,137,271,238,408,82,341,216,94,97
32201,228,471,1011,481,77,689,419,834,376,270,641,316,573,139,222,271,342,251,248,210,201,538,361,172,288,257,432,189,401,263,136,115
32202,242,496,1010,493,91,695,445,838,373,274,652,300,546,136,229,306,283,221,241,209,227,593,327,174,277,271,476,155,396,249,121,124
32203,257,498,1026,481,75,692,444,842,375,282,665,294,564,130,249,290,278,237,243,230,265,592,319,167,287,301,525,137,399,263,167,237
32204,250,525,1040,491,73,701,438,850,365,279,664,296,551,127,241,141,313,238,239,228,263,459,340,163,283,303,541,158,409,295,189,315
32205,240,521,1025,484,85,714,441,825,363,286,673,260,528,151,267,100,299,224,224,232,291,501,336,163,290,321,552,176,423,316,210,346
32206,240,498,985,441,64,711,423,786,344,252,653,237,524,129,259,210,287,203,212,214,260,625,322,147,268,276,512,184,374,242,104,160
32207,234,534,963,467,70,723,457,784,362,283,672,258,538,154,255,323,333,244,229,225,257,661,374,176,302,274,465,280,423,246,29,-57
32208,205,545,954,471,79,721,432,783,370,297,654,274,549,169,246,336,359,244,254,241,275,633,394,191,319,308,497,294,465,304,111,45
32209,209,509,978,450,94,710,443,785,366,285,652,265,540,169,235,304,371,235,243,230,246,568,389,189,307,288,471,261,443,286,109,63
32210,196,511,979,428,95,704,462,789,356,284,661,252,513,130,224,320,350,214,225,216,236,551,337,160,290,265,468,149,368,240,80,90
32211,221,526,988,454,91,698,419,802,363,281,655,262,520,112,222,282,331,203,195,196,206,483,329,149,277,257,412,135,339,206,42,65
32212,208,501,976,463,73,700,411,789,352,285,633,250,496,110,223,247,303,212,200,194,180,404,341,143,252,238,393,113,342,167,21,32
32213,211,470,950,430,63,678,418,761,328,265,617,237,470,113,205,216,280,202,179,163,150,470,323,129,244,215,392,102,343,163,16,38
32214,190,479,940,430,52,661,413,765,336,263,616,213,468,109,193,184,239,188,162,166,128,513,313,119,249,202,360,171,346,172,10,-12
32215,169,475,935,440,66,665,403,758,341,255,613,228,462,99,183,179,271,157,163,130,137,505,298,122,224,176,322,200,333,150,-27,-70
32216,202,496,982,454,77,689,432,774,340,277,632,245,481,117,205,211,249,183,179,146,180,521,299,130,237,203,299,181,330,174,-2,-41
32217,195,466,974,452,67,663,399,778,338,257,613,225,478,117,192,191,205,169,176,168,160,502,277,128,253,233,295,72,321,187,40,-3
32218,187,447,932,452,45,654,391,772,338,250,597,258,477,109,192,184,210,194,189,174,175,489,280,135,274,262,306,60,341,203,62,30
32219,178,445,933,433,53,658,420,781,345,247,606,242,486,101,195,203,216,187,208,179,182,505,287,140,254,247,289,120,352,189,57,-6
32220,192,476,974,447,52,672,390,805,350,238,618,250,486,98,188,208,304,209,207,163,145,502,325,155,254,213,297,195,374,164,-5,-78
32221,222,474,1013,466,73,682,375,837,351,253,613,271,527,132,192,218,376,256,214,183,123,532,349,168,271,203,337,209,381,170,1,-42
32222,220,448,978,458,58,684,372,798,357,276,610,254,525,134,194,127,251,255,232,195,155,535,360,171,286,235,364,191,385,197,16,28
32223,216,462,955,461,66,694,384,774,360,290,611,223,513,140,210,50,164,238,232,193,173,532,341,190,299,251,392,130,360,187,16,43
32224,202,455,953,447,71,678,381,789,368,285,622,232,532,139,239,143,180,247,245,219,196,513,337,191,318,283,416,76,381,239,92,138
32225,169,430,949,410,52,652,340,791,342,264,592,283,504,139,219,255,233,262,260,217,187,439,359,206,334,293,402,166,432,240,87,148
32226,198,451,978,443,58,681,390,828,357,255,614,332,530,151,231,315,303,289,282,217,195,436,379,208,326,273,385,169,403,213,27,41
32227,210,471,996,444,69,707,418,817,358,272,664,332,546,167,262,338,292,284,269,237,225,389,387,206,325,260,390,197,417,224,10,-2
32228,218,486,976,428,68,700,411,800,365,267,659,322,545,176,257,273,312,279,275,229,217,277,396,216,314,270,400,251,454,270,54,4
32229,192,466,970,418,63,669,394,798,342,256,631,303,536,160,240,90,303,269,268,210,216,387,389,234,304,269,367,287,474,294,95,-36
32230,185,467,950,416,67,675,396,792,336,266,632,298,549,157,251,91,301,265,272,211,228,634,355,231,328,250,385,214,434,271,91,-43
32231,180,482,976,429,58,671,381,809,339,277,627,325,538,166,241,226,303,268,273,216,219,634,370,224,334,252,376,100,428,264,84,-21
32232,183,456,998,448,51,665,358,830,371,268,620,357,552,176,241,296,340,297,317,241,214,551,406,266,344,249,365,140,447,248,40,6
32233,190,437,1002,439,31,685,376,835,358,261,629,339,590,188,251,336,330,304,329,253,245,566,400,286,360,263,387,124,435,258,55,14
32234,203,432,996,440,29,678,398,840,367,288,669,333,609,205,294,371,312,335,359,275,278,559,433,318,399,323,450,201,511,371,163,144
32235,195,421,1009,442,21,669,405,841,377,288,649,359,591,219,288,358,264,352,348,263,268,598,427,324,379,318,438,183,512,365,147,132
32236,159,405,979,422,14,658,362,831,346,263,621,385,577,179,239,289,290,335,330,225,216,595,405,277,332,248,367,140,453,271,57,12
32237,150,423,978,426,17,659,334,830,343,261,641,367,589,174,221,286,363,323,322,218,231,623,405,268,324,252,376,157,429,276,65,81
32238,151,426,1004,427,30,675,385,829,356,294,670,352,572,181,253,321,375,298,308,211,244,635,376,248,311,273,400,159,428,248,43,62
32239,140,449,947,407,40,665,380,810,354,283,685,303,551,162,249,328,397,283,300,205,216,623,384,230,307,243,405,210,449,259,67,11
32240,175,472,952,394,59,674,385,819,371,279,684,297,564,169,246,294,342,305,295,200,215,545,401,235,320,226,342,265,461,275,67,-72
32241,178,499,973,420,57,699,429,825,367,306,695,320,573,187,261,317,248,291,308,242,239,550,380,226,332,256,345,207,449,274,68,-8
32242,126,470,935,390,49,708,418,810,360,308,718,298,572,180,283,309,292,271,313,226,221,495,350,223,324,247,347,233,451,269,84,19
32243,118,428,923,380,34,700,389,784,351,288,690,288,558,161,252,245,353,264,297,217,169,453,327,207,295,208,305,268,406,231,9,-70
32244,119,443,945,422,41,710,367,803,358,302,669,303,548,158,235,203,359,253,285,200,141,497,325,176,288,168,238,177,370,186,-72,-151
32245,102,427,920,408,21,688,344,791,351,298,645,292,544,162,232,144,312,223,273,187,140,506,318,158,289,169,221,124,361,184,-49,-117
32246,90,418,911,376,6,665,343,768,328,281,635,256,528,161,214,3,259,215,271,179,126,460,302,150,265,141,201,111,355,174,-48,-148
32247,101,428,897,392,37,680,347,769,321,284,633,230,529,164,222,36,231,207,274,177,131,435,268,132,268,122,196,6,290,139,-82,-180
32248,120,458,918,403,54,686,347,783,343,293,650,245,535,173,255,149,260,204,269,186,175,451,251,152,271,152,220,-85,233,121,-78,-160
32249,132,459,948,414,61,685,351,784,335,281,618,265,546,159,244,234,280,234,268,194,183,405,250,150,268,160,252,-81,237,105,-88,-139
32250,154,455,946,419,72,693,371,790,350,272,625,286,550,175,260,263,213,233,285,202,165,416,277,179,281,187,281,-2,292,135,-52,-95
32251,128,436,914,412,58,695,365,784,346,254,614,299,537,176,251,117,232,234,283,211,149,355,298,181,284,184,274,44,294,144,-41,-71
32252,95,393,907,399,35,673,324,767,334,264,616,271,525,168,251,3,248,235,280,216,145,316,322,182,290,174,268,50,327,162,-33,-82
32253,121,403,899,403,50,717,316,767,361,309,631,278,553,179,262,103,270,252,282,241,161,416,335,203,308,210,284,52,351,197,18,-53
32254,121,407,878,400,58,719,314,769,341,302,631,293,545,181,253,213,292,253,286,257,155,510,318,189,299,203,280,22,334,178,-14,-65
32255,138,434,898,399,47,700,336,773,342,279,627,299,535,167,228,210,294,236,262,217,142,451,310,194,278,161,253,10,319,157,-73,-114
32256,133,415,895,405,58,707,322,783,357,283,607,303,553,165,223,198,290,255,277,207,151,436,362,194,278,179,262,71,334,148,-75,-136
32257,110,390,907,408,49,698,318,797,351,284,605,300,549,177,236,227,278,285,287,215,154,460,358,192,275,197,287,46,340,162,-54,-74
32258,103,384,905,390,29,683,300,781,338,275,599,273,526,172,224,225,276,260,259,191,155,486,311,155,251,175,276,-21,296,140,-73,-39
32259,121,385,892,397,46,677,298,763,350,280,589,261,539,158,217,202,224,243,257,193,147,474,308,161,265,163,270,28,300,162,-61,-34
32260,117,407,913,407,62,692,306,779,351,272,582,271,537,160,212,179,108,234,272,184,112,399,307,175,255,156,235,81,316,151,-68,-149
32261,148,394,914,422,59,693,336,793,369,284,595,288,567,172,235,183,124,251,292,193,138,434,308,185,267,172,293,110,368,178,-33,-80
32262,169,374,927,423,43,662,300,803,354,275,575,290,553,175,207,147,188,244,279,171,138,465,308,179,250,161,289,69,320,146,-86,-78
32263,179,413,938,423,36,679,307,809,351,287,607,303,555,177,224,162,280,247,274,179,133,461,313,165,259,170,289,59,314,135,-78,-62
32264,192,418,952,441,55,684,339,814,368,290,631,312,564,186,236,196,339,275,288,193,153,478,355,198,261,193,325,99,355,184,-22,-8
32265,180,421,945,407,48,675,347,803,339,264,602,299,554,170,231,191,331,266,269,175,146,477,333,175,244,183,312,111,336,186,-38,-17
32266,173,409,939,426,51,685,347,797,336,272,619,298,536,153,240,186,318,249,257,158,133,474,336,148,242,167,309,151,341,166,-38,-39
32267,159,411,926,431,46,707,335,794,334,286,614,296,526,159,242,179,299,219,238,154,132,466,306,120,230,147,303,130,318,126,-48,-91
32268,144,429,921,416,65,730,329,762,333,299,640,256,512,155,244,178,238,198,214,166,145,472,293,113,230,145,315,119,298,136,-58,-120
32269,141,439,912,424,57,738,331,751,312,307,672,215,467,141,260,209,195,165,192,166,156,496,249,91,204,168,336,76,247,113,-72,-86
32270,170,437,912,414,64,747,382,768,326,317,670,221,462,139,250,186,247,147,196,164,160,514,221,64,198,173,317,51,226,108,-56,-24
32271,180,450,936,402,75,755,379,741,333,321,666,217,472,157,259,65,249,155,220,174,179,526,238,64,201,182,321,180,282,153,-11,-19
32272,179,463,926,393,76,740,348,743,326,329,662,211,466,169,264,73,242,154,216,194,189,495,270,81,206,189,316,244,320,149,-6,-21
32273,126,432,883,368,35,732,319,717,323,299,662,167,432,160,262,160,207,110,193,184,165,411,231,61,204,163,300,115,273,136,-32,-5
32274,158,438,904,383,52,745,344,733,319,301,674,197,454,178,264,213,195,123,201,186,189,324,187,49,202,180,315,-38,197,100,-39,-37
32275,157,461,906,389,63,770,352,734,322,313,692,204,466,177,279,151,219,149,226,203,225,462,222,79,234,188,344,-59,208,136,2,2
32276,146,448,895,373,40,756,362,727,301,289,696,201,456,172,270,42,234,175,213,210,202,563,245,82,223,203,327,19,238,135,-7,36
32277,172,475,917,384,64,761,388,752,339,299,706,231,495,184,300,148,213,183,246,231,171,562,272,98,237,213,346,18,275,162,-4,84
32278,154,501,915,385,65,743,362,771,345,315,696,247,500,189,301,285,244,204,253,221,165,473,282,125,263,203,309,33,324,221,26,17
32279,151,464,903,356,39,710,361,762,314,298,669,222,498,177,259,293,241,198,226,193,158,416,241,111,240,180,283,73,320,231,54,-40
32280,156,436,920,349,54,716,352,772,315,299,662,255,512,170,253,262,260,212,229,203,156,330,283,140,244,183,329,117,335,225,49,40
32281,187,472,928,373,86,731,387,780,339,291,652,278,547,171,240,259,237,228,232,168,136,378,274,130,223,154,262,119,283,124,-73,-60
32282,174,466,906,379,68,707,405,761,323,267,660,263,539,163,236,233,173,196,231,135,124,513,232,109,213,129,228,104,253,108,-84,-119
32283,129,426,884,339,37,685,390,731,294,228,643,226,493,120,195,216,186,156,174,97,80,526,186,61,159,80,222,-2,187,79,-90,-148
32284,125,427,885,363,51,702,409,747,309,243,675,227,501,115,191,260,276,176,185,122,105,507,211,55,150,101,283,8,203,98,-57,-144
32285,124,440,876,365,54,707,414,726,316,257,683,196,504,143,222,291,267,209,211,136,171,547,235,80,181,148,326,66,265,157,5,-89
32286,138,396,860,331,35,679,353,702,307,236,641,184,498,129,191,210,255,195,187,127,139,413,265,88,171,130,292,178,329,197,22,-120
32287,116,381,820,322,26,673,342,699,330,256,640,185,504,142,210,170,239,188,214,149,164,381,268,97,211,168,345,203,363,209,61,46
32288,101,397,810,318,38,670,360,701,329,252,649,182,497,144,206,191,226,189,208,129,155,221,238,90,182,158,285,136,316,172,-22,-33
32289,98,370,794,322,12,649,338,687,329,222,629,164,482,134,199,158,156,165,176,121,135,207,198,53,157,145,265,78,264,134,-61,-64
32290,119,386,808,325,53,674,354,711,325,242,658,170,470,155,203,183,119,138,197,134,166,422,178,20,172,144,274,41,211,104,-57,-44
32291,126,408,805,344,71,699,376,695,317,262,654,170,470,151,222,191,175,138,182,130,151,505,166,12,165,98,238,6,190,64,-118,-139
32292,100,368,780,301,37,673,347,670,306,246,624,147,438,116,215,105,193,110,157,109,147,521,127,6,152,96,229,-89,160,58,-72,-118
32293,80,356,763,311,64,669,304,676,323,245,623,175,469,110,199,95,227,142,172,110,124,529,190,56,171,110,225,63,262,124,-46,-136
32294,84,352,830,345,74,662,306,710,332,245,622,204,480,123,178,145,255,167,190,116,79,437,220,68,165,82,192,78,270,98,-132,-226
32295,61,355,814,344,50,655,306,702,313,231,619,197,471,128,175,210,237,156,187,114,87,431,196,58,171,78,193,-49,214,84,-111,-177
32296,48,382,787,331,37,654,309,697,306,246,634,196,478,105,199,209,140,148,197,135,129,449,161,51,204,93,215,-113,200,107,-83,-118
32297,61,378,823,343,37,667,320,714,326,264,637,239,504,141,222,184,149,178,213,138,149,392,197,90,222,103,217,-64,225,118,-92,-147
32298,82,364,820,355,44,667,330,718,319,255,640,239,498,132,204,201,151,190,217,135,147,470,202,88,223,106,224,-119,210,96,-102,-156
32299,87,335,837,352,46,675,325,722,311,261,657,238,517,145,216,190,203,233,241,159,154,453,255,120,241,125,236,-98,241,129,-69,-162
32300,95,372,850,375,48,675,329,735,341,272,647,202,535,158,215,194,238,217,254,156,170,297,273,132,255,138,270,-20,269,149,-66,-151
32301,109,398,831,380,61,681,357,728,366,274,667,178,521,156,218,213,168,209,251,179,136,351,182,119,258,150,303,-23,268,148,-55,-103
32302,74,367,810,359,54,666,369,713,339,260,683,154,488,144,202,159,102,174,232,163,113,475,141,105,243,126,259,-45,252,131,-64,-158
32303,69,342,779,348,47,625,325,704,334,252,643,187,487,135,212,7,56,171,217,160,121,518,156,93,233,129,217,-44,239,102,-77,-142
32304,72,338,804,355,57,636,321,722,343,264,647,238,520,166,218,14,145,193,264,169,119,493,201,119,248,127,221,-83,244,91,-77,-147
32305,42,310,805,316,39,616,300,678,318,246,615,190,493,162,186,163,137,152,229,148,119,413,191,86,227,127,227,-79,230,86,-80,-136
32306,48,333,789,301,31,634,316,650,323,252,621,157,471,145,180,244,113,147,219,142,120,314,198,76,205,137,255,-14,244,106,-67,-130
32307,64,366,781,320,41,649,335,669,354,267,653,165,486,175,199,249,164,180,247,174,134,408,244,99,210,170,293,68,271,119,-56,-124
32308,36,357,770,330,50,638,311,664,333,259,627,132,473,181,199,237,127,166,228,164,146,510,213,99,217,173,298,116,288,138,-55,-128
32309,35,362,785,316,47,627,295,665,326,258,601,152,459,151,209,205,201,155,196,135,126,515,205,75,210,142,282,56,252,124,-66,-120
32310,68,372,759,318,48,624,283,639,310,231,592,141,422,129,193,196,154,115,172,115,110,502,188,51,170,128,235,-19,204,79,-105,-128
32311,128,373,837,351,91,656,327,675,326,247,632,192,464,167,203,217,137,154,182,139,133,516,210,69,186,129,256,-31,237,103,-64,-96
32312,131,361,852,353,88,671,316,708,328,266,622,216,480,146,183,163,142,168,197,143,118,462,195,65,207,161,264,-62,251,114,-58,-90
32313,122,377,850,347,79,683,357,702,305,262,635,204,458,140,199,178,156,172,205,143,120,468,203,73,190,159,272,-36,245,116,-72,-85
32314,120,386,869,358,78,703,383,719,340,292,662,217,472,154,213,241,230,191,208,158,144,539,237,82,183,149,284,42,240,82,-110,-90
32315,93,371,857,366,78,707,355,737,326,299,644,234,491,133,201,217,274,196,193,132,128,532,279,71,165,123,259,17,201,27,-125,-107
32316,78,334,827,336,54,672,313,700,326,280,640,218,477,129,189,160,233,181,174,137,106,481,260,69,146,121,249,21,218,58,-112,-86
32317,79,326,846,334,46,678,335,734,327,283,644,226,480,136,187,161,179,196,214,153,103,456,235,75,165,133,252,27,228,65,-109,-74
32318,65,323,854,346,56,673,333,731,333,285,639,213,462,123,177,167,160,187,209,134,95,477,208,58,164,100,228,28,227,57,-129,-83
32319,71,317,822,345,28,672,338,703,322,266,629,178,463,114,142,90,152,177,187,113,63,433,187,43,136,81,183,-35,202,30,-154,-142
32320,89,332,850,359,34,693,325,725,336,284,618,210,485,119,160,-18,131,191,200,110,39,444,201,42,147,94,203,-58,176,31,-138,-110
32321,74,339,836,354,43,666,308,702,319,257,601,200,453,103,130,-7,127,189,171,70,9,423,207,42,129,45,167,-22,174,10,-180,-175
32322,74,372,829,336,44,665,309,716,317,259,584,195,448,104,111,83,148,168,161,62,6,376,196,34,115,41,116,-29,155,6,-235,-229
32323,67,373,833,328,32,669,300,719,310,257,567,172,445,104,116,12,156,138,150,54,16,369,132,-2,103,46,100,-45,143,-5,-228,-238
32324,76,360,841,345,37,655,305,684,310,266,557,165,448,114,131,-149,174,111,143,65,11,331,138,0,106,45,86,-84,121,-7,-225,-266
32325,39,316,823,329,14,626,259,692,292,250,557,172,432,107,129,-130,172,133,150,67,-4,163,170,7,108,61,82,-62,155,12,-206,-238
32326,46,322,826,354,48,636,296,696,322,262,589,178,441,129,163,54,160,148,180,99,53,196,192,38,138,110,135,-23,202,43,-160,-173
32327,93,383,870,393,78,661,341,710,334,279,605,214,479,152,184,172,203,170,198,138,86,383,189,50,164,139,166,-54,175,41,-145,-185
32328,117,375,905,359,56,625,315,725,312,256,590,222,474,133,180,222,216,180,199,147,59,442,179,49,181,137,159,-100,176,45,-129,-185
32329,130,364,891,360,55,642,334,738,311,257,604,237,498,150,176,216,187,172,215,141,32,359,216,76,188,164,189,-22,227,89,-73,-88
32330,107,370,892,354,60,681,353,738,312,261,626,228,483,132,183,169,149,190,218,148,32,265,235,87,197,169,195,62,265,107,-67,-118
32331,103,396,861,355,71,685,373,727,315,262,628,208,476,140,187,190,139,188,207,144,54,280,242,100,203,177,246,121,301,154,-41,-97
32332,91,374,850,322,60,652,308,698,294,242,575,187,460,133,149,88,138,153,193,120,18,319,223,76,172,138,251,70,248,112,-61,-125
32333,110,366,837,322,59,647,290,662,305,261,557,152,436,125,142,33,88,113,174,103,4,367,158,41,151,152,228,-90,192,67,-48,-121
32334,103,349,828,316,59,656,307,649,314,280,575,120,428,145,167,96,199,94,176,107,32,413,137,25,138,165,237,-148,170,95,-22,-37
32335,89,331,812,298,44,650,301,637,289,254,566,107,396,123,136,61,188,62,129,81,7,381,123,-17,107,108,181,-121,169,69,-96,-61
32336,103,360,814,318,46,648,293,655,287,260,562,110,396,121,113,23,134,48,116,77,-17,283,134,-13,91,98,133,-106,181,60,-104,-184
32337,80,372,799,293,24,647,275,641,294,262,556,104,397,122,135,33,115,51,136,88,-13,232,147,-3,110,102,150,-47,210,87,-67,-209
32338,85,342,797,299,30,646,260,629,302,240,551,91,416,115,131,29,115,55,144,85,-11,315,166,10,133,139,155,0,256,135,-33,-183
32339,75,350,802,312,29,631,247,646,303,243,546,101,425,110,131,32,120,78,137,101,-11,374,184,30,152,144,138,20,286,165,-9,-180
32340,96,385,808,334,42,654,285,636,316,268,568,103,412,152,179,100,106,89,170,130,48,464,182,45,182,187,203,14,278,160,11,-135
