,Fp1,Fp2,F7,F3,Fz,F4,F8,FC5,FC1,FC2,FC6,T7,C3,Cz,C4,T8,TP9,CP5,CP1,CP2,CP6,TP10,P7,P3,Pz,P4,P8,PO9,O1,Oz,O2,PO10
60175,107,223,405,8,30,269,-195,431,713,175,78,452,428,83,-103,-55,117,74,16,-28,-135,-349,238,100,258,-40,135,-112,221,-75,-95,-41
60176,206,256,409,76,41,210,-196,421,723,146,36,533,424,79,-101,-9,189,126,25,-9,-146,-283,352,134,241,-37,120,-131,229,-91,-118,-92
60177,283,251,460,81,30,241,-163,429,738,179,54,502,450,91,-77,55,234,204,60,14,-110,-279,525,189,272,-18,167,-264,215,-87,-86,-181
60178,244,273,487,64,26,268,-175,486,727,186,71,296,501,121,-60,236,228,228,83,34,-69,-295,537,199,269,8,276,-210,224,-64,-52,-175
60179,132,259,466,57,31,280,-195,451,728,183,89,27,507,96,-54,230,156,177,62,32,-54,-282,360,151,275,6,327,-89,252,-72,-86,-263
60180,156,190,524,-50,56,306,-223,457,732,198,103,210,527,112,-32,93,123,188,67,26,-18,-269,269,148,291,1,375,-93,245,-62,-69,-192
60181,249,166,529,-86,56,345,-214,430,731,199,104,534,531,117,-39,81,117,222,50,10,-4,-246,312,157,276,15,375,-78,247,-59,-63,-127
60182,304,19,445,-14,51,485,-218,454,742,188,46,649,510,105,-65,43,163,192,46,4,-69,-257,336,163,244,-2,234,-4,263,-53,-77,-37
60183,436,61,333,55,55,367,-249,478,730,178,-4,741,480,91,-91,32,226,199,39,-17,-142,-226,293,161,228,-58,107,56,267,-52,-77,17
60184,407,142,290,158,63,373,-261,493,739,183,56,723,465,92,-88,51,290,187,37,-21,-148,-318,274,150,232,-78,128,10,240,-47,-67,16
60185,287,141,375,154,51,371,-445,530,737,171,78,613,452,82,-86,17,327,92,1,-50,-168,-273,267,121,209,-79,158,-47,208,-71,-84,-2
60186,300,206,621,88,38,269,-414,488,731,187,109,673,440,95,-87,83,387,107,8,-44,-148,-281,351,134,221,-50,190,-49,248,-53,-66,-2
60187,400,296,754,-59,70,291,-189,565,730,195,130,684,476,127,-54,126,438,174,57,-1,-96,-261,440,175,271,-24,231,-13,274,-38,-21,34
60188,486,307,822,-21,87,303,-101,581,732,213,149,717,507,141,-24,46,430,190,62,6,-75,-202,379,193,281,-3,264,9,291,-10,-4,13
60189,409,229,785,-51,59,348,-139,533,735,201,111,662,498,118,-36,-26,332,175,52,-5,-91,-214,335,174,280,0,260,-52,289,-15,-1,-68
60190,388,301,633,-118,69,290,-48,401,709,195,109,667,495,116,-47,31,345,188,65,9,-61,-192,425,187,281,18,278,-58,316,-9,19,-35
60191,413,311,617,-138,67,270,13,407,693,187,106,648,494,123,-81,12,401,192,68,0,-82,-199,466,215,310,45,307,47,358,30,51,-53
60192,433,242,638,-170,42,307,-47,412,683,164,93,610,495,85,-93,68,354,180,70,0,-73,-266,430,182,293,33,313,80,335,50,47,-67
60193,440,283,618,-103,88,334,-159,427,709,189,135,584,515,116,-41,167,385,209,80,8,-24,-194,409,204,304,56,343,68,323,46,32,-85
60194,394,328,582,-101,84,354,-183,258,729,198,182,669,511,153,0,212,319,254,119,49,11,-120,456,250,340,93,377,101,380,118,99,86
60195,157,303,496,-29,52,296,-92,260,714,172,141,616,507,133,-36,189,328,234,115,55,-3,-107,421,260,357,72,329,52,380,118,86,188
60196,64,271,405,17,59,281,1,496,722,178,135,518,527,143,-47,205,417,221,115,47,-18,-149,426,257,367,65,295,24,372,93,60,148
60197,218,265,371,56,68,388,60,494,751,207,199,395,523,148,-19,215,445,214,139,56,0,-197,455,265,349,58,249,79,372,53,-9,-2
60198,89,303,400,168,79,363,24,471,778,214,207,152,516,131,-15,135,430,197,136,71,-9,-140,446,259,364,80,254,68,394,97,24,-32
60199,172,347,486,165,74,316,0,474,754,203,178,243,538,144,-4,106,415,201,133,82,5,-97,435,255,392,103,283,44,394,99,46,-102
60200,308,316,561,105,61,328,-30,553,743,206,176,398,536,144,24,113,362,226,149,103,34,-120,432,265,383,129,315,60,388,68,8,-131
60201,277,301,607,21,59,305,-67,575,735,211,205,543,555,127,50,120,321,229,144,125,48,-187,426,251,387,113,322,1,376,63,16,-125
60202,372,297,659,-45,67,284,-137,435,720,201,169,668,542,132,28,220,348,269,140,123,60,-168,458,268,403,113,359,66,384,71,15,-131
60203,515,307,661,-20,91,391,-88,433,728,228,163,697,562,154,46,299,402,292,169,119,75,-150,543,306,406,133,387,121,415,87,46,-48
60204,574,351,625,37,76,379,-57,481,740,232,190,662,570,162,66,146,438,308,183,132,69,-193,650,315,426,124,351,73,414,106,46,-96
60205,570,382,655,-53,55,333,-85,488,721,198,188,648,545,136,19,175,382,300,149,106,32,-311,652,294,400,98,241,3,377,73,6,-51
60206,507,384,579,-28,64,334,-80,543,755,200,186,693,579,156,28,323,368,338,176,132,35,-237,596,306,419,100,245,83,406,83,29,59
60207,424,351,419,128,89,363,-98,555,779,207,162,657,616,187,55,231,321,351,192,142,11,-196,548,303,429,128,233,101,433,93,34,-25
60208,332,169,375,63,80,380,-119,492,754,195,144,485,581,196,54,109,327,290,178,120,3,-215,499,305,399,118,278,100,375,57,17,-99
60209,307,116,438,-54,71,496,-80,447,732,221,174,487,526,199,51,0,334,251,158,129,0,-221,444,266,385,116,294,128,376,41,7,-167
60210,355,221,519,-69,61,524,-93,447,729,230,180,613,519,197,61,-17,313,249,148,125,8,-127,430,268,413,113,273,126,365,24,6,-18
60211,385,358,564,-34,58,254,-98,484,735,194,99,607,533,183,37,51,372,283,165,111,3,-122,466,286,403,89,230,85,374,36,3,78
60212,396,381,609,-57,65,276,-103,471,714,210,117,595,498,181,35,55,453,272,158,107,-5,-239,443,273,408,116,211,113,381,39,-19,24
60213,361,298,559,-47,47,365,-130,546,703,206,131,620,481,184,40,24,458,206,147,118,9,-245,426,274,420,125,290,167,396,78,40,77
60214,369,299,537,-5,38,344,-87,574,739,223,140,551,510,195,65,97,451,198,152,142,82,-303,476,293,431,180,411,196,410,98,96,37
60215,282,284,448,26,29,325,-97,440,733,217,148,446,518,183,39,40,403,218,153,127,54,-314,427,284,412,178,380,124,373,66,79,-137
60216,-28,281,363,-16,49,325,-112,460,738,199,151,471,545,195,52,74,435,266,163,142,6,-301,414,299,437,188,362,61,378,76,89,-73
60217,-11,245,382,14,46,299,-199,519,767,215,124,584,580,206,51,31,427,367,223,155,8,-230,519,366,464,189,341,28,422,105,104,103
60218,202,182,369,-21,18,246,-271,577,738,204,54,666,591,199,23,-89,384,408,223,141,-22,-198,606,383,449,183,296,70,427,123,118,196
60219,260,125,430,-123,-8,253,-283,436,703,210,64,659,568,203,22,-34,432,402,220,155,9,-173,633,401,465,192,322,132,444,152,140,199
60220,348,194,563,-91,30,285,-149,206,714,231,127,732,576,233,81,82,497,424,262,200,74,-84,620,422,517,232,417,216,505,214,184,217
60221,292,199,548,-46,26,277,-109,418,737,231,147,574,591,246,97,189,504,441,279,222,121,-40,618,450,537,272,452,187,549,247,249,241
60222,154,240,576,-39,4,288,-87,515,748,211,191,647,622,243,99,229,476,448,285,239,142,14,684,464,568,310,509,170,571,295,274,231
60223,184,410,675,-11,49,322,70,573,764,224,237,759,634,245,131,283,511,446,274,225,164,66,689,442,566,311,566,249,551,302,281,111
60224,265,414,701,-2,48,346,98,575,774,227,219,757,604,248,117,263,518,428,257,204,160,-14,639,418,530,295,575,260,550,266,259,128
60225,332,330,586,-60,30,309,-10,514,761,218,157,686,575,242,99,154,485,375,244,197,117,-88,606,386,516,274,513,287,556,278,246,209
60226,380,285,525,-72,48,295,-60,517,745,216,131,681,572,236,92,151,445,353,223,185,87,-78,602,370,485,242,429,250,510,208,207,240
60227,528,353,565,-56,60,331,-24,529,763,242,163,690,578,244,98,194,508,378,241,194,98,-39,673,383,486,244,443,164,470,186,188,206
60228,492,364,582,-38,60,355,0,537,746,215,176,458,547,211,85,244,476,378,210,150,72,-36,599,331,456,207,432,120,461,157,138,235
60229,321,314,494,19,39,350,-44,521,744,225,193,337,554,200,92,215,388,352,173,135,51,-77,584,339,434,173,397,132,433,123,123,200
60230,194,258,380,34,57,328,-61,517,757,234,212,479,558,205,85,195,332,328,177,129,35,-102,597,352,423,158,339,214,452,145,108,161
60231,154,270,365,109,73,340,-41,519,762,220,223,594,564,213,78,260,341,316,175,128,59,-72,536,295,406,146,340,240,481,129,70,160
60232,300,303,450,90,99,415,-47,475,754,227,207,620,556,202,50,152,399,292,173,113,46,-3,548,288,384,140,360,182,485,133,118,176
60233,376,345,481,110,83,395,-6,530,753,213,185,535,550,169,38,141,440,256,154,81,15,-27,554,276,362,111,375,90,412,106,102,139
60234,396,372,493,87,99,425,38,547,752,225,241,636,520,166,79,225,477,215,151,107,61,-32,518,265,365,138,404,127,403,96,114,26
60235,344,346,483,3,69,391,12,480,713,207,254,633,480,158,75,244,371,180,120,95,72,-49,441,235,374,126,398,19,375,70,105,17
60236,363,351,553,-18,66,414,57,504,711,228,267,733,501,169,79,431,396,209,138,121,95,-3,473,254,406,152,433,86,412,96,128,183
60237,478,418,650,23,107,412,136,542,728,235,260,736,532,180,95,445,437,246,156,139,92,60,523,309,419,167,425,199,420,122,158,258
60238,464,445,566,31,110,397,124,550,738,237,240,603,549,200,109,353,428,243,164,154,101,47,464,301,424,151,426,223,439,126,144,141
60239,431,429,491,6,87,466,130,565,738,236,262,465,538,186,119,328,465,233,165,147,116,-99,453,255,414,152,427,150,402,115,116,25
60240,332,321,450,33,83,439,80,567,727,217,254,387,525,168,98,260,352,209,158,136,75,-122,426,248,398,151,424,90,374,72,92,88
60241,99,335,338,91,93,372,-34,516,751,224,234,467,517,178,78,129,347,242,140,121,40,-64,433,236,388,137,429,113,363,77,67,28
60242,112,366,294,115,65,377,-58,520,718,188,216,336,511,153,22,26,355,223,118,74,11,-142,359,200,358,86,360,102,309,33,23,-119
60243,190,405,377,137,70,328,-47,523,709,181,203,401,513,148,30,66,363,226,112,90,41,-181,351,214,373,89,343,105,327,35,41,31
60244,336,394,510,85,46,279,-34,523,724,171,199,472,525,162,24,132,335,212,136,119,69,-148,358,221,373,114,376,56,337,56,47,-66
60245,432,329,551,-20,47,291,-41,525,724,194,168,577,532,158,30,140,237,232,138,100,48,-186,390,223,366,87,351,-98,291,-13,-20,-263
60246,355,261,470,-15,40,288,-97,428,713,175,73,610,508,151,4,122,295,241,114,71,-35,-211,408,228,345,51,298,-147,259,-47,-52,-100
60247,297,261,455,8,71,411,-105,391,738,195,120,549,526,178,33,128,399,246,142,73,-52,-242,501,264,354,49,269,-61,300,-5,-17,53
60248,158,331,444,57,77,405,-176,466,735,206,146,623,507,162,15,90,453,213,129,65,-50,-175,543,243,331,36,256,31,310,-9,-54,14
60249,147,341,453,123,69,380,-246,574,749,198,179,627,499,132,-3,83,390,185,110,55,-73,-255,505,208,326,39,250,106,301,-16,-75,-91
60250,168,243,469,94,67,379,-212,641,760,202,137,693,515,145,-13,62,306,257,112,47,-90,-337,530,225,312,9,197,64,317,-21,-68,-127
60251,222,236,463,38,51,237,-169,620,758,190,93,729,538,156,-8,6,322,293,130,55,-103,-264,522,254,344,19,185,101,362,-3,-50,-90
60252,291,297,491,45,58,313,-110,531,746,190,70,626,548,149,-17,-25,366,286,133,47,-127,-314,496,247,329,15,164,142,346,4,-58,-64
60253,403,321,533,-3,75,348,-29,462,753,215,99,622,585,178,-11,-23,453,354,177,62,-114,-329,593,303,354,45,175,139,382,41,-14,3
60254,359,332,545,29,92,361,0,409,756,222,131,666,585,169,2,-99,428,370,174,67,-95,-301,622,293,357,57,166,176,412,61,-3,4
60255,95,311,306,96,77,382,-23,208,724,218,126,712,542,150,17,-146,421,311,136,58,-89,-353,503,259,350,43,170,158,419,72,-10,10
60256,-318,265,108,221,76,338,-62,291,728,214,126,663,506,140,0,-91,361,250,113,60,-96,-304,461,238,337,52,175,-15,370,37,-9,-5
60257,19,292,193,154,78,311,-43,410,734,222,121,548,513,143,15,66,320,264,129,88,-81,-245,565,256,363,77,146,-15,389,61,-7,-20
60258,271,276,372,75,84,301,-72,448,720,211,89,430,520,148,25,186,292,267,124,85,-34,-278,535,266,373,105,169,45,393,92,2,-19
60259,413,227,508,13,112,388,-144,477,712,242,142,321,541,173,60,56,299,263,150,127,-6,-332,431,270,405,149,253,165,439,140,55,-28
60260,463,266,572,-109,104,467,-271,492,719,257,137,230,541,173,59,-54,333,263,151,131,-59,-342,367,252,415,142,295,170,442,133,71,-235
60261,427,240,534,-207,83,446,-282,462,683,260,140,306,484,157,42,14,335,220,130,102,-47,-425,345,237,393,148,306,137,409,103,57,-258
60262,371,253,518,-226,63,381,-266,465,684,246,107,342,461,146,10,53,338,193,126,78,-69,-373,364,214,371,114,243,118,393,82,20,-112
60263,274,255,510,-129,62,339,-302,455,692,219,118,401,470,144,2,0,258,164,100,47,-111,-344,327,202,346,43,138,72,348,28,-19,-48
60264,158,173,462,-93,42,310,-319,441,680,201,82,392,466,118,-42,-143,271,164,86,34,-149,-355,348,204,329,34,133,97,330,14,-27,-37
60265,161,201,449,-77,53,282,-272,475,700,209,50,446,450,132,-51,-204,312,183,79,37,-118,-329,384,205,333,57,180,2,325,17,-9,-62
60266,163,192,437,20,62,283,-153,526,712,211,69,435,475,144,-36,-113,289,191,95,56,-75,-280,387,194,329,79,242,-127,300,25,23,10
60267,48,254,514,-64,60,279,-114,479,692,214,97,468,455,160,-6,-17,386,154,83,97,-44,-207,398,221,360,101,325,-88,327,66,109,139
60268,16,267,446,30,78,246,-87,512,727,208,101,452,493,155,10,8,445,163,108,102,-9,-186,447,248,362,133,345,21,356,92,140,107
60269,167,226,280,121,85,316,-33,498,727,215,139,371,509,136,21,60,405,212,124,77,16,-181,544,264,390,132,402,33,362,79,124,94
60270,345,291,327,4,67,305,-54,509,735,220,127,496,514,142,21,72,372,251,121,84,18,-134,579,274,375,117,376,67,355,79,100,111
60271,300,314,426,-6,67,194,-145,523,737,179,74,636,515,134,-15,32,277,254,136,52,-30,-83,494,252,327,85,320,112,348,44,52,71
60272,304,290,482,-47,60,218,-181,524,728,171,31,686,535,136,-32,72,260,258,120,18,-35,-266,409,205,312,55,308,60,310,-13,11,4
60273,377,307,481,-112,56,296,-164,523,725,182,57,563,527,114,-43,61,300,273,110,26,-65,-220,460,215,326,46,309,19,301,14,49,29
60274,367,285,419,-102,59,263,-150,443,704,176,88,501,482,111,-35,75,343,217,92,29,-30,-131,539,225,310,68,351,127,349,53,67,-26
60275,265,206,291,-97,45,262,-169,370,681,175,104,472,417,92,-20,93,369,128,48,13,-35,-149,457,169,298,55,356,135,338,10,21,-44
60276,115,191,265,-62,51,382,-154,371,698,212,151,544,389,103,8,127,335,95,50,26,-38,-232,389,154,301,46,338,133,326,23,23,-105
60277,-86,239,210,-23,64,372,-110,365,690,182,106,532,401,98,0,107,261,89,39,24,-49,-260,328,137,288,74,347,169,347,48,75,-64
60278,32,250,107,63,68,317,-35,366,706,177,124,492,436,105,-6,197,298,87,39,36,-26,-119,291,143,303,91,391,89,325,22,68,91
60279,94,199,95,143,65,387,-20,353,718,205,150,417,423,119,8,192,284,89,52,28,-18,-158,315,143,296,100,353,-53,257,-18,26,175
60280,143,158,128,81,61,437,-108,312,720,206,140,306,429,118,9,-27,305,91,39,49,5,-133,346,127,289,113,392,-95,235,-24,39,121
60281,272,94,181,50,65,454,-136,353,689,211,195,420,412,118,29,-40,282,91,37,50,0,-170,371,113,298,84,370,-83,248,-25,39,24
60282,317,136,249,-36,38,497,-57,348,670,207,187,449,385,99,19,112,225,65,28,38,-42,-159,346,118,293,66,315,-98,247,-15,63,-112
60283,265,280,406,-69,46,382,-61,365,681,214,168,350,388,116,40,315,186,64,42,49,-32,-128,373,122,302,82,316,-100,250,-14,63,-105
60284,250,243,555,-171,87,417,-131,86,652,240,194,172,337,108,53,305,285,90,36,62,-13,-135,356,139,288,113,331,-33,266,2,72,51
60285,219,38,541,-191,76,472,-311,321,654,232,155,-180,413,84,17,140,344,28,8,36,-87,-87,292,90,259,86,249,28,251,7,57,221
60286,144,155,432,-14,50,321,-292,508,678,190,147,-7,439,81,15,68,280,-9,-13,32,-62,-226,256,66,258,76,232,76,249,-26,13,253
60287,144,288,424,31,61,264,-189,542,723,200,155,262,478,136,22,-41,186,45,27,48,-59,-225,238,80,265,85,259,-1,212,-64,-20,152
60288,257,293,425,-62,61,285,-120,473,706,209,170,557,457,140,27,-4,237,100,47,51,-35,-228,299,115,282,95,282,31,225,-49,-2,67
60289,288,288,479,-105,52,296,-59,467,701,197,166,615,465,136,10,25,305,151,59,67,4,-252,350,164,291,101,333,28,241,-56,20,60
60290,275,317,534,-120,37,299,-120,415,701,176,154,656,461,117,-5,108,326,185,64,59,9,-223,377,163,278,106,367,-43,206,-87,-21,-19
60291,343,343,554,-170,50,325,-166,381,684,194,158,685,498,111,-7,206,365,194,54,36,19,-215,395,183,281,99,375,-4,248,-79,-43,-82
60292,311,323,516,-173,51,321,-131,396,683,192,124,610,491,101,-17,171,374,178,45,25,-10,-200,406,164,261,58,352,-12,246,-93,-52,-247
60293,296,342,471,-102,50,299,-46,437,716,192,134,435,503,100,-33,153,397,182,62,20,-6,-80,374,170,263,70,378,-53,211,-108,-33,-273
60294,303,340,325,-30,45,277,-2,502,729,171,115,439,552,99,-29,148,400,233,98,20,-28,-42,396,188,270,58,298,-21,224,-131,-73,-120
60295,168,257,193,-43,19,295,-30,523,742,151,73,621,563,92,-69,109,367,255,91,0,-81,-176,491,202,272,21,194,-126,243,-114,-97,-22
60296,-146,154,97,206,30,254,-106,550,767,133,33,716,583,79,-88,173,387,226,91,-18,-100,-348,535,187,266,-8,145,-183,191,-128,-117,-45
60297,-134,198,143,229,62,301,-122,501,769,168,84,774,564,129,-30,-26,380,230,106,30,-83,-353,529,218,321,63,175,-44,251,-77,-79,-170
60298,50,289,337,119,69,329,-128,454,746,186,107,761,545,147,4,-65,318,249,115,78,-48,-378,475,233,338,98,230,-31,256,-37,-80,-237
60299,213,233,394,38,65,295,-75,400,729,191,138,656,519,140,10,69,245,231,109,80,-11,-401,423,216,344,114,256,-49,255,-62,-88,-235
60300,380,211,378,-8,57,334,-63,442,721,209,124,523,528,155,21,107,272,209,133,101,-8,-245,412,221,364,131,269,41,311,-22,-50,-98
60301,454,233,350,-119,57,396,-148,448,710,219,160,468,530,158,55,123,331,195,128,111,-3,-216,428,226,376,126,242,85,329,1,-19,12
60302,431,281,470,-149,44,326,-247,343,706,213,180,534,519,169,74,137,379,210,132,129,0,-197,445,236,399,118,262,106,359,54,21,75
60303,421,254,581,-94,41,327,-189,335,696,206,138,539,500,165,42,141,360,184,134,128,-4,-180,433,242,401,125,312,125,393,78,59,52
60304,406,297,589,-117,60,232,-132,401,685,211,116,540,491,177,41,90,348,198,139,131,-1,-195,444,252,413,155,344,91,380,78,56,-43
60305,345,363,544,-155,54,274,-210,416,668,200,98,533,495,180,27,38,368,208,131,142,-5,-265,461,253,414,167,334,113,390,95,32,-115
60306,231,214,447,-169,22,435,-317,426,655,194,116,487,467,181,17,13,310,192,144,139,-24,-200,411,238,425,162,329,176,413,112,59,-51
60307,200,123,341,-60,41,417,-201,437,698,232,150,484,498,222,49,-3,320,223,171,168,2,-199,397,259,456,178,337,172,444,143,83,-24
60308,177,124,236,-142,36,266,-104,407,674,208,102,447,453,195,31,34,354,122,128,115,-41,-248,309,229,414,150,302,1,392,86,54,1
60309,78,72,209,-19,21,285,-108,473,668,186,111,322,468,180,2,48,411,103,105,87,-75,-291,347,197,377,112,268,-55,357,59,32,65
60310,177,128,302,-73,20,266,-106,469,669,193,132,226,463,181,29,69,372,166,127,99,-52,-221,441,232,389,129,309,19,396,88,69,95
60311,184,166,370,-170,1,241,-138,420,663,183,70,281,450,183,46,91,194,179,124,105,-20,-164,461,252,400,139,340,6,398,91,98,132
60312,247,193,460,-184,11,259,-109,430,683,182,23,444,497,189,40,82,202,212,138,122,22,-105,482,268,413,162,421,51,443,126,138,25
60313,352,279,569,-230,17,297,-65,443,687,188,80,538,528,205,28,67,277,249,163,129,31,-180,506,278,453,202,435,132,455,145,142,-113
60314,314,292,523,-142,13,274,-68,429,683,172,99,541,518,188,14,60,288,224,159,108,-28,-253,436,255,410,157,342,145,394,101,69,4
60315,303,275,386,-77,16,212,-51,400,710,154,93,568,508,174,4,5,318,216,176,112,-68,-196,421,261,395,144,250,201,420,103,85,104
60316,131,281,311,23,2,262,-176,450,722,148,88,495,542,175,10,57,375,234,171,113,-65,-157,477,285,408,170,280,200,443,170,120,69
60317,136,291,359,-29,36,280,-269,492,732,190,139,328,560,187,29,94,463,247,193,127,-11,-147,500,306,426,205,347,174,453,173,153,28
60318,232,292,316,-18,10,285,-281,514,727,181,150,390,525,154,40,-58,501,185,157,116,-32,-8,481,277,402,163,274,173,440,140,121,29
60319,-79,234,315,177,20,276,-225,648,750,158,148,488,546,167,48,16,433,157,167,119,-2,-170,460,267,407,157,273,126,407,114,113,162
60320,81,237,326,63,31,303,-228,632,735,163,147,714,529,194,52,151,427,244,190,158,22,-274,573,309,423,166,330,88,441,164,166,172
60321,318,239,445,-90,27,372,-276,550,723,189,106,662,527,195,37,146,327,268,199,150,3,-105,568,322,454,180,393,131,472,162,164,13
60322,336,210,526,-123,12,354,-267,469,691,187,143,529,523,183,52,115,300,259,179,138,15,-158,526,306,435,199,394,146,449,135,148,63
60323,397,265,601,-191,22,334,-132,457,701,195,179,540,541,189,78,121,390,246,171,150,33,-163,513,315,419,185,372,154,443,147,162,159
60324,435,269,610,-241,5,312,-46,425,686,180,158,427,515,182,70,111,428,225,154,136,26,-159,476,299,385,157,333,28,399,106,137,126
