,Fp1,Fp2,F7,F3,Fz,F4,F8,FC5,FC1,FC2,FC6,T7,C3,Cz,C4,T8,TP9,CP5,CP1,CP2,CP6,TP10,P7,P3,Pz,P4,P8,PO9,O1,Oz,O2,PO10
156297,69,314,560,97,-106,289,259,450,-8,-162,307,271,398,-77,684,244,379,304,119,243,358,286,584,401,304,540,455,285,459,321,288,201
156298,80,331,552,92,-86,305,307,451,-15,-154,355,263,396,-66,723,315,368,300,132,263,383,351,581,386,316,557,519,290,489,380,351,318
156299,88,346,566,88,-89,333,315,452,-26,-155,349,269,402,-69,722,305,380,294,117,258,376,373,596,378,289,545,545,325,475,373,350,333
156300,111,358,570,88,-73,325,319,445,-22,-142,356,262,380,-79,722,319,395,309,129,263,386,399,610,393,284,557,572,344,491,368,342,360
156301,101,361,537,49,-86,328,316,409,-29,-157,373,253,365,-107,707,299,373,294,114,245,372,388,585,371,272,538,541,284,443,335,323,311
156302,87,354,541,46,-76,333,302,388,-46,-151,360,248,362,-97,698,305,377,287,130,247,378,382,575,379,296,534,554,310,469,363,344,327
156303,63,337,510,40,-85,325,291,349,-79,-146,336,222,325,-87,692,292,375,282,114,246,369,363,579,395,287,538,550,328,485,379,329,349
156304,45,308,505,17,-104,311,252,337,-74,-163,320,231,319,-59,669,241,362,275,111,236,353,335,566,396,298,525,530,301,500,383,344,309
156305,23,292,484,3,-99,302,262,319,-84,-154,324,202,332,-74,671,252,327,250,115,230,362,364,534,363,299,519,527,254,476,378,369,367
156306,44,314,480,10,-105,317,276,347,-74,-156,304,203,346,-81,662,232,339,262,87,231,316,316,538,352,249,507,480,272,433,304,252,207
156307,54,323,530,33,-96,325,272,389,-64,-158,311,225,339,-68,662,230,361,278,88,235,332,315,545,344,260,507,490,278,440,297,258,239
156308,66,334,567,51,-96,325,277,420,-62,-156,321,259,347,-67,675,218,364,276,102,237,349,346,559,342,278,513,510,284,467,333,314,305
156309,76,344,579,68,-81,334,308,427,-39,-158,325,257,359,-47,668,258,386,288,126,250,334,352,579,360,281,530,509,301,483,330,320,277
156310,92,323,561,67,-89,321,276,405,-55,-186,293,260,335,-66,636,234,380,279,99,238,302,320,560,347,269,481,463,291,487,347,307,265
156311,109,313,560,73,-66,306,246,418,-47,-187,271,238,322,-81,622,214,365,249,73,199,275,279,549,320,251,458,422,265,444,322,242,206
156312,126,301,555,76,-101,299,225,439,-42,-214,249,227,327,-79,600,170,335,245,69,187,257,269,528,296,229,429,393,230,393,295,208,187
156313,111,321,578,78,-111,279,166,427,-36,-227,205,231,339,-92,585,149,329,231,76,193,243,271,518,286,223,434,371,215,375,297,191,172
156314,128,364,582,69,-73,290,215,445,-14,-208,235,214,342,-90,583,144,314,224,95,180,234,228,494,264,226,402,355,206,375,284,168,129
156315,122,326,575,58,-91,294,201,447,-22,-212,230,203,352,-91,580,134,277,221,81,162,221,188,473,270,220,396,309,191,379,248,121,82
156316,87,266,568,59,-103,265,161,431,-49,-221,204,194,339,-99,575,131,286,205,69,170,210,214,472,278,208,409,328,199,379,268,158,132
156317,124,301,571,62,-100,266,215,437,-30,-198,234,226,361,-89,605,177,301,243,83,210,237,236,495,308,242,448,399,210,391,314,210,183
156318,107,298,572,64,-105,276,210,435,-36,-201,230,178,354,-80,594,169,278,228,83,191,263,212,493,313,235,444,402,203,400,336,250,193
156319,99,281,560,69,-106,261,196,421,-14,-204,245,158,339,-68,609,152,269,217,79,181,238,209,471,292,218,421,380,210,367,285,204,161
156320,58,256,511,41,-138,228,174,384,-38,-212,228,137,332,-77,590,130,261,187,65,179,225,210,451,268,209,412,379,217,353,248,174,135
156321,61,252,508,31,-139,217,192,369,-50,-215,215,134,322,-93,576,115,210,190,55,165,250,162,435,258,191,419,362,164,364,279,221,148
156322,61,236,508,63,-135,202,176,390,-19,-222,189,156,330,-66,580,106,255,221,58,157,214,198,463,275,188,426,372,217,389,320,270,195
156323,27,224,479,32,-142,182,159,368,-35,-229,182,148,338,-66,557,89,240,196,62,166,222,186,432,245,201,433,368,132,341,270,205,172
156324,49,204,494,17,-144,184,136,377,-45,-216,163,163,330,-73,578,106,214,189,65,173,237,147,413,255,204,434,361,104,310,232,186,120
156325,75,202,518,17,-133,168,116,391,-42,-218,156,178,328,-91,588,84,227,210,53,164,225,148,425,245,191,406,353,133,299,206,191,128
156326,28,182,479,24,-135,177,93,370,-46,-219,145,161,331,-94,579,110,225,214,55,164,236,183,431,236,181,407,373,132,315,238,229,207
156327,19,162,478,41,-116,166,76,366,-47,-219,141,175,338,-86,593,134,229,212,46,169,241,212,427,232,192,427,395,156,349,281,240,228
156328,6,160,498,47,-129,194,118,374,-23,-224,162,168,329,-101,583,128,246,223,52,142,215,234,439,229,186,398,385,150,314,228,180,163
156329,-3,194,503,37,-128,208,184,380,-5,-204,203,166,333,-74,587,173,240,215,67,154,243,272,450,266,203,409,391,160,342,244,198,164
156330,29,237,516,64,-120,228,248,393,-28,-210,229,201,334,-98,608,195,279,244,79,175,266,268,490,299,218,418,417,201,382,315,230,174
156331,96,332,560,83,-116,242,327,390,-34,-194,259,208,329,-107,616,212,305,246,69,168,272,244,509,305,210,423,388,243,381,284,210,158
156332,108,357,535,77,-112,172,315,384,-48,-206,262,193,322,-109,623,239,285,229,61,187,281,275,509,312,228,452,404,269,424,322,265,233
156333,62,289,477,52,-106,203,291,351,-55,-209,290,194,311,-90,643,252,303,230,70,229,316,315,529,322,237,485,463,297,477,362,335,304
156334,-19,239,433,16,-116,239,305,318,-79,-179,292,160,286,-78,655,234,314,199,64,206,307,282,514,305,222,484,451,313,441,334,294,228
156335,-41,215,381,-39,-131,218,293,270,-80,-177,302,120,276,-82,662,236,264,172,41,207,305,266,469,268,215,472,431,217,386,286,240,206
156336,-74,189,377,-26,-139,213,242,258,-70,-209,262,128,280,-75,648,227,267,183,30,209,304,265,487,272,212,472,426,215,409,289,267,202
156337,-54,219,407,-18,-133,216,262,271,-82,-205,265,158,294,-63,655,217,288,203,59,196,310,259,513,300,227,494,438,235,436,312,282,208
156338,-33,215,410,-12,-141,199,266,291,-81,-195,295,184,298,-66,668,225,314,247,74,220,316,258,534,321,248,491,432,291,492,378,300,230
156339,-40,179,429,-7,-165,163,229,315,-93,-185,281,185,321,-61,654,222,332,264,85,241,332,274,564,337,265,507,438,311,511,388,308,219
156340,-20,207,473,3,-154,188,252,332,-68,-194,277,171,330,-40,644,220,355,256,93,246,321,265,563,342,261,497,406,339,500,323,212,157
156341,-60,186,446,-11,-155,219,259,350,-67,-206,265,190,335,-37,662,228,372,279,120,259,331,273,603,376,296,529,437,394,564,394,274,206
156342,-33,192,457,-5,-136,238,291,344,-50,-187,295,211,352,-41,674,246,364,302,123,273,333,319,610,389,323,541,471,317,563,424,341,266
156343,-12,214,483,14,-134,238,296,371,-41,-175,280,218,377,-50,668,225,350,304,115,252,314,305,602,363,300,508,457,303,524,386,274,257
156344,-3,202,473,34,-145,227,306,399,-53,-213,279,221,382,-60,650,217,328,300,116,232,293,270,584,346,257,472,453,281,476,334,245,267
156345,-4,175,474,37,-138,206,286,409,-43,-211,262,239,389,-53,644,193,344,320,125,220,285,277,606,381,265,479,447,341,534,389,285,270
156346,36,201,507,51,-123,227,288,434,-14,-205,277,253,396,-41,631,202,358,316,128,206,265,264,587,356,262,438,388,278,459,307,192,125
156347,50,209,525,61,-123,240,291,452,-10,-215,286,257,398,-63,642,210,377,317,134,213,270,300,576,333,237,403,407,254,420,291,198,167
156348,48,227,530,72,-115,248,297,446,-7,-190,317,281,398,-76,663,221,365,321,139,227,261,318,580,347,247,426,429,285,450,338,251,235
156349,46,258,530,83,-86,286,322,460,-4,-195,319,283,407,-80,660,206,386,333,132,202,265,303,610,349,248,440,439,308,470,364,278,255
156350,78,259,527,102,-107,269,295,444,-17,-221,271,254,379,-109,608,158,336,295,97,161,195,254,558,324,195,391,379,240,386,264,206,186
156351,73,249,490,95,-105,269,266,435,-15,-205,256,208,358,-101,573,129,294,278,93,151,161,195,501,305,188,355,334,201,364,240,180,142
156352,37,253,478,84,-65,269,271,425,-9,-189,252,209,362,-96,593,109,306,274,90,149,153,196,494,319,192,339,316,219,380,267,179,155
156353,14,245,472,91,-81,256,254,404,-23,-207,224,208,346,-116,561,66,313,260,78,112,147,156,490,296,179,324,271,208,340,206,109,79
156354,52,267,466,104,-63,270,254,422,-7,-198,233,206,335,-90,579,89,344,256,64,154,166,162,519,299,186,335,278,232,335,212,126,123
156355,53,266,432,80,-64,274,260,391,-12,-200,234,194,336,-97,586,114,310,242,64,157,182,215,508,289,176,342,316,199,313,222,149,163
156356,48,256,445,54,-70,253,268,353,-28,-209,228,165,340,-89,582,134,299,226,75,170,172,201,512,259,190,344,306,200,329,205,136,111
156357,46,276,428,43,-78,267,287,352,-32,-201,233,180,335,-69,584,137,307,230,90,189,184,157,506,283,205,363,290,200,330,196,102,59
156358,25,257,419,41,-100,255,264,332,-36,-192,228,138,324,-58,607,154,231,212,94,209,216,190,461,280,234,411,329,89,300,209,153,80
156359,36,261,443,35,-97,268,250,354,-26,-170,242,157,336,-46,628,188,277,254,125,246,241,223,507,331,277,458,364,193,386,292,213,160
156360,43,269,472,63,-81,272,265,397,-7,-158,251,214,372,-54,644,210,358,308,165,255,281,245,598,392,321,484,404,332,481,401,267,227
156361,59,295,483,72,-85,278,299,406,-20,-164,276,239,371,-63,665,213,385,301,153,240,288,244,607,401,328,485,405,331,485,408,273,212
156362,62,314,520,90,-71,312,343,436,3,-138,322,276,391,-65,687,225,429,338,180,271,303,253,655,428,334,508,393,372,506,412,286,189
156363,61,292,507,99,-60,332,338,429,-32,-146,327,256,377,-78,695,242,375,311,159,262,311,301,615,431,311,480,412,309,487,382,272,237
156364,69,286,505,79,-74,306,315,417,-39,-150,300,254,354,-100,683,219,374,291,98,225,274,295,592,383,276,439,406,310,490,360,251,240
156365,64,275,507,67,-80,306,316,427,-41,-112,312,242,363,-96,675,181,389,279,88,190,247,250,587,367,235,415,345,292,456,313,192,155
156366,51,250,477,44,-69,330,307,404,-24,-124,327,218,355,-84,693,169,356,259,80,191,228,215,554,340,210,382,288,267,377,218,99,16
156367,36,239,464,38,-80,326,268,373,-33,-133,294,183,321,-89,669,123,279,210,52,185,189,141,471,295,183,332,224,138,330,182,73,-10
156368,-26,221,373,-7,-114,270,245,316,-73,-168,258,108,295,-100,636,81,209,172,20,165,157,152,426,257,167,326,224,115,328,223,94,25
156369,-68,194,337,-30,-128,175,209,275,-90,-206,200,72,259,-99,592,73,171,152,3,125,112,112,386,225,148,293,202,63,303,184,60,9
156370,-46,210,371,-37,-100,215,230,305,-73,-173,201,119,287,-60,598,75,206,173,22,135,113,127,422,238,172,285,190,85,281,129,4,-23
156371,-25,181,353,-44,-132,263,214,291,-91,-188,187,100,264,-62,564,82,177,156,11,124,103,172,407,230,153,290,234,103,280,125,17,23
156372,-23,198,381,-52,-124,234,231,304,-99,-209,195,90,268,-69,572,85,182,154,21,130,126,171,382,226,159,318,255,107,287,145,70,47
156373,-30,231,391,-53,-117,261,241,308,-93,-184,210,94,260,-64,587,101,191,166,41,165,147,187,400,230,190,349,289,100,331,203,137,105
156374,-17,239,402,-34,-114,261,250,300,-107,-173,228,123,239,-61,590,103,209,155,47,192,173,181,416,215,213,361,282,133,317,188,125,59
156375,-13,274,406,-24,-101,267,277,306,-106,-167,244,150,245,-66,598,127,249,162,38,193,196,226,439,224,217,380,290,208,341,189,86,17
156376,19,322,434,-9,-91,307,336,296,-105,-155,299,186,242,-48,649,211,231,156,40,222,245,321,440,230,223,438,393,162,355,243,167,135
156377,48,353,461,-3,-88,319,369,312,-116,-157,338,188,217,-55,673,266,258,159,25,235,297,364,473,242,233,496,479,194,415,328,278,268
156378,73,377,479,16,-75,354,415,335,-101,-134,377,194,220,-77,703,288,302,177,18,236,316,364,520,272,236,513,488,235,448,358,309,275
156379,94,387,494,17,-57,383,454,369,-103,-133,409,196,239,-108,725,321,313,180,17,236,327,371,520,279,226,520,489,253,451,371,297,228
156380,87,358,518,27,-63,381,419,391,-90,-134,404,218,276,-111,731,327,358,204,34,241,376,431,573,308,245,555,553,305,520,427,385,315
156381,106,373,530,41,-49,392,437,417,-53,-121,430,275,296,-136,756,360,395,255,42,257,407,490,604,351,257,597,620,369,576,483,440,450
156382,100,355,528,53,-50,382,424,435,-38,-125,428,298,332,-136,749,352,418,275,66,245,396,428,629,389,266,581,586,406,600,494,451,377
156383,71,320,518,46,-68,385,412,429,-38,-173,395,280,328,-149,725,328,405,268,71,240,380,405,628,382,275,569,557,397,582,485,432,349
156384,50,322,430,11,-76,369,397,384,-58,-161,386,241,299,-124,733,293,374,250,63,238,357,392,601,350,251,539,522,321,530,439,351,283
156385,19,315,409,-1,-73,368,394,336,-65,-127,400,227,289,-104,744,304,341,241,66,256,370,398,601,353,255,550,538,320,547,440,368,319
156386,5,306,416,-9,-82,346,396,320,-58,-132,404,192,285,-78,741,314,308,227,60,260,366,424,548,352,249,553,567,316,569,469,422,380
156387,-25,256,413,-35,-98,307,344,301,-82,-156,347,137,284,-58,704,249,276,203,53,244,326,326,511,316,226,519,496,291,541,440,374,287
156388,-38,216,401,-48,-120,309,308,265,-98,-156,336,126,267,-41,706,247,260,180,65,248,309,295,498,298,232,503,478,271,524,410,343,280
156389,-28,240,407,-38,-114,318,331,276,-88,-155,326,137,273,-29,713,254,268,174,63,260,317,330,495,293,211,483,515,244,515,426,382,335
156390,-36,229,423,-29,-130,292,326,296,-97,-165,327,145,275,-36,713,241,293,189,79,239,288,341,512,299,221,477,479,275,526,441,378,312
156391,20,263,457,-6,-119,317,371,348,-69,-157,366,199,315,-16,739,284,353,240,114,264,310,388,571,314,257,494,482,378,548,430,323,311
156392,48,292,463,-1,-107,318,382,361,-50,-165,387,205,320,-17,737,280,364,247,90,255,296,362,568,308,252,478,458,396,553,393,278,259
156393,29,305,460,-6,-112,298,380,352,-69,-173,396,185,317,-32,714,264,314,210,59,244,271,342,533,281,217,440,405,326,492,369,236,207
156394,22,303,451,-20,-130,275,346,353,-74,-202,355,186,310,-30,698,241,329,216,78,251,262,343,519,279,228,434,397,311,469,343,219,219
156395,-7,266,425,-33,-140,268,295,351,-78,-212,301,162,278,-25,691,216,311,182,63,240,225,311,502,272,217,411,360,260,418,286,160,133
156396,-11,261,405,-14,-120,243,290,336,-84,-198,268,146,283,-26,686,200,284,168,73,255,229,320,499,294,234,404,353,265,431,280,176,146
156397,30,270,429,-9,-130,243,294,336,-70,-216,291,135,292,-33,674,197,269,168,62,237,223,325,494,273,222,397,366,270,418,284,181,163
156398,26,245,409,-4,-129,228,287,325,-81,-208,287,114,278,-54,659,185,276,174,44,210,216,322,451,267,193,384,381,236,394,256,133,159
156399,44,269,449,26,-112,258,322,337,-90,-198,325,159,292,-47,671,211,300,213,64,227,255,369,482,310,230,412,416,289,440,304,178,211
156400,73,293,474,44,-101,276,357,347,-71,-200,332,181,310,-51,693,243,329,233,74,237,274,418,539,334,243,426,454,338,482,359,214,256
156401,82,314,469,32,-95,271,337,328,-76,-205,316,172,327,-71,677,259,336,242,87,226,276,443,542,343,242,448,472,352,480,380,242,266
156402,74,334,464,44,-100,280,328,335,-59,-213,315,191,330,-77,667,272,335,257,89,217,266,438,557,349,249,448,448,348,488,365,242,258
156403,97,332,478,52,-77,282,342,358,-54,-196,316,203,338,-88,656,262,332,268,97,205,258,456,547,369,257,436,457,301,459,349,262,278
156404,127,337,522,54,-63,292,364,390,-50,-181,319,227,349,-89,631,256,343,281,125,208,257,507,559,395,260,442,483,284,452,383,291,312
156405,73,313,532,42,-86,283,343,372,-47,-187,297,219,363,-85,624,269,365,302,125,199,247,479,580,389,265,448,493,319,476,404,312,333
156406,54,281,477,16,-96,279,320,347,-53,-199,272,212,371,-75,614,256,404,312,131,205,248,461,602,393,283,479,508,396,544,456,334,339
156407,53,281,464,10,-84,224,309,349,-39,-234,264,179,355,-64,599,242,362,285,127,213,234,462,542,386,268,472,480,262,443,363,296,298
156408,29,287,439,-10,-91,181,298,337,-52,-252,250,165,359,-56,580,213,337,284,132,211,220,439,526,367,251,451,460,283,464,345,265,282
156409,4,252,414,-17,-112,241,264,320,-50,-226,237,163,380,-39,566,199,339,287,143,194,203,431,582,364,273,456,454,348,468,375,263,262
156410,21,246,393,-74,-129,224,242,312,-55,-247,223,129,368,-37,548,161,278,261,144,197,200,395,537,353,269,436,454,241,396,344,216,227
156411,42,239,409,-69,-144,215,234,324,-63,-248,206,157,368,-31,538,156,312,285,155,212,190,363,568,383,289,463,450,293,457,382,260,260
156412,46,250,435,-4,-139,243,240,312,-33,-232,231,189,370,-37,552,161,353,313,145,236,198,335,579,397,319,487,445,294,458,389,270,245
156413,47,236,467,19,-113,240,237,328,-45,-222,232,203,384,-39,574,191,367,329,182,244,236,357,603,426,351,502,436,330,495,391,284,263
156414,61,240,459,19,-109,220,236,327,-40,-228,218,205,377,-51,594,200,362,305,182,249,227,359,584,401,334,498,428,294,492,398,295,242
156415,94,269,464,42,-125,243,263,337,-32,-216,247,189,370,-29,618,197,348,262,153,264,233,351,557,376,317,504,440,304,474,400,291,259
156416,48,217,407,16,-144,214,232,303,-64,-223,232,157,343,-50,620,192,311,227,126,262,234,339,532,352,312,494,427,276,456,359,275,216
156417,29,209,408,1,-145,211,230,285,-63,-211,230,168,322,-37,635,206,338,217,131,271,254,312,560,370,323,503,432,317,485,398,316,234
156418,33,219,433,3,-142,236,251,328,-46,-183,269,195,338,-23,669,204,404,254,135,298,280,346,602,397,345,513,444,439,539,451,349,274
156419,47,215,457,5,-124,246,247,327,-38,-171,288,209,329,-16,687,196,396,262,138,305,272,359,615,399,347,521,441,454,568,471,336,278
156420,40,222,440,-8,-116,257,246,320,-62,-165,276,197,294,-31,679,206,326,244,124,303,269,343,542,370,330,506,429,247,471,392,287,204
156421,40,212,456,-8,-147,230,230,327,-64,-181,280,194,307,-35,689,216,365,251,131,306,292,344,558,359,325,501,435,293,466,378,268,215
156422,47,224,458,15,-139,237,230,339,-61,-182,283,220,325,-8,707,233,386,266,156,331,295,373,599,392,337,538,451,330,501,383,264,224
156423,39,214,427,26,-127,224,227,350,-49,-192,246,223,338,-12,676,189,427,296,175,319,270,318,682,400,348,506,434,273,491,360,237,200
156424,16,200,369,-11,-129,210,204,297,-52,-209,209,165,333,-27,642,154,351,261,167,284,239,277,614,400,329,479,394,155,428,328,208,163
156425,-41,156,331,-30,-155,181,119,276,-61,-238,172,102,299,-11,618,152,267,227,156,262,218,236,525,383,315,478,378,183,446,347,215,147
156426,-26,165,335,-41,-139,158,116,269,-52,-243,151,98,302,-11,633,134,247,236,158,271,226,271,499,386,323,487,377,181,446,344,218,144
156427,-1,198,370,-33,-129,182,136,258,-51,-246,148,108,320,-35,599,135,256,226,144,274,222,288,498,398,306,458,378,198,416,319,176,139
156428,-2,203,364,-36,-132,169,136,275,-47,-254,177,148,330,-67,598,170,301,229,144,261,227,289,546,407,332,475,377,278,442,311,168,148
156429,48,226,404,-14,-122,198,153,295,-39,-237,211,198,342,-66,616,171,341,273,151,242,228,313,601,425,316,475,379,299,488,349,189,124
156430,45,208,416,-6,-138,188,138,315,-29,-238,212,197,341,-81,621,176,379,294,157,262,240,332,628,452,323,490,420,342,538,412,247,171
156431,27,232,396,-8,-114,202,145,289,-51,-226,210,210,340,-71,640,184,370,285,153,250,236,321,613,444,321,483,392,333,528,370,236,143
156432,-5,231,352,-16,-109,242,187,252,-45,-210,227,167,311,-53,643,212,338,260,133,233,248,378,567,415,289,477,418,274,477,360,225,224
156433,-16,235,351,-12,-107,251,193,245,-44,-205,242,135,306,-68,633,206,307,249,105,229,239,405,541,382,259,472,455,275,464,371,255,274
156434,4,254,358,-22,-87,289,197,242,-74,-200,259,136,282,-76,643,206,290,232,90,218,221,374,506,359,228,444,442,268,475,364,283,274
156435,33,256,374,-30,-86,310,217,226,-76,-177,258,137,261,-87,637,221,310,212,59,208,225,344,501,333,224,424,409,267,426,323,235,203
156436,89,309,399,-5,-64,346,252,228,-72,-164,295,142,256,-92,658,236,298,185,48,203,227,384,483,302,208,407,402,253,394,283,182,160
156437,101,343,420,10,-51,355,270,256,-69,-156,291,152,255,-91,680,257,298,207,56,235,244,383,498,314,222,424,421,262,419,300,183,190
156438,87,312,417,-4,-73,318,217,251,-89,-164,260,132,253,-64,656,234,275,189,60,226,215,381,476,305,229,403,424,207,410,299,200,210
156439,89,298,433,-3,-76,287,223,260,-69,-178,252,148,279,-56,653,200,285,211,74,215,210,393,484,315,246,398,436,241,440,330,238,221
156440,110,325,461,14,-75,299,233,290,-66,-170,257,178,296,-36,641,179,309,226,117,222,210,382,499,332,240,414,419,248,445,340,247,246
156441,123,300,473,7,-93,279,212,301,-63,-173,233,192,291,-38,645,157,326,242,118,223,186,348,509,348,248,414,373,257,452,334,198,203
156442,112,308,462,2,-105,269,174,294,-68,-186,209,199,291,-13,614,125,324,235,96,225,153,294,501,337,232,378,346,253,432,287,152,132
156443,93,301,455,-6,-103,256,162,292,-63,-175,210,189,305,2,613,132,333,231,115,234,148,283,515,344,238,387,345,264,413,286,119,105
156444,117,321,480,14,-75,198,195,323,-60,-174,203,215,330,13,630,159,347,253,159,252,191,319,539,348,264,415,374,286,433,290,161,151
156445,121,333,510,20,-80,221,202,335,-56,-170,224,234,354,7,635,182,352,272,160,273,215,345,563,371,271,434,406,306,468,321,205,211
156446,132,330,518,27,-84,261,217,356,-58,-182,252,253,353,4,664,202,368,302,165,276,239,372,596,411,308,462,436,348,498,339,225,225
