,Fp1,Fp2,F7,F3,Fz,F4,F8,FC5,FC1,FC2,FC6,T7,C3,Cz,C4,T8,TP9,CP5,CP1,CP2,CP6,TP10,P7,P3,Pz,P4,P8,PO9,O1,Oz,O2,PO10
21015,280,453,143,9,-49,351,-36,305,80,35,-48,-49,83,74,34,-248,-98,292,117,267,-178,-219,164,267,216,378,314,-60,307,208,201,-165
21016,281,432,167,11,-37,359,-69,296,79,28,-12,-20,69,83,44,-265,-97,283,101,265,-176,-289,156,257,231,385,427,-148,257,179,160,-212
21017,231,353,115,-39,-26,317,-87,261,43,-20,-81,-103,33,46,13,-237,-179,234,75,234,-172,-323,75,237,210,391,518,-208,205,151,178,-315
21018,146,294,38,-105,-36,268,-118,192,-18,-82,-162,-186,-14,-12,-65,-385,-264,173,15,161,-279,-319,15,175,173,287,275,-222,139,87,75,-421
21019,109,266,14,-109,-39,243,-123,179,-38,-98,-170,-234,-38,-42,-84,-444,-292,115,-33,124,-324,-399,-55,113,120,236,42,-349,39,-18,-40,-621
21020,121,295,74,-72,-39,252,-141,224,-1,-68,-176,-165,8,-11,-66,-447,-234,164,8,162,-305,-447,6,153,140,271,-5,-240,103,62,41,-470
21021,224,332,130,-68,-38,285,-113,267,26,-71,-198,-99,30,-1,-61,-367,-160,201,34,182,-311,-378,37,154,157,286,11,-263,119,61,35,-430
21022,343,388,183,-21,-44,334,-34,298,41,-44,-111,-66,45,7,-10,-238,-140,232,55,209,-251,-300,32,155,185,323,99,-300,137,99,71,-340
21023,378,452,282,14,-44,367,12,330,84,-5,-101,-1,116,35,20,-206,-116,303,102,257,-194,-321,141,234,252,364,159,-100,231,177,118,-284
21024,378,523,264,14,-49,399,42,354,95,10,-55,34,153,89,55,-103,-58,350,162,315,-129,-229,207,295,317,423,255,-109,277,213,167,-260
21025,353,536,205,-2,-38,407,58,349,117,34,49,14,176,126,108,-71,-31,362,185,341,-53,-86,183,329,353,489,313,-76,316,265,217,-174
21026,298,453,161,-30,-35,387,46,327,110,11,-6,11,159,97,65,-211,-74,319,160,313,-89,-150,92,293,306,442,232,-175,223,169,133,-263
21027,231,393,113,-86,-23,322,-15,287,55,-20,-65,-32,121,52,30,-240,-115,302,119,299,-113,-139,78,285,289,426,240,-163,213,175,157,-150
21028,177,349,51,-165,-33,288,-58,186,-15,-76,-55,-146,40,0,0,-231,-208,249,67,248,-133,-141,99,242,262,393,219,-84,218,165,102,-236
21029,187,354,28,-185,-61,248,-52,157,-61,-95,-16,-159,22,-18,12,-264,-218,261,79,250,-119,-197,175,274,264,418,257,37,294,207,170,-188
21030,231,389,65,-143,-49,279,-4,214,6,-51,-6,-55,80,37,65,-113,-69,320,141,317,-35,-176,188,342,328,480,324,73,349,266,234,-190
21031,226,402,106,-108,-54,328,46,253,23,10,39,-14,108,79,133,-4,-16,337,174,381,35,-163,149,334,352,509,331,-72,298,218,171,-313
21032,242,412,129,-98,-51,365,66,273,75,56,123,-30,130,119,215,34,-77,329,182,424,86,-42,122,350,378,575,406,-150,281,222,180,-208
21033,240,470,133,-84,-43,389,101,274,98,85,166,-29,115,137,242,15,-74,322,200,443,112,-32,125,355,387,605,472,-155,291,297,266,-119
21034,216,426,118,-90,-40,386,112,262,89,89,151,-27,104,142,257,-1,-115,327,185,457,97,-68,160,359,406,585,503,-59,368,338,313,-102
21035,207,398,85,-89,-32,413,71,282,93,106,137,5,108,141,272,-3,-97,335,169,461,115,-8,188,335,376,572,524,-22,360,334,281,-99
21036,166,390,75,-118,-34,417,83,232,53,85,160,-42,74,112,263,27,-103,287,131,436,136,-33,154,290,350,559,599,-92,328,308,285,-25
21037,126,366,7,-163,-37,361,66,134,16,50,141,-146,33,61,223,21,-136,248,99,373,85,-17,128,259,308,539,592,-104,296,297,281,-128
21038,51,359,-86,-182,-29,309,-43,131,-31,-14,51,-209,-13,-10,130,-69,-168,184,43,289,-9,-153,96,213,244,445,429,-229,221,210,187,-222
21039,-12,332,-129,-215,-36,292,-105,101,-64,-51,32,-236,-48,-28,109,-84,-253,162,24,244,-41,-284,55,161,181,343,288,-245,135,80,55,-300
21040,21,266,-140,-193,-33,315,-4,128,-35,-17,77,-230,-29,0,127,-124,-267,191,56,256,-28,-161,73,183,210,368,330,-298,130,152,148,-70
21041,63,254,-140,-150,-41,335,46,174,9,24,98,-147,41,51,149,-112,-173,274,106,321,10,-77,226,298,270,453,413,-211,286,279,308,95
21042,78,251,-97,-117,-53,387,54,209,44,58,122,-130,76,80,184,-2,-139,267,134,355,59,-86,173,283,294,487,449,54,373,305,317,52
21043,74,266,-74,-103,-46,421,78,213,51,68,117,-148,83,89,197,70,-130,258,158,386,76,7,146,309,321,504,502,131,386,283,310,30
21044,100,278,-17,-62,-34,458,102,257,96,99,132,-82,139,114,223,0,-67,334,207,414,69,-10,250,357,368,515,499,125,394,274,288,-160
21045,96,203,2,-42,-45,442,64,290,115,117,127,-49,152,130,224,-10,-97,339,195,420,63,-120,192,328,354,511,474,12,338,256,261,-247
21046,74,189,-13,-55,-38,409,46,260,86,89,110,-117,108,87,184,-39,-171,258,122,355,1,-101,50,235,269,441,374,-158,174,49,51,-356
21047,-6,99,-50,-128,-40,352,-51,192,22,10,18,-198,38,13,108,-174,-244,171,55,263,-73,-57,-36,124,181,356,343,-244,64,-15,15,-323
21048,-99,52,-123,-153,-31,295,-86,140,-32,-53,-70,-234,-30,-31,34,-247,-300,100,-4,212,-125,-73,-87,59,135,318,342,-469,-43,-25,115,-167
21049,-88,90,-153,-161,-40,278,-74,84,-54,-64,-77,-253,-58,-59,24,-208,-295,85,-41,197,-142,-86,-62,54,108,298,298,-427,-11,-36,19,-229
21050,-10,157,-107,-132,-51,294,28,123,-35,-57,-60,-212,-42,-63,16,-106,-267,135,-20,186,-187,-138,1,80,80,235,147,-317,8,-125,-190,-537
21051,14,218,-88,-94,-29,339,80,151,19,-3,-16,-209,13,-9,49,19,-224,189,41,242,-121,-96,65,167,156,316,198,-152,125,-17,-65,-376
21052,28,241,-50,-72,-47,329,-2,192,31,-2,28,-135,45,20,53,-84,-199,207,60,246,-113,-143,75,177,177,323,249,-182,126,28,3,-268
21053,83,274,-2,-45,-41,367,-71,241,62,29,33,-122,75,43,36,-113,-180,233,77,245,-131,-259,92,206,189,318,268,-185,151,70,49,-238
21054,92,270,32,-8,-35,387,-15,230,93,45,43,-198,94,69,69,-13,-143,261,116,285,-97,-77,161,263,242,390,387,0,276,166,130,-152
21055,56,223,23,12,-33,401,-30,242,78,41,1,-191,96,56,48,-155,-131,260,121,260,-155,-31,193,248,224,347,337,42,266,145,45,-347
21056,35,207,-31,-9,-36,380,-21,208,48,-3,-17,-166,77,10,0,-313,-148,223,79,215,-268,-138,158,216,175,254,159,-119,167,33,-84,-448
21057,8,189,-110,-65,-51,312,-44,155,11,-65,-95,-240,40,-30,-75,-308,-164,171,44,141,-308,-171,90,170,145,191,87,-160,125,-24,-94,-412
21058,-45,150,-151,-121,-32,281,-68,127,-26,-93,-150,-272,1,-46,-131,-274,-129,171,6,136,-323,-248,119,176,132,179,66,-41,183,25,-24,-398
21059,-74,144,-177,-178,-51,223,-87,89,-57,-125,-172,-271,-44,-76,-139,-230,-196,133,-24,115,-311,-200,71,161,114,198,138,-127,166,53,32,-154
21060,-23,204,-155,-150,-42,254,-78,117,-41,-108,-134,-243,-29,-67,-94,-219,-226,123,-21,99,-330,-227,52,126,94,155,133,-230,118,-27,-75,-398
21061,30,196,-102,-113,-49,323,10,144,-22,-68,-39,-195,-6,-35,-53,-183,-167,172,-1,146,-248,-149,99,146,132,181,188,-210,128,-7,-60,-409
21062,100,250,-23,-86,-58,320,49,214,1,-55,9,-177,8,-13,-32,-144,-51,209,30,172,-207,-142,165,215,160,264,218,-154,202,73,28,-337
21063,181,345,41,-34,-39,375,147,281,49,15,76,-96,93,37,22,-91,57,298,106,249,-134,-68,260,315,257,362,291,27,348,245,246,-135
21064,192,420,98,2,-54,412,192,324,75,22,86,-19,133,52,28,-59,60,354,156,299,-74,62,268,350,307,401,302,91,391,283,277,-42
21065,211,371,170,59,-44,424,177,339,110,25,41,12,163,79,32,22,68,384,186,322,-48,117,292,387,327,417,386,70,407,283,300,-14
21066,226,299,177,32,-30,402,140,360,98,-14,56,50,161,60,18,5,48,381,174,292,-75,11,247,343,306,392,339,1,330,201,166,-131
21067,148,260,97,-24,-48,290,59,356,57,-81,-27,-19,95,-21,-35,4,-45,321,114,241,-101,-185,180,292,255,345,280,-50,276,158,106,-223
21068,101,218,93,-71,-41,245,-3,296,6,-136,-99,-53,68,-53,-97,-64,-71,305,69,213,-142,-241,167,252,192,295,219,-59,263,149,87,-266
21069,54,193,78,-92,-53,257,-36,251,-17,-131,-83,-94,33,-60,-103,-178,-92,265,51,192,-180,-155,125,213,168,241,161,-70,237,131,58,-305
21070,49,212,70,-74,-47,243,-35,240,4,-104,-59,-99,46,-35,-61,-157,-91,249,66,220,-138,-30,108,226,216,300,240,-123,212,135,72,-269
21071,80,258,116,-38,-33,252,0,269,26,-82,-29,-42,88,3,-18,-140,-32,291,93,258,-104,-58,141,266,239,362,298,-76,219,171,96,-312
21072,142,268,160,-20,-39,293,15,311,47,-55,-10,-23,91,29,24,-126,-63,315,123,304,-69,-34,162,291,264,403,321,-33,271,213,166,-250
21073,200,313,170,7,-49,342,110,342,71,-11,29,-2,115,48,82,-84,-6,309,139,334,-37,-35,184,307,284,419,321,-11,290,201,192,-135
21074,171,328,173,34,-48,357,124,376,106,13,43,20,149,74,120,-53,5,336,180,372,-3,-91,205,328,309,436,295,0,287,193,191,-74
21075,166,303,181,24,-42,362,86,369,101,24,64,23,149,74,129,-28,-30,353,181,368,32,-46,182,325,317,460,366,-7,306,217,230,-67
21076,110,286,119,-10,-49,314,30,314,67,-2,24,-3,119,24,87,-60,-106,295,133,303,-40,-84,115,249,257,408,300,-8,247,108,83,-265
21077,31,206,52,-69,-58,257,-38,277,19,-70,-34,-63,75,-25,51,-142,-221,213,61,249,-93,-173,15,155,168,296,195,-151,114,13,-6,-407
21078,-22,117,-2,-111,-27,229,-83,224,-11,-85,-77,-179,29,-48,10,-262,-201,175,17,197,-150,-236,-27,107,139,271,117,-257,71,-26,-15,-358
21079,-80,87,-66,-149,-40,174,-155,174,-53,-111,-93,-212,-26,-84,-16,-342,-221,147,-6,165,-214,-224,4,84,99,236,45,-308,62,-59,-16,-301
21080,-55,65,-53,-114,-36,241,-155,199,-31,-89,-9,-168,-3,-65,9,-200,-140,179,-4,172,-176,-339,80,121,96,246,93,-267,97,-46,-13,-353
21081,47,75,64,-84,-32,305,-113,250,3,-44,71,-137,22,-35,44,81,-181,208,28,206,-106,-327,65,144,126,292,196,-72,156,-1,-22,-448
21082,47,72,111,-46,-26,341,-133,272,14,-13,19,-86,48,-25,50,48,-217,197,21,220,-86,-217,12,135,131,310,275,-27,133,23,11,-370
21083,58,200,125,-28,-40,367,-99,267,31,9,97,-106,45,-31,85,-51,-187,179,18,229,-60,-87,-39,85,124,314,316,-313,21,-21,43,-203
21084,73,251,161,18,-54,408,-168,313,59,8,128,-55,65,-15,76,-54,-136,229,30,213,-61,66,31,108,125,308,315,-299,-2,-56,-24,-259
21085,107,255,193,44,-42,373,-130,368,64,2,82,44,103,-18,72,-92,-97,282,48,217,-83,-130,94,140,129,300,293,-172,20,-62,-48,-282
21086,131,241,170,-11,-64,348,-56,336,32,-41,47,-14,53,-69,28,-162,-111,203,4,159,-129,-279,-10,51,54,231,217,-401,-111,-181,-151,-523
21087,106,273,131,-22,-62,342,-67,308,-12,-77,29,-64,27,-96,0,-142,-129,155,-23,123,-153,-84,-67,30,19,188,191,-287,-66,-159,-149,-464
21088,129,220,143,-41,-40,261,-70,293,-39,-136,-24,-67,0,-141,-35,-123,-149,150,-57,86,-201,-71,-75,0,1,156,94,-338,-78,-157,-127,-290
21089,146,154,120,-57,-43,239,-66,276,-33,-145,-67,-78,0,-135,-41,-55,-115,195,-44,108,-184,-101,37,78,30,191,132,-301,15,-61,-33,-172
21090,146,174,140,-55,-44,257,23,261,-14,-107,25,-52,23,-90,2,-33,-71,236,-3,162,-106,24,80,133,96,275,252,-207,89,37,76,-90
21091,154,240,166,-30,-56,295,92,280,6,-88,28,-56,39,-74,10,-129,-63,239,19,191,-84,57,56,150,140,328,316,-205,109,81,141,-42
21092,215,317,185,25,-53,336,183,345,35,-40,92,13,96,-31,62,-108,30,309,72,219,-73,25,200,248,178,339,314,-106,203,112,131,-109
21093,241,354,202,43,-37,378,203,386,69,-2,156,56,118,-4,75,-79,86,343,65,223,-86,-57,256,244,180,296,228,64,264,87,5,-326
21094,268,366,208,55,-53,398,204,391,81,10,159,81,148,4,82,-77,117,328,65,215,-86,-84,194,218,179,301,224,88,236,62,-11,-390
21095,288,356,262,73,-44,420,212,422,106,35,154,188,182,41,111,-51,162,393,104,269,-69,-19,241,287,212,350,309,151,280,119,89,-266
21096,244,300,245,50,-46,392,248,374,92,-3,138,154,133,-2,117,-40,122,360,93,270,-43,39,214,284,194,344,376,10,212,70,90,-235
21097,237,264,206,23,-31,341,201,363,50,-40,58,-7,89,-43,54,-99,32,287,44,212,-104,19,116,204,147,295,336,-196,49,-28,20,-273
21098,189,221,148,-33,-44,263,42,309,-15,-113,-36,-138,45,-91,-32,-158,-49,253,1,154,-175,-24,76,156,100,257,248,-274,5,-52,-10,-226
21099,149,215,54,-67,-41,252,10,273,-16,-129,-53,-84,45,-88,-33,-166,13,281,35,161,-186,-110,113,201,120,264,182,-162,113,42,66,-157
21100,163,245,114,-20,-25,254,65,287,22,-100,-48,-25,74,-31,-20,-87,-87,310,76,199,-135,-183,121,262,185,317,273,-50,206,128,178,10
21101,162,305,151,-3,-20,268,103,309,42,-64,-1,-16,122,-13,5,-17,-213,316,91,218,-115,-118,102,250,177,310,278,-170,135,31,63,-151
21102,217,305,194,18,-44,306,43,336,72,-49,68,-10,142,-6,10,-86,-86,349,108,206,-168,-112,164,281,162,250,115,-125,124,-91,-155,-460
21103,259,342,263,72,-44,354,51,409,115,-19,123,25,169,35,20,-22,86,403,166,241,-123,-141,246,341,212,321,130,1,199,-5,-55,-356
21104,259,393,265,81,-39,402,152,419,126,15,155,83,176,86,69,40,45,421,175,301,-37,-147,275,360,260,383,212,84,272,108,74,-221
21105,248,407,267,98,-38,385,167,409,132,23,167,94,174,87,95,90,-5,401,194,312,-9,-276,299,355,281,402,271,77,304,153,126,-176
21106,246,400,251,67,-39,345,159,346,95,-9,150,28,114,40,73,88,-46,336,128,250,-32,-345,212,296,211,354,227,-91,200,26,13,-311
21107,231,361,217,-7,-59,323,101,290,38,-60,97,-38,56,-10,11,-37,-89,271,44,196,-91,-222,118,200,142,280,142,-164,131,-51,-76,-516
21108,149,279,156,-30,-37,272,29,255,-13,-124,54,-87,22,-88,-49,-65,-99,229,-22,133,-154,-245,70,147,87,234,111,-181,56,-107,-143,-667
21109,134,225,128,-29,-28,265,39,249,-17,-125,-39,-86,19,-102,-23,-2,-45,241,-17,146,-145,-260,130,161,81,246,130,-34,143,-22,-54,-409
21110,115,227,128,-36,-35,296,65,275,2,-90,0,-78,49,-67,22,11,-29,260,29,197,-93,-140,162,206,143,299,186,100,219,75,52,-160
21111,119,241,156,-20,-53,300,74,308,10,-72,88,-22,56,-48,61,40,-65,264,33,239,-85,-157,165,197,164,319,189,100,217,18,4,-350
21112,149,268,192,2,-44,321,123,341,58,-36,107,-6,77,-3,112,64,-16,281,66,264,-66,-168,174,222,172,358,182,-6,203,30,35,-357
21113,176,339,216,26,-34,382,239,369,94,13,161,13,114,35,163,190,6,291,96,299,-29,-148,204,230,196,353,142,-129,141,10,-25,-481
21114,201,379,225,56,-51,403,235,352,110,44,224,44,120,48,180,286,2,300,91,337,44,-48,200,246,207,402,257,-329,98,15,18,-337
21115,210,380,241,62,-41,432,157,355,121,69,301,44,124,59,211,134,46,294,95,355,66,14,134,277,243,446,322,-237,121,40,60,-284
21116,175,321,200,25,-41,384,135,370,82,32,263,-13,112,35,175,-60,12,254,80,304,17,-64,61,217,192,378,328,-155,142,-1,45,-266
21117,124,282,154,-14,-35,335,167,347,51,-18,124,-4,87,-4,125,-62,-29,251,53,277,16,-209,100,184,140,356,344,-127,143,3,29,-308
21118,77,229,112,-47,-28,268,124,282,30,-50,34,-63,44,-33,84,-48,-101,221,32,239,2,-186,64,153,116,325,347,-120,114,-33,-66,-472
21119,35,138,30,-62,-25,255,56,225,-11,-81,40,-128,2,-51,66,-85,-191,169,6,203,-49,-71,-1,106,86,283,261,-182,57,-48,-100,-545
21120,54,176,46,-48,-35,263,66,222,0,-78,27,-99,4,-42,61,-85,-171,172,3,204,-54,-115,-5,109,95,282,176,-260,70,-39,-2,-347
21121,67,204,98,-40,-43,281,138,254,30,-44,77,-12,61,-18,97,-70,-80,189,48,223,-40,-67,41,133,133,299,164,-281,80,-1,31,-245
21122,115,250,139,-15,-47,335,191,297,47,-13,127,-46,89,5,104,-102,45,211,61,216,-106,28,57,153,123,252,80,-185,78,-38,-108,-359
21123,132,292,169,14,-40,386,192,297,85,31,157,-88,106,51,110,-99,38,230,84,244,-98,3,103,200,148,286,127,-65,127,20,-17,-305
21124,165,264,220,42,-43,412,163,332,106,43,109,-11,134,59,129,-68,-16,280,114,254,-62,27,153,233,182,328,216,5,171,81,99,-132
21125,171,270,219,48,-39,419,176,357,105,42,149,10,133,40,150,43,-28,279,100,258,-37,5,136,202,172,316,262,-99,147,47,79,-166
21126,124,255,190,26,-42,388,69,352,78,9,125,-6,108,-7,119,-14,-94,273,64,223,-84,8,150,199,143,277,222,-76,109,-6,9,-194
21127,40,186,137,0,-49,320,-106,315,38,-41,-6,-54,71,-51,41,-100,-169,236,15,165,-173,-118,155,177,97,201,145,-52,51,-59,-72,-326
21128,-6,133,95,-36,-51,225,-104,274,-3,-94,-45,-95,16,-81,-8,-37,-111,155,-31,131,-213,-327,75,101,47,171,65,-336,-26,-122,-159,-494
21129,4,150,77,-87,-38,214,-3,233,-17,-105,29,-140,-5,-99,-5,-23,-168,114,-47,107,-191,-334,-76,58,26,168,53,-425,-85,-144,-173,-454
21130,1,154,58,-71,-49,236,84,283,-4,-92,4,-70,15,-67,6,-82,-207,145,-24,122,-183,-268,-105,79,37,169,93,-344,-42,-128,-162,-411
21131,39,140,108,-57,-46,251,80,281,44,-57,8,37,73,-38,32,-170,-111,205,4,152,-170,-185,-20,117,74,212,134,-275,22,-90,-101,-354
21132,114,211,173,-12,-42,275,111,324,81,0,35,64,125,28,73,-170,-32,277,63,215,-120,-122,82,167,138,281,223,-218,83,8,37,-185
21133,159,264,191,26,-50,302,121,362,99,42,83,36,155,62,132,-84,-70,299,108,271,-51,7,86,210,176,359,325,-167,94,53,85,-117
21134,186,279,223,17,-59,328,133,374,107,64,86,83,155,69,129,-24,-25,292,90,267,-55,-38,108,218,176,342,287,-118,113,29,-2,-196
21135,169,234,208,2,-63,350,103,382,113,53,85,150,151,75,114,-66,-36,309,103,268,-45,-23,176,249,196,347,306,-70,165,99,98,-114
21136,156,203,206,12,-39,309,44,396,128,30,21,151,179,78,84,-88,69,312,105,272,-83,-61,227,257,196,334,240,15,184,64,37,-245
21137,101,129,161,-35,-43,281,-67,348,56,-10,-12,35,98,29,46,-239,-9,240,50,206,-194,-203,111,184,123,253,122,-1,134,-16,-60,-380
21138,51,69,123,-89,-49,253,-156,277,15,-72,-26,-74,40,-32,-27,-317,-139,161,-3,145,-265,-326,45,112,54,199,60,-176,31,-88,-102,-467
21139,49,71,154,-91,-33,209,-218,238,19,-89,-80,34,35,-24,-62,-261,-114,185,7,128,-269,-303,85,142,61,185,81,-116,70,-57,-91,-450
21140,62,112,128,-100,-27,198,-192,274,17,-76,-140,54,56,-15,-73,-162,-45,210,40,155,-256,-212,181,188,93,202,122,-114,126,5,-8,-320
21141,43,125,138,-65,-48,235,-149,325,43,-57,-106,-7,85,-4,-68,-95,-88,204,41,185,-228,-272,83,151,106,238,195,-203,65,12,25,-287
21142,109,176,236,-8,-53,263,-28,340,73,-41,-126,48,93,15,-48,-222,-35,207,57,204,-215,-179,-46,129,122,250,277,-198,31,-38,-50,-411
21143,149,213,271,60,-47,297,57,375,93,-28,-91,83,125,44,-47,-302,-1,216,62,218,-233,-164,-42,131,107,231,224,-362,-43,-104,-109,-471
21144,139,257,273,84,-59,326,91,407,117,11,-62,86,142,85,-21,-253,41,255,73,237,-186,-147,30,195,156,304,198,-176,83,37,66,-239
21145,137,255,308,92,-37,348,12,437,149,39,-31,102,162,92,8,-204,12,273,103,263,-146,-183,50,209,180,328,248,-141,141,104,143,-105
21146,112,157,287,62,-52,302,-66,385,117,-21,-62,65,123,34,-24,-214,-68,243,58,220,-154,-138,0,148,126,270,259,-216,48,24,34,-192
21147,92,142,263,38,-56,256,-113,383,70,-60,-56,43,87,0,-61,-216,-175,196,-3,169,-212,-143,-28,134,59,229,228,-260,-3,-56,-47,-317
21148,72,130,229,0,-43,239,-79,346,42,-100,-69,-1,59,-42,-116,-213,-184,167,-20,139,-241,-223,-47,118,20,180,174,-231,24,-102,-131,-382
21149,50,115,199,-31,-45,226,-32,328,10,-126,-62,-37,31,-82,-118,-166,-232,139,-55,107,-231,-279,-115,43,-9,151,123,-378,-67,-169,-156,-419
21150,22,106,237,2,-27,259,14,339,43,-84,4,-31,66,-55,-78,-145,-208,158,-24,152,-158,-171,-107,80,32,207,177,-365,-32,-84,-43,-273
21151,8,161,233,28,-44,286,84,334,53,-71,-40,-30,63,-40,-60,-128,-185,164,-14,165,-152,-229,-80,75,51,224,156,-391,-49,-96,-75,-288
21152,79,188,264,49,-49,320,171,385,84,-56,-53,6,91,7,-21,-140,-137,201,26,193,-117,-452,-14,110,57,227,162,-294,-5,-141,-161,-397
21153,150,262,301,58,-34,370,240,419,110,-9,75,48,124,34,63,-94,-110,226,67,232,-72,-335,63,142,78,282,241,-143,81,-47,-65,-275
21154,183,290,293,72,-40,394,221,408,133,38,110,74,142,59,98,-57,-177,239,85,269,-42,-142,51,155,131,326,327,-163,100,8,5,-251
21155,216,301,321,78,-55,387,212,416,137,47,89,20,145,68,125,-160,-174,226,87,260,-39,-150,18,158,128,313,359,-150,127,24,12,-300
21156,167,272,259,31,-61,360,206,365,101,2,67,-124,84,27,84,-181,-165,150,34,209,-103,-56,-32,133,94,274,238,-208,100,-16,-49,-377
21157,73,265,156,-7,-43,291,178,283,26,-58,15,-218,9,-38,-2,-119,-269,72,-24,150,-162,-178,-116,59,47,227,176,-268,45,-54,-60,-365
21158,40,193,170,-27,-28,217,71,278,10,-121,-97,-146,18,-71,-63,-142,-260,95,-32,114,-207,-280,-73,78,21,193,132,-195,58,-55,-50,-321
21159,54,94,164,-46,-27,226,13,268,-3,-137,-108,-148,10,-88,-78,-167,-287,61,-42,99,-233,-406,-138,37,-8,168,92,-416,-35,-117,-109,-320
21160,68,103,195,-47,-27,259,13,263,21,-95,-25,-113,24,-58,-37,-160,-170,95,-18,130,-206,-345,-59,75,29,203,142,-341,0,-81,-93,-371
21161,88,153,216,-20,-37,265,-38,289,39,-66,-4,-89,60,-15,1,-164,-134,144,16,171,-162,-262,-9,134,82,242,198,-227,61,-33,-68,-456
21162,124,199,274,1,-47,267,-10,280,76,-44,-12,-30,108,24,17,-120,-142,192,72,223,-107,-223,53,166,136,293,216,-109,172,38,16,-308
21163,158,232,320,64,-39,293,35,359,111,-3,28,-5,142,53,58,-107,-74,227,96,247,-102,-105,66,209,186,336,208,-95,194,77,64,-169
21164,171,224,304,116,-45,313,76,405,122,-11,16,-12,143,40,77,-116,-65,226,92,252,-83,-107,76,217,175,335,266,-93,168,70,63,-206
