,Fp1,Fp2,F7,F3,Fz,F4,F8,FC5,FC1,FC2,FC6,T7,C3,Cz,C4,T8,TP9,CP5,CP1,CP2,CP6,TP10,P7,P3,Pz,P4,P8,PO9,O1,Oz,O2,PO10
78987,-255,-153,229,-447,-423,141,29,63,-241,-133,227,-55,-44,-334,203,108,306,-170,44,292,-115,284,-28,-65,209,335,340,231,321,284,295,-292
78988,-226,-118,251,-448,-403,167,59,33,-234,-104,267,-55,-38,-307,245,128,302,-165,66,307,-96,290,-23,-39,202,330,384,250,327,272,280,-281
78989,-209,-131,272,-450,-389,195,56,63,-199,-98,272,-68,-50,-294,253,163,299,-165,76,308,-77,303,-24,-22,227,339,409,245,334,277,271,-284
78990,-246,-177,191,-430,-405,190,41,48,-230,-145,262,-76,-66,-307,220,160,273,-178,48,281,-91,309,-33,-41,193,336,395,258,361,268,282,-306
78991,-285,-255,150,-427,-406,168,14,-1,-244,-145,245,-77,-85,-327,221,154,250,-236,23,273,-96,276,-46,-84,172,308,353,229,340,240,253,-333
78992,-308,-254,143,-463,-409,185,24,4,-255,-137,237,-94,-91,-339,195,123,239,-233,-9,235,-133,225,-67,-119,127,279,314,194,296,193,215,-359
78993,-386,-217,76,-447,-415,184,-35,-2,-252,-148,228,-140,-95,-345,184,109,237,-269,-26,216,-134,224,-111,-118,108,284,297,196,261,183,197,-351
78994,-399,-185,66,-421,-404,207,-49,-5,-246,-135,211,-137,-95,-352,184,112,206,-287,-11,226,-140,212,-122,-117,121,273,293,168,239,152,181,-408
78995,-375,-183,61,-444,-402,221,-33,-27,-232,-140,214,-129,-114,-340,183,101,138,-257,-12,232,-154,193,-106,-111,128,259,296,148,216,130,187,-418
78996,-340,-177,101,-424,-406,201,0,-45,-227,-135,210,-154,-105,-356,187,97,124,-285,-17,239,-150,192,-149,-144,140,279,305,120,183,120,160,-406
78997,-276,-150,147,-419,-385,164,9,-73,-229,-127,221,-183,-92,-338,191,105,98,-302,5,252,-136,205,-176,-150,153,300,346,95,159,110,177,-394
78998,-282,-171,105,-449,-390,164,26,-109,-248,-133,219,-230,-139,-321,202,102,43,-344,13,244,-121,204,-226,-164,149,304,374,49,130,93,199,-351
78999,-293,-171,112,-445,-381,207,63,-129,-265,-129,258,-282,-155,-322,223,119,13,-371,-8,266,-105,145,-266,-201,143,314,381,14,124,87,178,-347
79000,-283,-180,125,-469,-364,210,20,-123,-249,-119,234,-314,-160,-327,197,97,-20,-412,-5,254,-129,114,-303,-209,131,291,330,-19,79,40,124,-439
79001,-277,-167,142,-461,-350,206,18,-133,-244,-116,220,-356,-171,-328,186,93,-31,-412,-11,221,-135,132,-303,-200,123,263,300,-36,57,0,88,-517
79002,-289,-139,137,-435,-345,214,77,-121,-236,-94,239,-379,-147,-324,207,116,-29,-385,-7,261,-121,171,-288,-194,125,280,328,0,77,20,114,-472
79003,-296,-135,142,-467,-352,217,91,-132,-236,-113,235,-354,-152,-335,215,98,-28,-399,-13,250,-132,223,-284,-197,120,279,343,10,66,0,117,-423
79004,-288,-171,166,-438,-367,203,66,-145,-243,-135,211,-356,-160,-341,175,71,-41,-413,-42,208,-172,189,-312,-206,89,240,292,-40,32,-41,66,-467
79005,-295,-208,165,-402,-348,213,44,-106,-230,-115,228,-357,-142,-322,184,70,-47,-408,-18,209,-170,148,-309,-215,96,210,274,-52,36,-32,49,-475
79006,-280,-256,125,-400,-357,184,24,-117,-221,-125,202,-309,-151,-325,167,67,-44,-399,-20,206,-173,147,-309,-225,79,197,260,-37,25,-58,34,-454
79007,-259,-254,100,-401,-352,171,44,-125,-195,-126,187,-283,-144,-315,163,75,-31,-387,-14,193,-182,120,-270,-202,88,196,254,-25,44,-62,43,-489
79008,-240,-216,96,-430,-372,161,6,-140,-216,-130,135,-243,-143,-334,149,52,-37,-388,-39,184,-209,71,-263,-214,70,186,222,-21,38,-63,-7,-564
79009,-226,-195,139,-411,-382,177,17,-122,-213,-127,146,-239,-130,-326,149,53,-23,-374,-13,191,-199,126,-250,-193,79,200,241,3,67,-36,27,-521
79010,-265,-158,186,-424,-389,172,13,-110,-239,-158,175,-253,-135,-330,141,56,-17,-361,-23,174,-211,128,-251,-186,68,174,203,-14,56,-63,-22,-559
79011,-295,-149,211,-412,-365,197,-13,-81,-231,-147,204,-240,-117,-319,146,61,-7,-328,-18,186,-196,128,-243,-157,60,157,200,-5,69,-63,-11,-562
79012,-277,-155,180,-397,-386,233,-26,-40,-233,-146,209,-250,-93,-328,150,64,42,-299,-4,196,-184,167,-256,-159,45,180,208,-5,66,-67,-16,-540
79013,-308,-139,222,-409,-395,240,-7,-24,-225,-153,244,-250,-70,-328,161,89,92,-294,3,199,-155,175,-259,-134,68,209,250,12,66,-36,31,-505
79014,-360,-190,228,-387,-400,236,-42,9,-191,-185,189,-194,-77,-331,166,89,84,-335,-7,183,-176,155,-264,-141,87,201,263,-6,51,-56,7,-529
79015,-363,-206,193,-357,-386,167,-30,32,-186,-189,194,-135,-58,-320,166,101,54,-274,20,194,-157,146,-197,-131,80,199,265,16,62,-41,12,-540
79016,-285,-188,140,-374,-383,134,44,19,-208,-184,234,-119,-43,-337,173,104,6,-232,23,216,-142,165,-161,-124,70,207,273,41,71,-48,11,-519
79017,-261,-142,129,-441,-396,164,57,-68,-211,-188,225,-98,-55,-344,169,99,20,-249,4,211,-142,159,-172,-148,44,194,305,14,51,-60,-19,-523
79018,-246,-120,193,-449,-391,184,108,-80,-209,-156,237,-77,-63,-329,179,123,58,-229,4,194,-124,164,-112,-151,54,198,302,1,56,-49,-30,-522
79019,-248,-134,186,-448,-382,176,146,-60,-221,-159,242,-74,-70,-333,192,129,87,-238,5,185,-144,179,-141,-162,60,191,247,8,37,-50,-4,-488
79020,-248,-122,171,-450,-399,188,132,-45,-236,-171,282,-95,-79,-324,180,123,64,-271,-11,199,-141,182,-212,-177,62,179,226,-4,22,-70,0,-460
79021,-265,-92,154,-426,-373,238,176,-18,-221,-122,306,-75,-68,-309,217,158,69,-260,9,213,-123,199,-205,-163,70,199,263,16,45,-37,30,-373
79022,-245,-103,139,-423,-390,218,150,13,-216,-131,303,-70,-60,-310,206,162,83,-248,30,223,-138,180,-198,-152,95,197,274,30,68,-21,25,-397
79023,-194,-99,156,-429,-395,214,108,-107,-216,-121,314,-37,-66,-298,231,155,114,-211,39,260,-111,202,-171,-116,126,235,292,60,118,31,84,-378
79024,-226,-103,122,-428,-388,204,96,-189,-222,-116,303,-42,-67,-315,240,164,93,-212,38,253,-112,190,-170,-107,133,237,272,36,115,13,60,-415
79025,-227,-100,118,-422,-385,203,77,124,-201,-122,283,-95,-32,-322,232,159,82,-219,36,238,-126,186,-186,-129,129,219,251,13,76,-20,19,-436
79026,-192,-109,189,-386,-372,238,133,145,-198,-127,300,-93,-23,-323,244,142,113,-219,28,271,-130,200,-177,-132,122,211,240,32,71,-34,20,-440
79027,-198,-96,186,-351,-357,265,186,84,-200,-116,338,-53,-16,-297,261,190,163,-213,67,283,-134,242,-147,-102,151,254,274,68,95,-9,43,-427
79028,-189,-84,247,-355,-356,283,161,5,-193,-91,367,0,-17,-302,285,200,156,-202,68,282,-111,235,-128,-93,165,273,283,81,109,-14,63,-475
79029,-166,-89,296,-379,-380,284,95,-11,-198,-90,336,-2,-32,-282,282,205,154,-195,86,304,-59,245,-111,-82,187,294,314,93,147,17,78,-418
79030,-174,-106,264,-402,-393,256,28,-44,-213,-120,315,-58,-37,-301,261,167,128,-249,62,293,-103,199,-158,-116,156,266,308,64,101,-5,34,-445
79031,-221,-108,266,-381,-370,220,23,-54,-215,-124,283,-70,-29,-295,246,135,120,-255,43,273,-126,193,-171,-119,136,254,286,47,95,-29,32,-453
79032,-248,-133,242,-372,-358,229,70,-31,-201,-126,276,-79,-34,-288,224,130,106,-259,48,270,-123,236,-184,-116,136,242,278,45,83,-17,55,-397
79033,-286,-188,217,-355,-369,203,74,18,-213,-119,266,-88,-55,-297,228,115,89,-279,48,250,-142,207,-220,-132,124,245,290,6,74,-24,52,-413
79034,-248,-176,190,-363,-364,159,79,-34,-217,-147,249,-130,-89,-303,222,101,46,-306,9,214,-157,185,-223,-159,96,200,264,-9,32,-68,-11,-490
79035,-230,-139,180,-387,-372,167,44,-104,-222,-139,226,-180,-107,-318,197,81,11,-333,-20,195,-174,170,-259,-183,68,178,219,-33,12,-107,-69,-602
79036,-260,-159,120,-399,-366,183,0,-48,-217,-137,146,-241,-98,-321,164,56,-12,-348,-13,203,-196,124,-287,-192,62,183,178,-55,8,-125,-76,-651
79037,-274,-198,120,-392,-350,197,40,-9,-215,-156,128,-220,-81,-308,170,87,14,-366,0,220,-179,152,-300,-181,78,206,202,-41,17,-106,-49,-596
79038,-259,-221,147,-403,-351,212,62,-54,-213,-139,213,-244,-108,-312,188,108,15,-368,-7,229,-157,185,-288,-189,78,198,211,-54,27,-92,-64,-571
79039,-234,-204,164,-409,-353,225,89,-65,-223,-128,280,-241,-126,-319,204,125,-50,-347,-7,212,-142,162,-294,-189,76,204,205,-71,-13,-103,-62,-581
79040,-292,-231,151,-410,-370,210,78,-68,-243,-137,262,-228,-135,-327,206,133,-66,-368,-12,214,-137,75,-314,-204,68,179,192,-113,-44,-149,-98,-626
79041,-329,-190,157,-393,-372,203,41,-34,-234,-137,256,-216,-129,-331,209,126,-52,-376,-28,212,-148,68,-318,-225,54,155,143,-101,-69,-177,-134,-663
79042,-301,-92,172,-377,-367,213,80,44,-210,-120,265,-227,-108,-325,207,127,11,-343,-22,212,-180,100,-298,-207,74,140,125,-62,-28,-152,-118,-635
79043,-228,-19,166,-389,-365,218,93,56,-216,-113,281,-200,-105,-306,205,146,79,-333,-6,222,-145,159,-282,-199,90,159,148,-54,-11,-112,-73,-649
79044,-192,23,169,-390,-360,235,115,53,-219,-107,296,-201,-81,-300,220,153,101,-291,16,233,-136,196,-251,-166,103,187,215,-45,-14,-124,-51,-579
79045,-207,28,282,-358,-359,256,100,11,-224,-112,294,-211,-94,-293,226,183,153,-283,3,246,-137,232,-235,-161,111,198,229,-9,13,-105,-23,-514
79046,-197,-45,334,-382,-383,226,87,33,-235,-132,280,-249,-94,-318,215,244,145,-284,5,226,-140,220,-240,-149,109,193,219,-16,2,-90,2,-505
79047,-187,-102,284,-372,-360,217,150,-12,-217,-127,307,-105,-73,-306,243,285,75,-236,27,253,-112,184,-193,-120,157,225,231,8,27,-55,20,-493
79048,-167,-86,216,-354,-343,212,165,35,-219,-144,301,-32,-67,-297,235,218,35,-216,30,268,-105,203,-159,-94,159,249,282,28,42,-22,40,-450
79049,-146,-58,210,-368,-374,192,172,50,-217,-134,303,-60,-74,-299,241,61,120,-257,31,252,-97,248,-196,-112,142,238,298,43,57,-13,52,-405
79050,-204,-50,241,-348,-371,202,157,23,-206,-136,295,-59,-54,-302,224,63,118,-251,27,232,-112,234,-177,-123,132,233,302,31,32,-21,48,-401
79051,-184,-96,290,-341,-367,198,173,27,-202,-153,274,-65,-61,-303,197,181,96,-260,15,222,-162,200,-190,-158,108,178,248,20,-3,-70,11,-500
79052,-112,-95,341,-391,-369,203,168,12,-210,-170,249,-43,-75,-336,187,127,111,-246,4,205,-190,181,-187,-171,92,157,197,10,-23,-102,-57,-611
79053,-58,-42,397,-357,-342,188,176,21,-190,-146,256,-21,-49,-330,171,120,135,-223,20,206,-192,170,-189,-132,97,150,208,-9,-23,-102,-45,-599
79054,-154,-65,358,-310,-376,157,117,10,-196,-154,232,-65,-39,-333,158,103,114,-202,17,196,-196,158,-193,-131,100,173,221,-8,3,-94,-10,-531
79055,-146,-62,372,-306,-362,163,104,23,-203,-157,240,-68,-48,-336,169,114,134,-221,31,206,-191,131,-224,-142,105,177,224,-14,13,-95,-36,-496
79056,-145,-61,327,-318,-350,195,119,7,-197,-141,264,-105,-60,-318,172,127,101,-240,35,219,-152,117,-234,-151,112,185,241,-41,9,-87,-46,-553
79057,-178,-80,308,-329,-347,210,67,-100,-190,-129,244,-73,-57,-298,167,103,51,-199,12,227,-162,156,-205,-139,117,181,212,-25,16,-80,-33,-560
79058,-192,-128,265,-380,-363,188,-26,-200,-188,-129,221,-63,-66,-286,153,72,64,-208,16,213,-200,132,-220,-137,104,150,151,-39,-5,-94,-43,-533
79059,-211,-159,230,-368,-365,209,-14,49,-189,-114,204,-115,-52,-266,153,47,40,-243,20,202,-210,118,-226,-155,97,163,116,-67,-43,-109,-60,-555
79060,-198,-130,244,-358,-360,187,-10,50,-204,-126,184,-163,-75,-287,154,41,-10,-245,6,196,-226,92,-275,-166,81,146,134,-111,-81,-141,-79,-541
79061,-195,-136,248,-372,-357,138,-15,35,-205,-135,131,-187,-94,-303,146,30,-22,-249,-13,190,-260,81,-300,-182,53,110,142,-141,-91,-189,-120,-570
79062,-205,-127,210,-370,-361,117,11,60,-205,-139,134,-162,-103,-311,142,16,-3,-279,-21,162,-278,52,-283,-194,32,81,90,-104,-73,-184,-154,-672
79063,-216,-70,189,-392,-364,120,-13,73,-216,-186,147,-116,-108,-338,114,-1,0,-289,-43,139,-299,15,-289,-217,16,63,71,-124,-89,-183,-193,-675
79064,-193,-109,201,-378,-336,145,-26,20,-220,-187,164,-104,-115,-352,106,-8,37,-266,-49,120,-295,22,-264,-212,2,80,84,-112,-93,-186,-183,-651
79065,-184,-156,249,-348,-323,167,31,5,-200,-156,190,-81,-104,-347,117,-3,73,-236,-48,137,-277,57,-226,-187,13,91,107,-60,-36,-168,-144,-655
79066,-230,-144,246,-323,-327,171,51,62,-178,-162,184,-105,-90,-351,110,14,41,-240,-41,154,-269,77,-241,-167,30,99,139,-51,3,-136,-124,-624
79067,-187,-103,266,-271,-321,164,54,134,-155,-175,199,-66,-61,-345,126,48,99,-209,-28,145,-242,64,-218,-143,20,109,157,-48,17,-113,-107,-563
79068,-149,-127,298,-262,-319,174,48,154,-173,-173,199,-97,-63,-332,124,37,152,-240,-12,154,-250,70,-223,-133,49,120,151,-16,29,-106,-84,-568
79069,-132,-115,292,-276,-325,164,53,120,-175,-151,194,-14,-45,-337,129,44,162,-225,1,172,-250,89,-194,-126,76,125,168,-23,38,-103,-72,-562
79070,-129,-68,353,-287,-336,174,61,113,-186,-160,188,7,-28,-348,148,39,105,-188,7,166,-223,97,-151,-111,71,144,203,1,45,-73,-53,-556
79071,-90,-53,359,-269,-326,186,107,134,-157,-168,204,42,-20,-357,146,54,124,-177,11,175,-204,100,-164,-114,81,154,230,-9,45,-47,-47,-499
79072,-60,-37,367,-264,-325,182,114,106,-162,-152,211,49,-20,-354,132,52,149,-189,-4,164,-223,94,-184,-111,62,145,211,-10,70,-57,-55,-532
79073,-71,-39,405,-294,-323,190,102,91,-179,-148,232,23,-33,-350,129,64,116,-204,-6,152,-208,133,-186,-116,47,123,185,-23,52,-62,-37,-551
79074,-103,-32,392,-310,-316,183,114,87,-166,-168,247,5,-22,-344,125,66,96,-186,-2,154,-203,117,-176,-117,54,127,174,-15,61,-60,-41,-554
79075,-145,-51,332,-316,-340,205,118,95,-158,-157,251,-2,-8,-343,148,75,88,-176,-1,163,-204,92,-148,-125,70,139,169,-26,61,-61,-80,-554
79076,-187,-153,345,-295,-351,230,108,107,-167,-142,228,-12,6,-321,159,97,105,-185,18,178,-212,65,-140,-121,77,148,160,-22,82,-42,-41,-558
79077,-158,-160,398,-254,-325,249,105,138,-162,-118,224,-1,0,-305,182,119,153,-182,8,210,-196,134,-167,-113,85,166,184,-2,89,-21,-10,-496
79078,-122,-82,374,-280,-323,251,133,168,-156,-127,269,-8,-9,-313,193,131,115,-192,0,198,-191,173,-191,-107,74,197,207,-11,101,-18,-12,-492
79079,-158,-43,282,-253,-313,247,149,217,-148,-131,298,-59,4,-328,190,139,121,-206,3,192,-200,174,-234,-117,75,170,193,-45,65,-38,-39,-573
79080,-175,-37,280,-241,-324,248,140,154,-161,-147,287,-104,-19,-344,176,145,173,-253,-30,188,-184,178,-281,-164,56,151,205,-27,40,-62,-25,-531
79081,-96,-60,347,-272,-307,252,152,87,-183,-142,286,-84,-26,-353,189,135,137,-291,-38,149,-181,180,-277,-175,22,149,196,-50,28,-79,-23,-554
79082,-103,-64,365,-306,-299,259,148,81,-188,-148,277,-103,-58,-359,165,109,44,-279,-40,132,-203,156,-244,-186,17,123,167,-70,-6,-81,-54,-574
79083,-95,-66,330,-297,-322,258,108,117,-174,-156,236,-117,-86,-385,155,113,43,-267,-62,139,-232,162,-238,-197,-6,145,160,-43,0,-82,-61,-546
79084,-104,-80,262,-299,-333,232,104,84,-172,-166,226,-173,-80,-397,130,90,46,-311,-67,118,-248,148,-270,-213,-26,123,161,-56,-24,-124,-79,-563
79085,-124,-77,276,-280,-334,222,119,5,-195,-161,235,-176,-68,-379,141,87,48,-295,-58,132,-242,141,-263,-211,-2,92,143,-48,-36,-113,-98,-620
79086,-114,-80,312,-287,-311,238,132,-212,-195,-149,267,-105,-78,-363,159,122,68,-254,-61,142,-219,128,-253,-199,9,132,146,-39,-49,-122,-110,-640
79087,-128,-93,296,-291,-325,228,137,-24,-200,-177,258,-165,-106,-400,140,119,34,-308,-79,111,-245,133,-293,-230,-41,102,155,-85,-76,-130,-118,-594
79088,-112,-86,275,-276,-304,227,128,137,-185,-156,244,-145,-96,-389,125,96,0,-322,-88,92,-232,138,-306,-239,-55,76,154,-121,-107,-157,-130,-579
79089,-67,-62,292,-251,-282,220,86,115,-175,-168,218,-125,-74,-378,108,88,23,-290,-73,111,-243,101,-292,-238,-34,93,148,-128,-121,-178,-131,-571
79090,-75,-27,309,-263,-280,191,84,113,-170,-167,196,-119,-64,-367,122,84,66,-285,-60,112,-235,99,-267,-224,-43,67,143,-103,-98,-181,-129,-623
79091,-105,-54,339,-290,-286,180,65,68,-176,-170,231,-122,-49,-367,112,74,59,-295,-89,106,-261,126,-255,-231,-52,63,129,-103,-90,-179,-150,-653
79092,-91,-95,302,-301,-285,212,80,41,-164,-153,250,-136,-57,-369,133,104,52,-271,-64,119,-239,170,-247,-218,-36,88,162,-67,-79,-160,-131,-621
79093,-127,-154,281,-275,-300,248,23,78,-160,-158,200,-147,-71,-376,138,78,41,-305,-65,109,-242,158,-253,-222,-45,83,149,-49,-70,-154,-147,-608
79094,-145,-142,300,-281,-317,237,23,72,-165,-182,152,-158,-78,-399,81,74,23,-314,-73,73,-253,135,-252,-229,-55,67,119,-64,-66,-157,-138,-626
79095,-110,-101,340,-281,-304,196,31,71,-151,-183,182,-129,-48,-397,86,94,50,-294,-68,100,-244,121,-217,-192,-39,76,162,-34,-1,-102,-95,-528
79096,-107,-55,357,-266,-292,187,49,52,-164,-182,229,-136,-57,-395,90,115,75,-292,-56,107,-224,217,-205,-178,-20,70,203,-9,20,-66,-59,-475
79097,-93,-64,344,-265,-309,153,66,64,-160,-186,214,-159,-68,-390,77,79,52,-299,-80,77,-250,194,-233,-205,-51,64,185,-49,-24,-102,-76,-528
79098,-63,-60,353,-307,-315,155,59,90,-155,-197,218,-127,-72,-377,96,85,78,-298,-59,75,-240,174,-216,-186,-45,68,179,-35,-1,-95,-89,-577
79099,-83,-62,331,-304,-322,157,76,67,-183,-217,223,-130,-80,-369,98,82,81,-287,-69,105,-234,175,-222,-175,-19,94,141,-21,27,-89,-77,-569
79100,-80,-70,339,-287,-312,152,71,79,-181,-213,227,-144,-86,-386,96,111,101,-273,-80,121,-213,174,-208,-185,-2,120,175,-26,21,-95,-95,-571
79101,-30,-50,365,-289,-302,191,99,80,-164,-191,241,-164,-66,-393,135,120,150,-270,-70,141,-190,180,-223,-152,1,139,183,-2,43,-68,-92,-602
79102,-39,-59,343,-256,-309,170,69,93,-157,-193,225,-175,-62,-370,107,93,106,-269,-70,118,-211,146,-197,-164,-11,130,168,-5,51,-70,-104,-632
79103,-70,-96,298,-286,-313,149,37,84,-158,-219,201,-141,-77,-373,84,79,74,-289,-66,101,-244,111,-177,-170,-4,118,156,6,31,-88,-97,-554
79104,-87,-123,250,-270,-326,161,31,82,-173,-225,185,-168,-60,-374,80,71,79,-247,-66,89,-244,138,-194,-173,-22,102,184,-17,20,-74,-98,-549
79105,-64,-134,258,-259,-306,170,36,113,-148,-193,202,-101,-33,-357,84,77,84,-231,-65,94,-222,187,-179,-177,-23,100,217,-5,41,-83,-89,-584
79106,-42,-143,269,-291,-281,162,20,110,-153,-216,211,-87,-33,-365,83,58,71,-240,-46,101,-218,235,-185,-143,8,107,249,-14,70,-54,-37,-518
79107,-59,-141,233,-272,-295,155,1,100,-158,-210,194,-76,-35,-364,74,41,104,-242,-46,89,-237,223,-189,-141,-10,121,202,19,71,-24,-32,-497
79108,-51,-97,241,-246,-271,151,29,84,-147,-199,184,-129,-43,-370,70,57,135,-257,-49,92,-253,207,-188,-142,-17,116,144,36,78,-21,-45,-526
79109,-97,-52,227,-244,-289,157,43,100,-159,-209,176,-128,-33,-382,56,45,76,-241,-59,80,-276,142,-181,-146,-2,86,139,4,64,-38,-50,-548
79110,-156,-87,258,-223,-308,135,21,94,-152,-218,176,-126,-48,-390,42,34,46,-234,-69,55,-291,140,-202,-157,-14,81,129,-15,49,-55,-44,-516
79111,-131,-109,344,-216,-284,129,-7,68,-133,-221,171,-162,-31,-380,48,49,84,-234,-55,72,-293,151,-216,-158,-18,74,137,-30,50,-61,-47,-545
79112,-171,-121,361,-228,-306,121,-13,65,-146,-240,147,-186,-42,-385,45,16,123,-261,-73,57,-333,142,-238,-176,-36,57,107,-37,7,-93,-106,-644
79113,-285,-191,288,-236,-318,111,-25,115,-141,-222,150,-156,-18,-363,45,5,70,-254,-57,55,-349,118,-205,-125,-18,70,115,-13,41,-91,-84,-612
79114,-307,-274,225,-259,-323,91,-54,125,-142,-231,136,-161,-31,-361,53,8,-25,-222,-24,60,-338,114,-168,-114,0,60,103,-14,51,-69,-96,-583
79115,-276,-310,153,-235,-334,69,-93,106,-141,-241,111,-159,-8,-362,54,-2,6,-248,-17,71,-346,135,-172,-128,7,64,106,6,50,-56,-85,-566
79116,-113,-264,167,-251,-336,58,-67,106,-132,-228,117,-129,4,-360,55,8,79,-241,-10,99,-332,145,-141,-110,23,73,145,49,76,-19,-38,-536
79117,45,-246,348,-250,-337,76,-21,113,-151,-248,141,-88,-4,-385,38,16,95,-201,-47,79,-337,144,-134,-132,-27,44,101,35,63,-52,-68,-594
79118,95,-128,522,-192,-320,158,94,192,-139,-227,183,34,34,-380,69,62,130,-177,-41,73,-331,152,-112,-139,-29,58,126,86,71,-44,-59,-544
79119,97,-3,569,-188,-301,176,170,199,-132,-229,252,60,39,-374,82,98,155,-158,-32,78,-313,165,-106,-132,-19,65,140,65,59,-63,-52,-508
79120,67,-1,570,-217,-306,173,125,177,-133,-235,241,75,34,-347,82,77,154,-170,-13,105,-306,196,-128,-118,8,76,134,46,46,-82,-31,-478
79121,-14,-27,530,-260,-322,141,81,156,-137,-232,186,69,26,-341,92,43,135,-193,-22,89,-321,187,-131,-110,-4,71,139,19,40,-87,-40,-462
79122,-39,-50,532,-267,-333,86,31,136,-140,-237,158,55,19,-368,60,35,107,-187,-36,73,-348,176,-130,-133,-32,47,132,16,61,-85,-91,-520
79123,-62,-77,533,-251,-329,101,-1,138,-136,-236,173,31,19,-346,64,35,120,-170,-18,96,-331,173,-107,-124,-2,66,122,39,57,-70,-82,-543
79124,-89,-148,521,-261,-333,80,-33,135,-133,-250,157,24,14,-338,65,-2,92,-196,-31,79,-336,148,-133,-124,-12,77,121,32,55,-94,-106,-548
79125,-115,-156,524,-254,-337,58,-68,158,-131,-266,114,35,17,-349,46,2,94,-204,-49,72,-336,133,-162,-157,-20,43,99,-3,21,-129,-131,-615
79126,-138,-177,514,-233,-343,72,-97,175,-140,-246,110,24,5,-352,51,-13,108,-217,-46,85,-357,141,-172,-141,-23,30,55,-10,20,-128,-133,-613
79127,-132,-213,499,-234,-361,68,-108,159,-143,-232,98,12,3,-356,59,-8,87,-226,-46,86,-363,141,-186,-159,-17,44,74,0,28,-117,-115,-542
79128,-138,-227,477,-211,-369,64,-148,159,-140,-227,69,0,-11,-360,58,-7,70,-225,-62,66,-361,132,-211,-183,-38,30,87,-35,-2,-129,-152,-544
79129,-106,-186,487,-221,-342,82,-149,182,-129,-226,77,0,-18,-357,67,-26,82,-211,-80,68,-371,109,-220,-184,-47,14,73,-52,-24,-176,-195,-578
79130,-132,-215,436,-243,-358,82,-159,15,-143,-251,86,9,-37,-343,53,-62,108,-215,-79,69,-381,90,-222,-204,-47,22,49,-39,-32,-153,-190,-612
79131,-145,-239,403,-256,-365,56,-170,-37,-151,-246,68,-48,-82,-342,32,-75,136,-324,-99,48,-419,65,-307,-242,-82,-1,18,-82,-86,-183,-180,-633
79132,-144,-250,400,-233,-374,40,-204,190,-129,-250,44,-110,-74,-348,34,-84,57,-326,-112,61,-404,45,-308,-258,-78,2,12,-85,-82,-181,-184,-630
79133,-128,-290,386,-283,-382,11,-212,157,-141,-253,40,-101,-88,-346,33,-97,-48,-287,-102,68,-403,50,-257,-257,-59,15,10,-64,-73,-176,-181,-638
79134,-165,-291,372,-320,-407,-16,-183,95,-170,-265,39,-123,-99,-353,28,-92,-4,-317,-120,66,-398,51,-281,-278,-66,7,7,-76,-66,-177,-173,-631
79135,-203,-289,350,-286,-395,2,-147,120,-154,-282,50,-146,-84,-342,47,-60,25,-310,-95,85,-368,76,-299,-269,-49,33,35,-74,-59,-153,-147,-632
79136,-241,-272,293,-276,-391,13,-138,170,-146,-267,77,-160,-68,-330,58,-24,34,-297,-75,116,-349,98,-282,-248,-52,59,69,-62,-50,-158,-142,-600
