,Fp1,Fp2,F7,F3,Fz,F4,F8,FC5,FC1,FC2,FC6,T7,C3,Cz,C4,T8,TP9,CP5,CP1,CP2,CP6,TP10,P7,P3,Pz,P4,P8,PO9,O1,Oz,O2,PO10
19643,145,179,524,-133,-119,346,189,376,-164,-532,-98,233,31,-419,-99,171,96,-274,-30,-69,-375,300,-67,-150,-179,111,259,-10,299,-178,-215,-143
19644,84,86,537,-132,-119,327,154,396,-167,-536,-124,252,43,-437,-127,141,62,-241,-34,-73,-400,288,-33,-143,-201,118,285,-35,327,-181,-198,-94
19645,-9,52,452,-180,-126,294,96,355,-184,-540,-164,170,6,-446,-127,112,8,-290,-45,-87,-415,283,-58,-170,-230,86,304,-148,257,-196,-204,-2
19646,-43,106,456,-198,-144,308,104,321,-186,-557,-148,146,-14,-434,-133,85,-27,-308,-74,-90,-428,237,-102,-199,-249,59,272,-87,232,-192,-215,-52
19647,32,139,506,-188,-140,353,126,315,-183,-546,-80,174,-3,-436,-140,57,-79,-293,-92,-116,-490,214,-138,-230,-276,27,204,-89,216,-230,-292,-218
19648,186,258,569,-168,-109,440,181,264,-166,-516,26,166,-13,-450,-112,91,-42,-272,-84,-113,-468,248,-133,-228,-270,27,244,-103,218,-234,-282,-227
19649,210,276,546,-171,-93,468,234,268,-183,-487,50,167,-27,-456,-90,105,-62,-290,-90,-97,-460,242,-138,-243,-280,21,217,-119,194,-248,-286,-242
19650,115,241,481,-219,-103,479,277,244,-204,-495,-2,115,-47,-481,-87,149,-79,-322,-117,-102,-464,209,-139,-247,-300,7,181,-141,177,-267,-299,-198
19651,102,201,401,-218,-123,409,286,264,-192,-529,-68,164,-35,-474,-98,156,-31,-299,-95,-111,-439,242,-130,-228,-279,38,195,-81,200,-235,-292,-197
19652,114,197,395,-200,-123,363,334,282,-172,-556,-5,157,-29,-461,-140,113,-43,-310,-96,-119,-436,267,-155,-226,-287,37,193,-92,215,-246,-302,-257
19653,24,184,366,-215,-147,385,304,273,-190,-542,45,82,-56,-448,-106,45,-41,-368,-124,-125,-457,240,-218,-262,-300,35,213,-131,202,-258,-293,-275
19654,-4,136,308,-215,-134,403,314,256,-203,-531,-11,66,-81,-443,-102,72,-32,-389,-129,-121,-444,268,-219,-259,-298,33,263,-118,204,-232,-259,-191
19655,-36,27,258,-259,-147,349,189,219,-217,-563,-172,76,-67,-471,-157,90,-98,-377,-127,-146,-465,251,-191,-280,-312,16,235,-112,206,-249,-281,-184
19656,-19,54,313,-274,-144,376,249,204,-209,-551,-141,98,-56,-461,-130,81,-95,-370,-142,-146,-482,167,-195,-311,-331,0,153,-95,198,-264,-314,-305
19657,-7,127,367,-262,-143,403,419,207,-211,-514,-58,85,-61,-445,-96,105,-87,-374,-129,-123,-438,219,-192,-286,-309,19,213,-101,195,-258,-300,-265
19658,34,138,426,-243,-148,392,312,220,-174,-500,-126,90,-27,-422,-100,178,-46,-338,-95,-67,-423,300,-179,-268,-266,56,258,-99,214,-258,-312,-220
19659,32,146,438,-259,-177,352,177,222,-180,-517,-154,124,-23,-419,-122,209,-30,-324,-102,-83,-397,294,-166,-242,-276,74,295,-100,192,-263,-305,-174
19660,72,279,408,-259,-143,396,323,268,-189,-508,-36,139,-13,-420,-81,214,-18,-290,-76,-66,-377,314,-119,-208,-249,87,332,-70,227,-226,-228,-112
19661,69,305,419,-257,-159,421,350,308,-183,-505,-11,111,-3,-418,-72,216,-10,-292,-63,-52,-377,354,-126,-218,-233,100,337,-113,239,-206,-198,-55
19662,80,306,445,-259,-155,437,343,291,-188,-494,-18,174,-15,-419,-64,195,18,-284,-66,-51,-375,336,-107,-212,-238,123,335,-82,245,-208,-174,-69
19663,70,301,408,-240,-154,428,368,253,-204,-480,26,147,-51,-435,-67,220,-16,-297,-72,-63,-377,328,-136,-228,-237,116,342,-94,240,-196,-180,-34
19664,41,306,398,-233,-150,426,371,62,-204,-482,57,201,-40,-402,-41,207,-2,-281,-58,-54,-372,355,-155,-222,-227,137,365,-65,245,-180,-175,-77
19665,1,249,370,-226,-171,402,339,221,-203,-511,10,159,-61,-418,-52,165,-5,-310,-91,-56,-389,229,-170,-221,-245,120,316,-67,212,-205,-214,-173
19666,4,171,351,-232,-180,396,266,362,-188,-507,-56,150,-29,-421,-99,146,11,-304,-87,-54,-394,178,-179,-237,-237,81,288,-110,237,-223,-244,-261
19667,51,202,395,-252,-171,407,292,309,-208,-493,-66,155,-31,-412,-84,184,40,-303,-73,-38,-386,342,-175,-228,-228,124,350,-120,257,-196,-197,-161
19668,39,217,398,-285,-179,398,302,280,-224,-521,-49,110,-69,-420,-86,166,-9,-351,-99,-57,-393,317,-191,-242,-229,103,345,-113,216,-194,-195,-113
19669,2,209,349,-272,-181,396,284,293,-212,-524,2,104,-74,-415,-94,134,-109,-347,-109,-51,-406,302,-176,-231,-226,97,334,-147,210,-212,-206,-118
19670,-21,184,345,-257,-193,403,255,325,-212,-517,11,89,-64,-401,-86,103,-132,-323,-93,-49,-413,263,-163,-238,-237,103,356,-208,167,-247,-241,-105
19671,-46,118,326,-192,-175,402,201,395,-208,-496,-28,62,-58,-382,-48,87,-140,-321,-96,-66,-410,249,-195,-243,-231,91,372,-207,136,-268,-254,-162
19672,-16,140,307,-155,-169,446,261,326,-207,-488,-11,63,-70,-388,-15,167,-78,-336,-78,-47,-370,247,-217,-244,-229,108,430,-171,169,-239,-240,-134
19673,16,182,332,-173,-169,451,328,271,-231,-501,9,83,-70,-388,-60,207,-16,-352,-83,-40,-347,234,-178,-220,-227,135,464,-171,224,-187,-201,-113
19674,0,185,357,-201,-170,451,370,249,-231,-507,76,107,-78,-379,-37,201,36,-363,-71,-12,-335,253,-94,-192,-180,156,468,-132,268,-143,-167,-34
19675,-1,111,299,-244,-163,417,348,259,-217,-500,2,133,-77,-378,-41,202,-29,-325,-54,0,-332,272,-62,-173,-166,153,355,-113,253,-143,-177,-55
19676,-25,139,276,-311,-167,450,379,260,-222,-489,8,111,-74,-375,-30,248,-111,-335,-72,-10,-341,313,-131,-200,-193,155,330,-143,240,-159,-186,-96
19677,-52,138,307,-332,-187,390,207,197,-243,-504,-10,58,-117,-400,-49,196,-140,-381,-71,-34,-388,294,-165,-231,-207,125,267,-107,228,-177,-208,-196
19678,-115,144,281,-350,-205,354,98,137,-251,-507,-86,35,-127,-405,-40,134,-123,-404,-89,-30,-384,243,-199,-240,-214,99,260,-110,199,-211,-250,-236
19679,-114,207,274,-367,-198,379,193,102,-259,-517,-211,22,-121,-400,-56,-19,-119,-418,-101,-36,-400,231,-221,-250,-211,116,275,-126,215,-217,-235,-227
19680,-57,251,295,-331,-172,362,344,108,-234,-554,-201,54,-99,-396,-115,11,-109,-386,-82,-62,-421,300,-222,-246,-213,124,285,-54,245,-165,-206,-163
19681,-111,109,287,-301,-192,288,269,124,-215,-550,-142,58,-96,-403,-152,87,-67,-376,-84,-62,-422,283,-224,-234,-205,126,276,-27,275,-143,-194,-131
19682,-65,114,337,-318,-178,332,276,156,-224,-511,-126,74,-54,-397,-103,74,-51,-354,-67,-28,-400,269,-197,-199,-176,132,288,-45,294,-135,-149,-109
19683,2,151,344,-323,-173,366,285,152,-218,-509,-97,61,-37,-399,-71,83,-52,-348,-62,-29,-391,310,-188,-196,-163,152,363,-9,318,-100,-129,-52
19684,20,192,292,-290,-160,405,293,185,-218,-491,-51,81,-18,-394,-72,104,-36,-332,-63,-28,-370,339,-173,-202,-167,176,422,-20,287,-124,-159,-72
19685,9,232,248,-304,-168,463,347,224,-218,-486,-36,89,-52,-409,-65,75,-57,-349,-95,-43,-374,309,-181,-229,-211,148,399,-39,245,-160,-187,-144
19686,-33,195,250,-309,-173,440,278,245,-230,-483,-90,73,-59,-411,-74,55,-94,-396,-103,-60,-399,294,-199,-249,-226,142,406,-48,272,-145,-174,-152
19687,-39,97,260,-315,-195,322,109,235,-230,-513,-147,45,-65,-401,-105,27,-91,-403,-97,-63,-422,270,-190,-242,-235,128,364,-52,269,-146,-197,-176
19688,-83,99,200,-260,-191,313,111,238,-218,-509,-143,-38,-72,-391,-129,3,-72,-388,-94,-73,-423,240,-217,-262,-240,131,325,-73,245,-152,-194,-148
19689,-56,176,227,-271,-159,399,194,221,-225,-488,-102,-37,-72,-387,-111,27,-6,-396,-89,-63,-403,226,-217,-246,-223,151,336,-63,268,-123,-126,-88
19690,-32,215,261,-251,-162,448,206,200,-209,-502,-77,-73,-62,-369,-88,44,57,-434,-76,-62,-421,233,-252,-261,-211,152,306,-60,244,-130,-150,-172
19691,-50,193,249,-242,-191,446,194,205,-214,-521,-100,-63,-62,-399,-90,42,-61,-462,-107,-77,-451,141,-272,-277,-233,117,278,-130,202,-174,-189,-237
19692,-25,169,259,-283,-195,412,190,218,-217,-531,-102,10,-61,-394,-88,62,-148,-420,-108,-68,-438,111,-231,-272,-231,101,305,-128,220,-154,-171,-161
19693,45,150,290,-270,-166,410,233,239,-197,-524,-93,71,-59,-388,-88,84,-219,-410,-104,-66,-410,209,-283,-267,-224,147,344,-139,230,-128,-123,-104
19694,7,100,328,-256,-150,413,278,239,-195,-510,-97,46,-70,-397,-104,74,-221,-440,-120,-72,-425,233,-297,-281,-224,143,331,-139,223,-132,-119,-176
19695,-33,49,291,-257,-161,406,242,211,-216,-509,-114,-8,-89,-404,-105,52,-185,-444,-129,-98,-444,230,-277,-302,-234,110,329,-131,229,-143,-149,-188
19696,-43,79,291,-291,-163,394,211,205,-205,-507,-114,-31,-79,-398,-103,30,-205,-452,-110,-107,-441,244,-262,-295,-251,108,318,-149,219,-123,-165,-160
19697,-52,128,317,-300,-169,383,208,190,-199,-492,-76,-87,-72,-381,-94,14,-199,-436,-107,-90,-444,251,-252,-262,-251,106,335,-129,248,-90,-109,-58
19698,-35,136,274,-297,-179,373,204,144,-207,-491,-47,-81,-95,-376,-96,15,-193,-421,-111,-80,-451,274,-231,-254,-252,105,350,-103,267,-73,-113,-15
19699,-22,144,242,-288,-172,386,228,143,-213,-499,-12,-112,-84,-390,-105,-11,-189,-447,-131,-103,-484,183,-228,-297,-290,59,268,-132,225,-130,-207,-274
19700,-106,162,217,-297,-150,391,196,121,-208,-499,-13,-71,-82,-408,-103,0,-194,-449,-137,-124,-491,152,-216,-284,-288,58,251,-130,242,-117,-206,-278
19701,-187,103,201,-283,-178,358,125,113,-230,-528,-161,-79,-120,-428,-139,-10,-250,-450,-153,-138,-514,164,-241,-301,-310,33,233,-209,239,-112,-215,-284
19702,-185,31,147,-272,-179,265,158,115,-229,-535,-280,-77,-92,-411,-157,-3,-279,-479,-145,-149,-503,155,-306,-310,-292,17,231,-224,259,-149,-244,-287
19703,-143,46,135,-318,-188,266,145,105,-234,-558,-218,-121,-98,-425,-160,-29,-286,-486,-160,-161,-543,149,-335,-307,-313,11,203,-202,254,-154,-245,-326
19704,-109,111,151,-328,-179,319,182,130,-226,-532,-109,-113,-88,-432,-149,-46,-346,-440,-139,-160,-525,146,-274,-284,-317,16,219,-166,277,-143,-237,-286
19705,-68,127,179,-307,-167,333,159,159,-230,-535,-113,-66,-86,-446,-139,-52,-299,-460,-131,-155,-510,147,-274,-292,-315,22,215,-187,267,-137,-213,-309
19706,-57,132,231,-300,-162,324,67,173,-210,-531,-161,-5,-70,-455,-143,-65,-249,-409,-140,-164,-515,139,-209,-268,-317,10,209,-181,276,-122,-205,-310
19707,-73,106,265,-320,-174,323,112,133,-218,-531,-201,-28,-85,-469,-209,-3,-260,-411,-142,-174,-517,202,-175,-235,-295,35,303,-118,353,-54,-141,-143
19708,-78,25,234,-348,-165,345,127,101,-218,-519,-197,-33,-88,-438,-193,1,-212,-412,-142,-164,-495,172,-123,-233,-291,54,306,-84,350,-78,-139,-149
19709,-114,8,218,-353,-180,352,71,106,-219,-509,-192,-14,-104,-462,-159,-48,-203,-398,-152,-167,-514,101,-115,-251,-314,27,284,-191,293,-185,-217,-257
19710,-115,65,208,-328,-195,319,88,115,-215,-543,-197,0,-92,-471,-203,-53,-225,-410,-161,-174,-515,161,-186,-283,-317,11,296,-220,257,-181,-239,-258
19711,-99,111,222,-333,-194,342,88,101,-219,-542,-179,-17,-122,-473,-196,-59,-206,-436,-166,-172,-505,187,-236,-292,-312,27,295,-130,280,-132,-192,-169
19712,-125,97,197,-331,-182,306,108,120,-236,-565,-290,-22,-116,-458,-198,-60,-184,-444,-179,-173,-522,175,-224,-293,-313,23,258,-127,281,-129,-189,-142
19713,-135,124,182,-304,-182,317,264,162,-195,-548,-231,-12,-88,-455,-213,-56,-175,-443,-156,-168,-519,164,-203,-285,-318,29,248,-113,294,-112,-178,-174
19714,-174,97,113,-308,-188,348,224,9,-213,-542,-203,2,-72,-463,-197,-18,-108,-401,-155,-163,-501,202,-156,-277,-314,45,299,-76,324,-90,-105,-22
19715,-153,17,76,-305,-208,272,35,43,-206,-554,-249,2,-103,-469,-220,-14,-161,-415,-160,-202,-521,109,-220,-295,-332,7,212,-134,257,-179,-226,-288
19716,-127,9,83,-251,-204,200,-12,259,-189,-564,-269,-49,-95,-451,-221,-32,-152,-455,-170,-210,-565,30,-278,-322,-363,-44,145,-155,206,-230,-287,-443
19717,-133,35,201,-272,-196,242,27,239,-208,-571,-251,-91,-115,-476,-227,-88,-155,-466,-205,-236,-593,74,-294,-371,-386,-62,141,-156,194,-264,-299,-426
19718,-124,25,213,-293,-194,252,34,184,-201,-572,-266,-101,-123,-478,-230,-110,-227,-500,-216,-227,-607,44,-317,-379,-402,-62,131,-159,173,-282,-347,-492
19719,-127,23,189,-301,-190,260,33,143,-201,-561,-247,-107,-134,-455,-224,-108,-277,-534,-206,-221,-598,30,-338,-353,-377,-53,142,-185,166,-266,-357,-391
19720,-153,18,178,-310,-196,261,3,102,-211,-565,-261,-79,-127,-432,-232,-124,-278,-506,-186,-204,-582,28,-314,-337,-351,-33,154,-213,172,-276,-378,-378
19721,-155,3,159,-339,-191,275,-6,78,-220,-566,-248,-114,-151,-442,-228,-145,-311,-524,-185,-193,-573,-38,-307,-329,-331,-33,154,-220,190,-286,-372,-383
19722,-211,-30,136,-339,-203,277,20,61,-240,-565,-212,-150,-172,-442,-231,-167,-372,-540,-192,-214,-602,-38,-341,-360,-346,-66,85,-316,157,-280,-342,-377
19723,-238,-46,119,-319,-226,244,-3,31,-236,-569,-230,-191,-177,-466,-239,-194,-372,-586,-217,-226,-663,-86,-376,-389,-372,-95,-5,-315,79,-372,-446,-525
19724,-199,-59,134,-334,-220,252,-55,46,-229,-563,-306,-190,-191,-466,-257,-231,-347,-566,-234,-229,-699,-147,-383,-383,-365,-110,-60,-287,66,-402,-483,-592
19725,-185,-85,138,-338,-204,238,-68,28,-236,-591,-412,-198,-188,-479,-273,-239,-317,-571,-233,-245,-676,-140,-391,-363,-366,-114,-53,-302,85,-392,-462,-469
19726,-172,-106,135,-341,-202,198,-60,10,-225,-606,-452,-204,-195,-475,-273,-231,-286,-606,-229,-239,-659,-79,-417,-367,-358,-100,1,-331,72,-378,-418,-330
19727,-170,-95,122,-354,-188,212,-62,58,-221,-578,-385,-176,-158,-457,-240,-225,-299,-550,-198,-202,-655,-71,-360,-345,-325,-64,69,-331,64,-371,-399,-324
19728,-242,-59,28,-326,-180,216,-60,110,-203,-554,-346,-170,-123,-456,-226,-210,-350,-509,-177,-186,-635,-99,-341,-327,-318,-63,39,-343,94,-361,-422,-448
19729,-206,-26,24,-299,-165,226,-35,100,-195,-543,-343,-176,-123,-460,-227,-198,-337,-504,-160,-188,-648,-123,-354,-312,-324,-79,-33,-366,77,-417,-488,-613
19730,-235,-34,45,-307,-174,215,-55,95,-206,-565,-349,-241,-123,-474,-241,-206,-313,-546,-156,-190,-670,-131,-340,-297,-318,-76,-65,-365,64,-402,-494,-577
19731,-260,-48,10,-343,-208,206,-91,43,-233,-592,-363,-321,-160,-464,-269,-240,-369,-548,-162,-199,-660,-104,-328,-311,-319,-84,-58,-349,94,-368,-441,-448
19732,-266,-47,-31,-327,-198,176,-99,26,-211,-582,-379,-340,-115,-424,-252,-255,-401,-481,-136,-210,-705,-154,-278,-291,-315,-89,-72,-372,111,-340,-440,-487
19733,-272,-32,-9,-326,-196,191,-109,31,-209,-578,-361,-274,-116,-448,-247,-258,-385,-508,-148,-228,-721,-189,-331,-311,-336,-121,-105,-368,84,-394,-487,-542
19734,-226,-47,-11,-311,-196,197,-35,90,-202,-573,-394,-196,-106,-449,-254,-249,-305,-520,-153,-220,-694,-211,-369,-317,-337,-133,-110,-351,62,-444,-529,-574
19735,-181,-59,43,-333,-210,163,-48,90,-213,-586,-385,-164,-123,-441,-246,-262,-250,-537,-181,-217,-702,-241,-392,-328,-347,-119,-130,-309,74,-434,-522,-622
19736,-127,-15,133,-309,-196,216,-10,109,-206,-566,-309,-95,-97,-416,-241,-222,-296,-510,-171,-193,-677,-173,-363,-315,-343,-125,-98,-311,91,-409,-512,-600
19737,-167,-21,171,-320,-195,218,39,95,-228,-559,-267,-65,-123,-431,-253,-224,-342,-520,-183,-219,-690,-166,-375,-335,-360,-137,-122,-356,55,-431,-531,-607
19738,-152,-42,211,-334,-178,215,-16,66,-209,-572,-273,-73,-115,-436,-236,-206,-303,-511,-167,-214,-695,-177,-355,-329,-356,-133,-120,-335,65,-418,-536,-559
19739,-138,-41,211,-318,-188,217,-33,66,-207,-576,-254,-80,-111,-419,-239,-161,-384,-521,-174,-196,-662,-141,-373,-331,-346,-119,-50,-349,60,-421,-505,-488
19740,-117,0,173,-286,-182,236,18,103,-204,-567,-254,-63,-94,-434,-249,-151,-349,-490,-165,-200,-654,-129,-344,-337,-360,-95,-16,-343,49,-403,-478,-484
19741,-133,12,180,-282,-199,275,32,139,-197,-569,-234,-46,-90,-448,-247,-151,-361,-469,-168,-211,-662,-117,-296,-320,-369,-114,-23,-326,48,-403,-494,-531
19742,-145,52,144,-282,-183,323,117,95,-211,-567,-213,-71,-103,-457,-250,-173,-351,-482,-184,-250,-688,-130,-291,-334,-387,-137,-46,-311,55,-416,-545,-627
19743,-149,91,79,-289,-160,358,101,88,-187,-545,-238,-85,-104,-439,-209,-153,-325,-480,-178,-220,-652,-49,-313,-332,-366,-84,-4,-306,67,-383,-472,-459
19744,-186,-13,41,-282,-185,270,-65,148,-186,-553,-310,-76,-85,-423,-188,-103,-275,-467,-152,-183,-591,5,-301,-307,-312,-41,118,-252,108,-322,-375,-261
19745,-221,-29,102,-258,-179,257,-68,137,-193,-557,-211,-73,-77,-437,-194,-92,-255,-497,-142,-172,-595,-104,-348,-286,-283,-33,142,-243,111,-319,-377,-276
19746,-178,3,141,-241,-175,301,-51,121,-201,-533,-98,-108,-87,-412,-175,-141,-270,-518,-133,-149,-602,16,-363,-302,-288,-15,102,-274,97,-330,-405,-390
19747,-188,-58,112,-265,-200,263,-46,121,-202,-536,-138,-152,-116,-437,-173,-171,-316,-552,-150,-172,-626,-82,-396,-338,-303,-63,-18,-315,45,-422,-516,-728
19748,-239,-154,120,-284,-213,277,3,110,-218,-523,-255,-187,-127,-435,-154,-120,-366,-554,-143,-159,-603,-111,-417,-333,-299,-47,5,-361,32,-413,-490,-642
19749,-226,-127,180,-286,-205,221,97,47,-204,-545,-249,-172,-115,-405,-205,-13,-292,-489,-112,-123,-560,-6,-356,-287,-251,4,102,-319,83,-374,-393,-410
19750,-200,-124,120,-288,-217,227,87,-176,-219,-572,-228,-123,-112,-408,-195,18,-243,-455,-112,-111,-536,-25,-313,-264,-244,19,119,-313,90,-350,-395,-410
19751,-171,-84,27,-282,-191,237,58,88,-220,-530,-323,-111,-83,-413,-184,77,-205,-482,-107,-111,-513,-30,-292,-266,-220,32,105,-282,94,-363,-393,-496
19752,-225,-15,32,-292,-170,251,84,189,-218,-520,-303,-72,-87,-422,-157,62,-199,-445,-102,-90,-507,-10,-260,-264,-223,36,128,-266,110,-355,-357,-454
19753,-206,24,108,-293,-170,278,77,165,-208,-518,-234,-66,-97,-410,-142,-18,-190,-447,-124,-99,-477,24,-261,-244,-226,59,181,-224,133,-303,-329,-386
19754,-138,121,115,-320,-172,303,107,145,-212,-498,-189,-65,-82,-406,-139,-188,-123,-431,-108,-81,-465,103,-231,-222,-189,102,257,-173,196,-246,-267,-325
19755,-126,144,141,-303,-182,300,127,114,-234,-505,-152,-52,-84,-411,-122,-57,-98,-431,-97,-80,-451,91,-194,-223,-197,109,262,-168,202,-228,-259,-335
19756,-85,145,231,-356,-179,321,138,112,-213,-509,-160,-30,-85,-413,-115,1,-129,-414,-108,-86,-446,30,-166,-211,-191,127,222,-189,209,-226,-242,-312
19757,-38,124,219,-368,-176,321,158,111,-222,-511,-181,-40,-77,-411,-122,4,-97,-393,-102,-80,-469,69,-171,-239,-188,109,198,-210,190,-256,-264,-321
19758,-82,105,108,-328,-195,317,140,134,-216,-511,-188,-55,-97,-398,-125,7,-91,-438,-107,-78,-456,106,-187,-245,-198,118,187,-191,169,-269,-298,-355
19759,-109,91,79,-349,-191,322,153,125,-211,-508,-184,-28,-80,-381,-118,-20,-96,-433,-111,-72,-447,98,-171,-237,-200,110,171,-188,161,-272,-302,-333
19760,-131,60,88,-332,-203,320,160,133,-230,-506,-197,-20,-62,-376,-111,-27,-154,-401,-93,-59,-472,93,-137,-205,-187,111,186,-152,195,-240,-261,-279
19761,-159,62,104,-347,-211,324,127,118,-229,-505,-205,-93,-91,-388,-108,-44,-221,-412,-87,-59,-476,93,-184,-220,-194,99,172,-118,188,-243,-291,-341
19762,-252,45,109,-339,-201,307,89,81,-229,-522,-193,-142,-113,-407,-143,-41,-190,-437,-108,-83,-502,84,-220,-238,-216,75,161,-155,158,-265,-304,-382
19763,-222,74,145,-368,-226,313,91,74,-224,-516,-201,-146,-96,-390,-137,-9,-164,-446,-103,-95,-484,110,-220,-251,-211,87,199,-202,154,-273,-312,-296
19764,-205,36,104,-392,-225,303,55,69,-224,-526,-216,-84,-108,-389,-152,-29,-251,-497,-112,-94,-486,82,-261,-255,-206,78,180,-227,129,-284,-317,-350
19765,-225,28,43,-356,-208,302,27,117,-230,-517,-237,-46,-95,-391,-168,-67,-269,-448,-129,-116,-514,7,-241,-256,-220,42,142,-220,127,-293,-354,-440
19766,-194,39,61,-359,-212,261,65,105,-227,-511,-233,-57,-74,-375,-187,-110,-294,-431,-114,-113,-517,22,-206,-256,-223,49,177,-242,147,-312,-352,-366
19767,-222,-4,31,-358,-229,230,68,77,-221,-533,-265,-69,-92,-392,-197,-178,-264,-430,-113,-132,-549,17,-179,-257,-255,28,139,-273,138,-327,-355,-367
19768,-188,-33,6,-340,-228,277,53,125,-219,-528,-279,-45,-88,-393,-182,-162,-250,-448,-113,-126,-559,22,-207,-267,-242,44,121,-263,95,-309,-332,-356
19769,-195,-33,39,-313,-209,300,53,148,-219,-526,-238,-56,-99,-395,-183,-131,-259,-484,-102,-112,-562,15,-283,-296,-239,56,127,-250,91,-278,-322,-296
19770,-220,15,27,-290,-202,311,70,155,-197,-543,-198,-69,-86,-397,-187,-147,-289,-466,-97,-106,-565,16,-280,-275,-248,42,105,-225,144,-256,-318,-314
19771,-176,44,41,-275,-211,280,-5,189,-192,-551,-209,-71,-66,-389,-199,-101,-309,-444,-85,-112,-546,28,-274,-249,-210,27,95,-243,146,-270,-331,-358
19772,-96,75,116,-249,-186,320,24,188,-201,-530,-204,-38,-63,-390,-177,-34,-261,-443,-49,-104,-530,46,-260,-235,-203,36,124,-247,167,-251,-326,-378
19773,-88,44,162,-298,-188,322,71,139,-231,-516,-181,-22,-61,-396,-157,-21,-245,-448,-81,-117,-522,72,-256,-254,-202,41,141,-237,170,-267,-321,-355
19774,-150,15,135,-309,-211,315,83,140,-225,-509,-165,-24,-55,-384,-161,-34,-275,-432,-81,-104,-508,82,-269,-244,-202,56,156,-266,132,-311,-332,-349
19775,-175,2,148,-301,-215,348,143,112,-221,-508,-108,-61,-64,-386,-156,-33,-258,-461,-88,-99,-493,72,-304,-252,-206,69,170,-237,144,-270,-291,-303
19776,-179,22,204,-305,-211,329,161,103,-230,-506,-78,-89,-81,-391,-158,-46,-268,-498,-95,-119,-495,49,-317,-267,-211,63,162,-254,145,-269,-275,-293
19777,-110,68,294,-295,-177,299,86,143,-206,-501,-71,-32,-50,-345,-128,-9,-215,-441,-64,-88,-479,65,-279,-241,-205,75,160,-222,164,-281,-290,-339
19778,-115,37,300,-327,-199,230,43,98,-219,-517,-121,-36,-69,-348,-130,6,-204,-432,-88,-93,-467,1,-274,-234,-215,77,118,-196,166,-270,-290,-431
19779,-96,51,276,-358,-200,267,148,93,-225,-523,-127,-19,-72,-339,-172,-1,-186,-420,-82,-91,-468,35,-249,-215,-212,69,132,-179,187,-261,-306,-378
19780,-90,48,207,-356,-221,257,137,188,-241,-551,-217,-33,-50,-366,-188,-20,-165,-418,-76,-106,-505,72,-257,-231,-220,58,113,-220,169,-282,-334,-441
19781,-69,93,224,-340,-203,277,133,265,-227,-542,-276,-97,-52,-362,-175,8,-159,-402,-79,-104,-499,93,-266,-233,-210,64,140,-255,149,-287,-318,-448
19782,-62,72,237,-321,-211,304,136,225,-219,-533,-209,-96,-52,-353,-161,14,-89,-406,-68,-75,-482,87,-230,-219,-208,83,183,-201,180,-273,-309,-399
19783,-92,98,160,-323,-229,327,186,145,-239,-543,-158,-110,-83,-372,-150,17,-107,-457,-94,-98,-473,83,-261,-245,-213,92,193,-258,163,-262,-314,-377
19784,-88,78,168,-334,-235,328,149,140,-253,-532,-102,-28,-64,-379,-137,0,-183,-431,-116,-102,-481,72,-204,-233,-204,87,161,-255,171,-243,-261,-254
19785,-28,113,274,-325,-201,367,163,171,-206,-504,-58,5,-41,-375,-111,31,-193,-389,-104,-89,-455,123,-166,-224,-200,110,180,-201,170,-223,-237,-107
19786,-21,126,306,-341,-202,376,202,166,-227,-503,-96,40,-71,-394,-99,68,-190,-407,-129,-93,-451,150,-220,-245,-238,106,227,-166,191,-205,-214,-98
19787,1,129,308,-332,-184,334,242,181,-234,-509,-160,66,-68,-402,-111,90,-147,-396,-102,-93,-452,143,-224,-223,-211,92,201,-134,205,-236,-269,-329
19788,14,135,290,-313,-167,329,307,204,-227,-509,-113,45,-55,-426,-120,118,-136,-371,-113,-94,-435,229,-227,-220,-212,97,236,-116,207,-208,-256,-316
19789,-47,81,255,-288,-171,346,223,220,-226,-498,-88,-39,-63,-442,-116,89,-138,-378,-117,-99,-456,186,-237,-238,-225,99,238,-109,228,-173,-207,-263
19790,-112,-13,214,-277,-169,320,184,161,-242,-519,-124,-70,-104,-431,-121,56,-175,-416,-133,-104,-500,157,-264,-239,-241,55,176,-129,231,-199,-258,-312
19791,-118,56,188,-296,-193,332,194,-36,-245,-515,-120,-6,-106,-426,-118,62,-148,-433,-123,-94,-488,96,-252,-248,-227,50,155,-115,240,-201,-292,-376
19792,-154,69,153,-280,-190,333,141,82,-243,-522,-86,40,-99,-440,-119,34,-55,-442,-111,-110,-486,37,-253,-259,-247,56,191,-126,224,-191,-277,-318
