,Fp1,Fp2,F7,F3,Fz,F4,F8,FC5,FC1,FC2,FC6,T7,C3,Cz,C4,T8,TP9,CP5,CP1,CP2,CP6,TP10,P7,P3,Pz,P4,P8,PO9,O1,Oz,O2,PO10
129360,371,456,368,28,181,252,189,449,399,187,141,1331,381,318,366,129,334,370,97,373,-17,278,485,553,187,181,70,72,418,133,320,495
129361,375,362,428,78,176,280,77,512,379,163,150,1371,392,290,359,91,342,359,105,336,-40,242,418,520,197,174,19,63,428,136,322,488
129362,359,389,334,28,201,428,200,345,370,216,342,1221,342,309,424,186,329,290,119,377,41,291,388,525,204,228,63,208,497,213,375,574
129363,255,407,205,5,201,444,252,241,365,244,446,1079,308,315,461,154,289,245,104,393,67,250,348,517,215,239,86,282,483,233,401,572
129364,281,473,222,10,178,347,294,277,349,209,365,1048,295,319,474,174,286,238,96,387,94,242,337,519,226,249,94,246,496,229,382,562
129365,317,491,296,19,173,279,255,443,371,163,107,1190,368,333,434,87,303,299,128,415,137,312,389,574,243,271,169,119,511,243,406,565
129366,318,510,316,76,203,259,242,417,404,180,-23,1165,412,356,420,-328,439,410,164,429,177,338,525,638,276,292,209,274,590,286,453,579
129367,424,477,378,131,201,269,262,559,423,172,-2,1169,445,347,375,-43,415,480,171,416,124,362,517,649,261,273,162,374,557,245,422,570
129368,381,438,338,147,191,275,247,735,439,180,178,1231,461,339,354,461,361,460,152,367,-31,347,466,629,224,206,98,437,523,218,380,567
129369,141,373,160,173,186,329,157,751,432,186,245,1280,405,336,355,431,359,345,114,353,-70,305,426,579,208,197,85,411,555,236,399,569
129370,146,336,76,118,174,370,143,503,397,198,246,1347,325,316,397,234,436,282,109,371,30,318,417,570,210,231,151,408,549,231,408,575
129371,250,347,222,86,167,280,60,393,409,174,192,1263,336,329,380,190,413,357,112,371,29,377,450,584,219,225,182,461,569,227,401,600
129372,415,405,349,65,187,293,92,410,408,166,177,1140,341,351,385,189,433,314,123,390,56,379,448,577,237,245,198,465,582,233,376,654
129373,488,406,449,28,186,285,213,358,389,176,174,1377,353,343,403,202,444,330,122,398,74,268,470,582,220,255,175,456,561,226,395,626
129374,464,407,487,-35,182,312,242,185,364,176,237,1401,310,321,436,220,484,336,80,414,133,395,486,602,209,281,276,428,571,229,403,557
129375,476,441,444,-23,187,291,219,271,381,186,212,1270,332,326,400,179,476,335,75,417,143,427,454,597,230,282,338,372,533,217,410,555
129376,528,486,496,30,216,316,257,392,409,197,258,1257,406,365,436,281,535,379,123,441,144,383,539,630,266,296,333,361,573,261,424,643
129377,499,514,436,11,204,308,256,405,397,184,283,1208,381,334,439,318,502,335,113,416,125,387,519,588,241,272,256,390,555,235,398,639
129378,522,523,465,-42,213,273,231,334,376,189,248,1211,347,344,457,126,497,315,125,434,184,421,499,614,255,333,316,403,570,232,399,610
129379,456,415,413,-43,204,327,277,307,380,210,277,1195,354,347,488,29,462,338,139,457,230,463,521,660,275,346,343,372,562,257,411,743
129380,341,392,334,42,191,276,243,428,417,180,148,1211,413,341,424,261,477,392,155,434,144,341,551,675,271,311,257,362,572,244,404,608
129381,329,382,369,85,186,238,180,514,412,164,104,1273,420,338,358,364,543,413,156,390,58,346,607,654,262,252,216,304,568,211,385,511
129382,379,328,389,59,188,357,178,542,420,195,284,1386,440,333,404,284,606,453,172,394,80,314,657,673,261,254,223,348,561,206,357,544
129383,421,327,387,6,171,407,222,436,403,218,335,1349,422,324,448,308,654,453,167,422,162,309,664,682,239,292,253,285,576,198,371,554
129384,402,434,425,23,179,412,263,463,412,220,246,1332,433,336,451,306,553,464,165,427,146,252,626,659,254,294,322,75,551,218,405,481
129385,392,496,377,69,183,337,266,554,426,193,164,1362,483,342,415,252,458,473,163,408,141,361,594,649,233,309,447,104,508,168,345,276
129386,429,495,387,85,200,323,244,594,438,211,240,1374,500,351,441,207,386,482,173,424,156,389,646,667,254,331,407,207,533,176,362,426
129387,424,513,405,57,205,305,278,445,410,207,243,1352,446,334,465,118,491,466,168,432,195,371,720,676,263,321,240,247,582,215,390,683
129388,444,557,466,47,198,296,229,371,410,201,180,1400,440,315,462,105,557,460,164,450,227,425,666,660,258,321,238,326,548,232,420,764
129389,402,520,455,47,194,322,190,413,413,228,172,1362,439,319,419,279,533,413,134,427,168,460,508,602,250,308,261,240,477,237,415,725
129390,337,488,344,82,188,293,210,473,424,203,286,1273,418,321,396,464,541,382,106,398,113,434,489,592,216,292,272,313,473,194,362,647
129391,295,404,233,79,189,286,221,467,400,189,243,1275,407,315,371,349,441,372,114,384,84,356,420,573,218,258,269,285,440,150,331,571
129392,299,472,344,57,207,253,247,427,410,197,200,1211,402,320,376,225,320,346,128,392,122,293,356,559,214,283,354,244,451,155,324,-26
129393,300,505,386,54,205,266,268,430,430,194,237,1384,420,332,392,11,322,365,115,399,188,260,387,560,208,316,525,38,408,129,301,156
129394,347,497,362,56,204,288,286,373,414,204,269,1403,391,329,380,-18,382,384,99,389,164,330,458,566,211,264,349,95,416,147,330,737
129395,393,465,452,25,209,359,314,277,395,202,251,1233,339,306,344,287,394,310,81,356,86,332,410,536,180,193,223,216,429,108,288,621
129396,420,459,437,23,213,352,312,311,426,207,173,1220,378,323,327,464,445,364,99,330,-29,464,432,541,201,173,142,349,466,97,300,584
129397,464,497,437,37,219,298,221,283,411,211,215,1215,334,294,362,308,466,345,95,337,29,510,466,549,216,212,140,306,465,135,322,661
129398,429,470,488,65,186,295,163,313,411,190,223,1189,340,293,353,207,468,353,103,340,67,439,504,571,191,212,184,270,463,150,314,598
129399,387,439,345,101,176,303,189,373,428,190,275,1189,393,294,383,285,538,378,113,363,109,449,560,602,212,241,240,477,527,146,364,545
129400,380,455,202,122,191,299,220,419,442,210,315,1222,393,311,379,208,402,310,96,372,78,396,424,567,216,240,201,397,480,146,351,609
129401,329,449,209,86,181,248,213,476,418,189,265,1202,379,292,375,163,298,287,90,361,62,409,318,554,208,237,165,230,437,155,334,632
129402,323,436,269,114,182,285,233,496,435,208,214,1207,399,314,400,233,400,367,108,374,56,394,367,582,227,236,164,199,451,149,333,556
129403,330,340,312,108,190,312,245,526,452,195,97,1283,425,323,373,176,451,425,122,374,46,379,477,613,244,243,160,187,488,161,348,564
129404,305,301,278,64,188,365,232,378,425,198,158,1182,395,310,401,191,503,386,130,375,62,411,539,659,244,257,205,185,491,158,340,566
129405,357,392,345,46,193,331,250,369,417,226,173,1246,385,322,425,218,491,394,137,416,99,420,559,642,255,283,235,231,503,155,339,547
129406,375,430,247,23,177,296,240,383,410,198,215,1300,402,320,420,40,424,400,117,407,91,364,512,619,226,282,236,112,447,136,294,470
129407,347,405,220,44,184,337,156,528,436,197,184,1367,450,309,415,-80,473,453,137,378,124,364,562,652,215,268,237,67,450,138,300,413
129408,354,362,262,66,189,351,180,619,427,227,219,1283,457,308,423,222,395,449,127,398,140,317,528,652,222,266,235,159,455,104,286,373
129409,333,318,275,23,177,406,234,539,384,211,269,1249,424,300,384,412,288,400,92,391,93,242,447,626,191,224,243,100,427,81,257,386
129410,364,429,334,-78,165,413,272,261,353,201,311,1272,335,278,407,341,347,334,64,377,62,276,380,593,174,220,209,227,442,89,285,268
129411,415,493,407,-65,175,385,313,146,352,219,267,1279,273,291,438,277,405,299,41,392,144,387,355,573,198,263,309,227,426,82,278,369
129412,405,500,391,10,182,352,290,366,385,212,196,1433,357,286,445,95,397,422,86,413,172,377,532,642,239,266,250,239,508,108,304,563
129413,396,475,323,44,195,318,247,434,414,224,186,1395,399,315,439,178,457,456,121,404,185,347,614,679,251,287,255,48,545,141,321,448
129414,333,430,334,50,204,276,256,453,440,238,186,1315,438,340,433,414,610,505,161,426,177,450,711,742,288,340,319,141,597,218,399,554
129415,323,412,324,30,184,319,245,424,410,225,226,1270,420,306,398,399,579,465,128,421,76,402,630,695,272,307,209,151,547,212,396,644
129416,377,451,331,20,168,322,210,346,377,248,249,1221,339,296,417,307,423,364,77,419,114,412,478,621,266,311,223,236,484,203,373,689
129417,394,490,410,8,198,365,247,321,400,252,284,1229,343,286,441,314,371,332,53,411,146,514,426,586,240,304,309,167,466,178,351,634
129418,396,504,404,-1,188,302,202,315,385,208,233,1284,338,279,404,261,418,372,28,394,99,411,471,583,204,278,290,223,481,146,326,505
129419,407,506,390,-24,178,256,128,346,377,193,147,1253,341,275,354,233,405,343,36,377,97,288,429,572,195,258,225,291,487,153,329,446
129420,382,488,365,-24,189,283,174,372,402,221,185,1273,351,283,365,126,356,320,48,379,119,285,399,568,199,269,200,145,480,188,357,403
129421,350,422,361,-17,190,338,174,278,388,246,218,1214,300,289,425,-97,319,321,48,419,202,298,439,591,219,306,282,173,514,210,381,434
129422,369,398,365,-14,182,394,119,189,374,258,286,1194,289,297,456,180,350,302,44,435,266,299,419,596,249,340,357,251,520,228,394,377
129423,353,453,354,-30,197,363,124,269,387,255,346,1272,322,296,448,547,390,337,68,431,222,311,437,615,253,360,479,204,530,252,407,219
129424,299,460,292,-5,195,324,200,299,382,243,324,1221,329,282,467,548,458,363,98,452,260,185,557,655,264,409,700,71,537,239,404,-373
129425,261,402,224,9,181,318,211,306,368,235,282,1227,321,289,467,398,449,328,72,443,285,212,464,617,235,386,593,186,509,196,387,154
129426,300,428,250,-6,195,314,215,347,397,212,146,1204,341,316,422,376,384,323,94,439,187,360,390,613,248,327,226,208,532,264,455,839
129427,298,463,252,-35,204,325,153,330,386,221,192,1185,346,326,430,235,370,359,115,455,126,467,449,658,292,350,89,352,602,354,535,1021
129428,301,466,236,-52,182,294,166,260,369,220,236,1213,346,321,423,241,459,377,111,452,127,459,502,675,295,333,117,351,648,323,497,921
129429,332,495,278,-67,178,313,210,256,371,219,240,1236,318,292,416,301,423,317,89,432,116,288,510,625,253,263,40,105,556,176,346,595
129430,245,514,290,-37,197,317,172,328,387,243,231,1301,353,313,436,238,435,397,128,452,106,275,572,683,276,292,26,414,607,186,372,515
129431,166,470,222,-9,175,346,103,314,372,248,278,1283,345,325,457,194,291,331,113,470,124,401,452,653,306,326,137,286,577,247,419,564
129432,219,438,212,-28,176,321,92,287,372,245,307,1225,337,311,452,185,296,313,100,467,127,407,430,627,294,335,216,95,525,238,393,527
129433,286,437,243,-46,169,344,164,274,357,257,279,1169,351,321,458,218,292,337,100,460,144,292,543,648,289,337,283,85,579,232,410,529
129434,297,460,305,-35,178,322,180,345,350,236,233,1212,354,303,435,205,498,439,84,434,129,291,872,704,233,280,241,-443,589,183,387,464
129435,306,395,331,-2,176,369,140,440,372,231,151,1340,400,297,416,114,577,597,131,399,137,126,1328,799,240,281,311,-545,689,201,378,226
129436,329,398,175,-49,178,394,186,363,368,245,233,1227,343,303,463,154,288,473,102,441,296,66,1034,689,221,359,646,-580,492,138,301,82
129437,386,410,28,-74,172,322,212,373,361,220,230,1095,291,273,445,272,212,272,54,429,281,296,469,551,204,325,411,80,421,158,334,608
129438,397,395,108,-48,183,314,208,389,369,217,200,1070,286,277,401,306,81,169,29,393,81,370,93,507,200,264,147,499,479,224,409,669
129439,402,424,137,-42,190,339,302,268,378,223,217,1039,272,276,382,297,64,150,31,395,15,461,11,502,203,266,107,497,483,237,416,669
129440,409,406,159,-68,192,334,340,169,352,214,263,955,224,273,393,133,56,53,-4,386,51,419,-66,448,142,242,185,529,451,198,383,503
129441,424,398,288,-28,197,320,250,272,362,220,199,1090,267,278,411,109,154,126,32,389,82,449,25,482,161,264,201,562,496,227,417,631
129442,409,303,325,31,199,338,136,341,401,235,139,1188,312,282,421,-64,277,208,55,366,88,392,102,522,181,241,57,667,574,260,438,705
129443,416,379,278,-15,194,343,72,339,379,230,224,1053,264,265,387,2,316,163,20,377,91,364,49,504,167,217,27,585,521,227,388,657
129444,387,530,306,1,206,305,129,343,382,227,273,1077,295,258,390,204,353,188,24,385,88,385,99,520,152,228,111,521,502,205,364,661
129445,399,582,381,60,212,348,161,404,410,226,337,1148,360,283,416,306,351,269,78,384,48,336,240,576,179,240,75,670,596,247,402,591
129446,417,602,434,58,212,356,248,361,410,244,316,1168,345,307,435,420,340,255,75,399,69,413,249,593,223,279,142,601,622,276,431,587
129447,424,609,419,10,174,314,267,253,392,237,297,1192,304,297,456,371,275,254,77,407,115,423,247,595,239,307,184,448,612,291,478,652
129448,369,547,390,-48,169,281,218,190,380,231,237,1239,303,303,461,312,338,281,97,423,140,458,351,611,247,308,216,341,596,271,443,563
129449,344,527,358,-49,164,269,239,225,368,231,95,1291,323,312,415,262,394,327,96,404,102,468,410,628,226,285,225,218,566,210,378,497
129450,328,479,341,-52,159,304,208,280,370,236,152,1228,330,307,429,221,449,343,109,395,81,385,472,623,224,272,159,287,537,185,355,468
129451,256,448,220,-75,146,297,176,259,383,230,162,1122,326,320,415,-39,549,318,112,413,113,256,504,649,237,285,162,430,570,202,377,459
129452,186,386,158,-71,134,277,94,224,365,238,150,1088,343,351,437,-171,489,333,137,427,139,281,494,675,282,325,215,491,592,234,403,471
129453,129,305,125,-81,128,279,6,230,361,228,162,1083,343,351,439,213,377,330,141,446,120,419,431,651,265,340,245,271,548,188,379,489
129454,161,344,144,-62,148,317,46,257,358,247,289,1102,348,362,456,481,338,339,150,445,11,523,428,664,269,315,231,206,561,205,380,530
129455,236,398,305,-35,158,397,205,308,359,265,289,1180,365,350,467,426,422,379,144,446,86,459,515,703,271,328,233,234,580,246,379,537
129456,298,468,381,-6,170,412,362,335,366,255,335,1208,370,348,496,378,452,384,151,471,165,440,512,703,277,367,293,186,547,213,369,459
129457,415,560,399,8,173,371,422,337,364,244,326,1216,355,346,516,255,459,386,140,459,193,398,469,667,255,371,389,262,519,155,329,180
129458,435,555,440,-3,175,328,390,373,384,231,265,1263,367,336,505,223,552,443,160,454,185,391,537,705,274,356,325,439,592,221,402,559
129459,393,499,477,13,168,349,349,407,370,243,286,1330,374,341,490,410,613,404,143,434,126,420,536,698,254,316,202,454,596,229,399,653
129460,315,433,453,-17,141,364,326,419,370,246,298,1392,396,335,466,497,617,445,156,436,78,460,635,711,256,301,251,277,597,230,408,544
129461,253,335,427,-52,152,369,323,402,372,237,296,1397,424,344,468,408,635,513,163,425,112,511,782,740,282,308,286,220,611,204,367,428
129462,292,349,482,-34,159,373,381,447,394,238,343,1444,439,344,482,364,630,519,165,422,130,537,840,728,268,308,259,-117,569,168,334,482
129463,297,411,500,-3,178,369,386,484,401,254,328,1481,444,333,475,318,583,510,151,430,127,562,799,714,261,267,218,-73,530,178,360,589
129464,239,380,453,-20,170,348,338,444,395,271,308,1415,438,342,486,375,560,497,182,444,151,557,780,710,261,293,266,368,552,182,370,548
129465,170,304,362,-59,130,329,364,349,382,255,335,1328,403,342,494,358,496,458,166,436,147,427,694,692,266,298,301,384,560,187,387,494
129466,155,282,341,-75,146,341,301,372,391,280,383,1301,387,330,497,356,467,413,130,445,198,455,528,642,268,336,439,344,543,208,393,468
129467,125,263,320,-64,133,340,290,373,375,290,410,1255,361,318,511,372,417,323,93,429,208,529,379,577,214,342,484,292,450,188,340,287
129468,126,268,311,-42,125,333,292,384,391,261,361,1304,344,324,478,342,443,314,75,412,172,405,306,556,211,322,316,452,473,201,373,409
129469,103,229,319,-55,118,307,288,400,376,242,314,1394,356,305,456,375,479,324,88,388,145,294,308,565,192,274,206,432,483,175,352,400
129470,130,278,370,-25,167,332,371,366,409,271,225,1392,398,323,455,424,629,374,116,411,185,312,469,636,254,303,226,429,530,232,377,673
129471,80,150,303,-14,143,338,272,374,403,237,271,1391,413,332,450,362,692,467,142,421,156,335,605,694,256,309,223,525,595,227,403,694
129472,55,65,340,-11,147,320,214,378,412,269,286,1279,415,340,464,299,581,444,146,433,165,402,569,681,279,320,272,361,559,200,392,517
129473,54,45,361,-31,151,318,206,379,422,251,256,1294,422,353,448,260,511,426,147,439,167,441,588,667,289,334,225,251,541,259,427,632
129474,49,55,314,-47,142,293,192,297,407,218,238,1326,395,345,417,-6,454,394,135,426,108,418,608,657,269,328,159,320,568,253,409,680
129475,30,85,272,-12,129,271,168,363,413,223,243,1280,419,359,448,60,500,370,134,425,141,477,561,657,262,336,231,324,568,239,409,674
129476,7,83,181,-19,109,257,92,436,412,224,236,1240,416,351,468,360,511,350,130,418,166,513,474,622,252,334,296,343,544,256,438,637
129477,8,38,175,-59,122,297,37,382,395,186,234,1169,363,333,462,361,459,312,105,409,129,593,399,585,244,323,271,366,512,232,418,689
129478,17,57,221,-75,119,346,44,278,400,218,254,1169,350,342,472,25,484,316,111,440,164,628,376,589,261,358,333,385,522,245,424,726
129479,19,42,236,-68,114,299,62,291,391,213,269,1216,367,352,476,-43,573,339,126,467,223,530,441,610,287,374,341,442,556,269,447,669
129480,40,40,251,-55,135,322,94,350,406,234,299,1279,403,351,468,343,630,396,146,463,155,466,532,649,286,340,286,391,584,245,427,649
129481,45,114,262,-55,132,317,151,382,411,225,322,1301,424,349,458,627,553,412,129,434,67,515,589,658,287,326,329,210,586,225,400,596
129482,28,155,303,-56,127,263,216,438,400,197,281,1350,410,344,461,465,541,446,150,430,124,559,669,657,276,329,395,20,543,195,374,533
129483,63,190,308,-80,150,303,249,385,400,220,266,1313,413,347,457,289,627,480,164,444,197,551,749,684,270,327,347,202,599,225,404,464
129484,26,158,250,-109,128,312,214,322,402,246,297,1322,406,356,493,197,490,469,153,467,280,610,677,692,284,375,457,261,607,228,388,243
129485,-96,104,255,-72,120,291,147,274,382,245,257,1370,364,353,510,314,525,406,141,477,297,565,580,647,291,422,550,214,553,249,423,441
129486,-101,61,204,-68,107,304,197,256,368,203,310,1310,335,329,465,505,589,317,116,449,182,516,477,611,273,372,316,470,583,258,430,817
129487,-43,5,167,-90,82,417,204,314,377,200,387,1227,353,335,458,494,551,315,117,448,124,565,418,617,265,364,315,448,561,220,414,684
129488,-6,48,176,-99,105,415,199,312,397,229,361,1149,354,358,485,346,519,339,141,461,137,582,425,609,279,375,379,379,569,277,457,753
129489,13,104,174,-90,99,299,167,301,381,198,337,1167,353,339,473,342,534,340,147,446,154,642,457,613,276,394,385,381,565,267,446,787
129490,23,141,250,-59,119,190,197,350,382,159,208,1197,398,332,432,343,538,350,135,427,142,607,490,634,273,383,393,387,569,270,437,756
129491,64,180,278,-44,115,193,268,337,392,173,203,1181,402,344,421,366,540,355,146,429,162,593,503,669,289,385,403,469,594,281,448,776
129492,86,201,265,-43,123,204,347,362,404,174,85,1203,413,331,392,306,526,370,143,433,119,580,457,662,287,366,330,461,549,241,408,678
129493,78,198,236,-33,146,148,252,409,411,167,110,1242,409,346,426,311,535,380,157,451,137,610,419,655,300,378,363,374,533,229,406,674
129494,67,201,228,-14,154,156,215,423,437,172,170,1266,425,355,452,316,568,389,167,474,193,646,438,679,340,407,419,374,554,243,411,677
129495,23,198,269,-43,116,208,207,343,427,173,177,1195,368,343,439,297,568,338,129,453,199,578,426,635,273,398,344,361,487,183,354,569
129496,26,189,277,-65,129,199,153,305,419,172,195,1201,333,345,438,320,536,335,105,456,196,533,418,614,263,370,352,310,464,165,351,595
129497,0,119,241,-73,124,221,173,419,413,169,209,1224,356,335,439,344,525,349,104,446,187,559,419,605,278,387,380,285,462,152,358,600
129498,32,138,231,-45,122,261,202,425,419,200,230,1232,357,347,462,359,606,359,116,458,213,566,457,620,292,404,415,310,472,174,361,433
129499,9,200,227,-21,133,274,212,325,400,231,262,1245,335,358,472,375,575,372,124,484,237,593,479,614,327,427,504,317,523,211,390,517
129500,29,208,235,-43,132,267,198,268,382,193,254,1342,354,338,452,353,568,411,108,472,198,501,543,619,303,388,374,249,539,195,378,603
129501,78,180,293,-67,135,260,182,287,399,207,224,1339,363,332,418,275,614,415,125,464,182,560,633,653,294,375,304,285,552,200,403,611
129502,81,129,319,-86,132,296,159,327,391,209,265,1340,339,333,418,262,616,385,123,440,152,543,586,647,275,359,316,307,537,213,375,498
129503,93,110,327,-80,156,342,200,339,363,229,287,1338,355,328,458,312,542,374,109,447,198,530,582,633,294,393,405,207,522,222,391,440
129504,123,147,361,-47,170,259,103,419,390,225,82,1452,389,319,402,-134,658,483,170,458,223,516,786,724,309,380,372,272,615,278,475,615
129505,130,175,308,-83,159,263,183,262,374,206,187,1415,347,343,450,-186,637,449,161,484,304,434,744,737,343,441,408,259,649,338,505,683
129506,134,194,286,-72,140,267,166,271,373,212,243,1334,365,348,462,311,488,429,134,487,272,480,644,710,356,454,434,204,642,373,526,707
129507,102,135,256,-62,124,280,89,356,379,210,229,1214,364,341,452,553,503,397,134,473,132,577,578,686,332,418,424,462,632,378,543,654
129508,90,157,235,-52,128,293,119,391,397,219,288,1265,372,351,465,457,547,401,152,499,166,603,517,711,353,440,462,377,657,366,563,550
129509,83,157,246,-34,128,321,149,388,403,230,370,1322,376,367,387,511,540,385,160,482,166,569,514,700,346,466,501,199,597,370,563,623
