,Fp1,Fp2,F7,F3,Fz,F4,F8,FC5,FC1,FC2,FC6,T7,C3,Cz,C4,T8,TP9,CP5,CP1,CP2,CP6,TP10,P7,P3,Pz,P4,P8,PO9,O1,Oz,O2,PO10
101995,104,-26,117,-29,-116,238,-25,335,251,-17,42,-55,129,-180,41,-186,-215,-75,-34,-355,-332,-58,-64,-75,-61,-30,50,-165,-11,-269,-361,-227
101996,31,-126,168,-75,-129,279,-15,287,238,-28,-1,-93,123,-183,7,-232,-199,-84,-58,-379,-346,-21,-53,-98,-79,-37,10,-153,-9,-276,-374,-193
101997,-12,-43,177,-54,-113,279,-96,218,243,-22,-66,-111,116,-188,12,-167,-172,-70,-51,-355,-315,66,-45,-82,-52,-12,97,-147,-1,-251,-342,-116
101998,10,-28,197,-98,-124,270,-136,188,231,-29,-92,-89,114,-170,22,-150,-162,-71,-40,-358,-295,11,-64,-97,-49,-16,133,-230,-20,-269,-373,-296
101999,99,31,139,-149,-128,180,-155,164,223,-46,-101,-73,124,-152,22,-198,-194,-58,-29,-335,-282,48,-62,-73,-36,5,182,-201,4,-280,-375,-369
102000,204,130,173,-133,-137,55,-132,151,251,-52,-119,-2,147,-154,0,-183,-264,-39,-7,-352,-282,39,-22,-49,-26,20,140,-108,29,-246,-353,-191
102001,256,187,150,-127,-146,57,-157,236,256,-55,-96,34,148,-177,-9,-196,-348,-81,-30,-380,-334,7,-93,-99,-62,-43,9,-317,-47,-302,-387,-84
102002,222,206,159,-121,-124,90,-250,263,269,-50,-37,46,149,-177,1,-165,-329,-93,-45,-357,-337,-26,-96,-112,-81,-38,-4,-319,-40,-290,-378,-64
102003,215,253,289,-105,-132,142,-297,291,273,-61,-1,84,140,-184,-1,-185,-272,-66,-28,-361,-324,-89,-41,-101,-76,-52,-23,-241,-14,-271,-372,-152
102004,287,217,374,-88,-137,108,-225,301,258,-80,-16,48,155,-175,-38,-217,-188,-45,-45,-393,-351,-95,24,-92,-80,-78,-48,-175,-20,-291,-373,-187
102005,252,56,402,-95,-112,220,-148,255,247,-47,44,-122,147,-164,12,-140,-162,-77,-47,-378,-298,10,-4,-94,-56,-40,60,-221,2,-263,-339,-136
102006,117,49,377,-97,-105,229,-49,246,250,-44,-1,-154,133,-182,10,-113,-164,-94,-58,-385,-303,62,-40,-126,-98,-62,76,-286,-35,-279,-389,-171
102007,-39,100,317,12,-103,177,22,332,261,-54,-55,-106,148,-204,-27,-151,-237,-71,-68,-399,-346,6,-28,-142,-122,-86,44,-253,-47,-298,-408,-218
102008,124,185,348,58,-90,180,81,350,296,-56,-46,-74,161,-196,-22,-165,-233,-58,-54,-397,-322,119,-15,-108,-116,-74,55,-175,-23,-286,-384,-156
102009,277,258,389,41,-97,193,88,278,278,-59,-66,-57,155,-191,-10,-140,-188,-36,-62,-399,-329,145,-13,-109,-105,-71,44,-153,-12,-265,-349,-82
102010,305,368,351,-3,-100,179,91,273,254,-69,-32,-20,138,-195,-5,-123,-123,-33,-77,-401,-318,53,-9,-106,-106,-80,52,-193,-25,-283,-375,-132
102011,329,391,251,-10,-98,134,91,314,256,-76,-36,-27,137,-192,3,-115,-163,-44,-63,-403,-309,-66,-36,-107,-100,-54,51,-164,-35,-270,-351,-247
102012,398,417,161,-15,-70,139,106,359,283,-58,0,-26,156,-175,33,-75,-164,-38,-46,-367,-248,15,-14,-96,-58,-5,138,-92,-6,-213,-303,-207
102013,383,338,183,-20,-88,215,46,386,279,-53,68,-13,154,-190,32,-110,-100,-36,-36,-363,-264,99,16,-79,-72,-11,153,-27,31,-217,-297,-166
102014,262,279,223,11,-98,214,80,449,289,-49,42,-4,166,-171,35,-119,-87,-21,-28,-371,-277,156,20,-58,-49,-1,115,-30,48,-189,-283,7
102015,56,206,150,-37,-120,208,15,491,259,-53,33,-58,155,-200,36,-152,-116,-48,-49,-375,-286,118,-11,-77,-67,-6,86,-139,21,-210,-308,-7
102016,106,139,218,-19,-119,235,-94,550,263,-56,34,6,195,-182,46,-136,-89,-6,-21,-373,-278,36,37,-61,-56,-7,70,-203,23,-214,-321,-56
102017,120,30,225,-49,-115,299,-114,482,260,-40,53,44,173,-194,38,-159,-145,-5,-42,-369,-289,4,84,-79,-58,-21,32,-278,31,-222,-322,-94
102018,29,-92,229,60,-114,353,-71,406,283,-19,20,83,161,-195,15,-72,-207,-6,-48,-381,-293,27,60,-77,-64,-2,49,-340,-4,-245,-341,-112
102019,106,-115,218,-5,-118,305,-50,311,259,-32,16,81,147,-191,7,-46,-205,-26,-57,-399,-262,-73,88,-92,-80,-36,64,-297,-12,-258,-338,-163
102020,222,122,369,-24,-88,231,-39,295,266,-41,7,142,154,-169,15,-94,-118,6,-46,-371,-263,-89,153,-66,-45,-5,87,-170,18,-242,-327,-188
102021,352,175,512,-49,-72,168,-56,278,261,-41,8,125,157,-183,33,-106,-65,25,-30,-352,-257,17,131,-39,-16,27,98,-194,29,-204,-284,-103
102022,462,256,545,-72,-84,159,-25,282,243,-49,-18,75,145,-193,20,-97,-96,1,-30,-339,-247,11,81,-56,-5,35,85,-280,19,-197,-297,-149
102023,421,350,563,-60,-96,138,51,273,250,-34,17,85,167,-171,52,-49,-109,4,-15,-297,-222,41,16,-35,13,65,127,-151,7,-193,-282,-172
102024,324,442,562,-61,-101,129,75,302,261,-47,-7,150,173,-162,70,-50,-141,7,-7,-304,-238,85,-35,-31,17,52,101,-78,29,-180,-273,-90
102025,382,432,557,-49,-96,136,69,342,285,-43,-8,251,203,-169,69,-54,-73,57,18,-292,-242,48,18,-10,31,46,27,-68,61,-167,-243,-62
102026,344,387,441,-27,-97,167,75,394,277,-33,23,147,217,-169,70,-55,-18,58,19,-300,-256,41,39,7,32,44,50,-24,77,-150,-237,-60
102027,266,335,387,34,-77,137,69,479,297,-31,28,49,213,-179,45,-71,-88,24,-4,-322,-270,29,9,-20,7,22,51,-73,59,-176,-277,-81
102028,98,230,363,113,-72,162,-1,542,308,-35,62,-27,210,-192,51,-62,-154,-30,-35,-358,-275,78,-36,-61,-29,-4,66,-153,6,-217,-303,-53
102029,-71,128,189,90,-104,205,-114,518,292,-35,28,-46,175,-195,39,-124,-136,-32,-35,-369,-304,98,-22,-71,-40,-14,73,-125,-10,-190,-270,-29
102030,13,168,268,-19,-90,269,-149,392,273,-30,42,27,155,-182,45,-120,-157,-40,-36,-341,-286,11,-35,-66,-27,-4,26,-149,-19,-205,-290,-125
102031,184,190,421,-9,-88,300,-155,384,272,-4,80,33,161,-174,66,-137,-209,-35,-43,-330,-278,-32,-71,-82,-33,-2,22,-209,-37,-236,-325,-153
102032,314,116,459,8,-102,251,-92,333,253,-7,80,4,147,-194,75,-121,-125,-30,-50,-329,-255,18,-32,-76,-24,-17,23,-177,-6,-214,-302,-133
102033,336,57,383,-44,-114,253,-15,249,258,-29,47,-52,141,-169,68,-139,-69,-25,-25,-345,-278,-26,43,-49,-4,-12,5,-78,41,-198,-302,-193
102034,226,-8,351,-55,-114,220,45,286,258,-27,27,-11,176,-159,60,-139,-93,-10,-24,-322,-287,0,61,-33,-2,10,23,-165,65,-187,-278,-210
102035,242,-18,344,-41,-109,180,-13,359,267,-35,-18,67,193,-162,74,-131,-21,18,-10,-309,-260,44,124,-20,18,19,59,-268,92,-152,-261,-171
102036,281,78,321,-29,-113,315,-82,403,280,-24,49,82,182,-172,92,-110,-21,38,-22,-323,-235,2,128,-26,27,26,115,-286,75,-163,-272,-254
102037,337,123,319,-98,-102,353,0,394,255,4,121,74,172,-180,107,-80,-100,32,-9,-299,-216,74,113,-33,31,46,200,-184,57,-149,-248,-158
102038,333,210,412,-127,-104,269,87,338,240,9,144,53,165,-162,119,-54,-153,5,-9,-295,-205,45,69,-34,33,53,152,-143,45,-143,-240,-156
102039,305,274,409,-87,-122,122,83,325,248,-24,82,49,171,-169,107,-70,-130,50,3,-289,-202,18,111,-5,60,83,159,-84,93,-119,-234,-73
102040,271,246,310,-67,-95,93,76,419,271,-31,-1,125,208,-148,97,-84,-103,101,38,-265,-198,59,165,39,75,80,153,-85,126,-101,-210,-30
102041,50,206,167,-70,-112,214,142,475,269,-18,73,99,188,-157,104,-92,-162,45,3,-297,-206,35,59,-22,54,63,115,-179,54,-129,-223,-37
102042,33,306,197,-39,-87,184,76,478,259,-24,87,122,187,-156,112,-68,-132,25,-8,-264,-211,-6,61,-31,47,72,104,-228,69,-124,-233,-49
102043,228,389,288,-33,-95,152,68,374,255,-35,28,124,155,-180,104,-36,-129,17,-27,-292,-211,-12,41,-23,37,65,117,-191,53,-134,-221,-63
102044,325,354,306,-45,-105,156,124,319,248,-40,-9,72,143,-161,110,-2,-85,-7,-6,-300,-181,105,34,-24,49,84,201,-150,80,-104,-184,-30
102045,324,342,340,-50,-90,180,187,288,257,-17,38,-4,154,-143,136,65,-68,-11,7,-271,-157,224,53,-14,73,132,263,-151,85,-80,-187,-7
102046,318,324,424,-44,-103,152,161,257,264,-20,61,-19,146,-166,109,22,-121,-10,-20,-276,-183,171,67,-36,58,97,187,-145,69,-128,-232,-67
102047,350,272,469,-59,-106,211,119,282,229,-12,106,50,152,-151,129,0,-74,17,-12,-255,-198,157,99,-5,58,73,129,-85,95,-102,-188,-67
102048,396,230,456,-49,-96,238,71,311,249,15,157,66,169,-146,153,8,-99,25,-1,-245,-168,191,85,4,59,107,140,-56,113,-90,-170,-27
102049,363,214,436,-12,-117,273,52,342,265,30,191,62,174,-146,144,6,-37,25,-2,-254,-177,178,73,-3,45,105,164,-41,100,-96,-178,-20
102050,271,229,448,-13,-93,313,43,396,262,24,124,114,195,-128,142,1,12,29,4,-248,-178,195,89,4,57,94,170,-6,132,-66,-179,-18
102051,150,281,425,-49,-102,315,12,388,253,2,129,114,184,-142,136,-21,-33,32,-12,-267,-192,195,95,-15,46,70,172,-23,136,-64,-180,-19
102052,210,307,440,-31,-122,254,-37,352,237,-16,147,82,158,-173,118,-21,-96,0,-30,-288,-212,159,73,-46,21,56,153,-72,101,-79,-193,-46
102053,308,289,454,-18,-90,249,0,351,259,7,137,91,171,-153,121,-13,-79,20,-11,-263,-226,157,103,0,49,77,161,-61,141,-33,-141,3
102054,277,203,370,-29,-103,212,46,351,256,-2,126,82,190,-149,106,10,-66,26,22,-264,-221,157,135,15,55,99,170,-76,178,-22,-126,-1
102055,143,94,252,-28,-119,225,116,369,236,-36,118,53,192,-158,95,23,-100,17,6,-291,-227,109,130,1,36,69,144,-78,173,-11,-129,-8
102056,76,34,282,12,-100,261,100,411,264,-26,51,108,216,-151,80,-7,-20,64,24,-275,-220,128,180,31,84,99,154,-49,189,19,-94,24
102057,64,-16,333,43,-112,268,107,470,261,-31,20,114,224,-152,89,-2,-97,53,22,-270,-225,164,124,35,75,92,159,-57,187,2,-104,34
102058,166,77,354,68,-89,279,122,479,277,-27,79,152,210,-147,110,43,-149,62,30,-264,-207,185,100,38,69,82,188,-22,184,-4,-91,41
102059,256,276,394,29,-112,229,78,426,255,-26,134,129,197,-163,123,40,-66,68,23,-258,-182,179,127,44,59,91,194,-19,208,7,-91,47
102060,330,404,453,-9,-124,203,118,383,264,-29,153,74,200,-147,132,-16,1,65,37,-254,-178,181,174,54,83,121,199,-12,227,9,-85,52
102061,311,468,452,-3,-120,142,131,388,284,-20,132,103,229,-121,136,-1,18,74,61,-226,-168,227,226,78,114,134,244,6,252,33,-65,83
102062,284,430,389,1,-133,129,130,385,283,-50,41,100,236,-127,99,34,-13,79,46,-238,-175,146,200,74,104,124,225,18,232,50,-56,87
102063,306,381,393,4,-111,146,157,394,311,-33,19,108,231,-116,98,9,7,78,61,-230,-187,128,181,73,113,126,210,60,228,49,-30,66
102064,257,284,393,-15,-116,181,112,421,294,-16,36,128,245,-119,99,-51,49,98,77,-222,-204,161,172,89,108,127,221,118,260,66,-13,107
102065,240,208,384,-28,-132,198,50,382,272,-47,36,102,226,-138,97,-64,0,80,43,-260,-212,180,138,73,87,94,224,79,234,43,-54,41
102066,324,196,458,-45,-110,298,81,365,277,-19,79,125,223,-147,117,12,2,89,43,-243,-152,209,155,95,99,140,288,80,258,89,-40,12
102067,380,149,474,-60,-110,336,78,398,279,-2,112,129,230,-137,138,74,37,105,48,-223,-117,184,190,88,109,157,346,56,262,65,-10,-48
102068,353,100,398,-133,-121,333,76,363,262,-20,140,108,204,-149,128,9,-10,78,28,-245,-134,138,191,64,104,141,337,18,235,34,-72,-89
102069,304,180,303,-68,-132,250,81,397,280,-15,124,120,228,-145,121,2,-16,89,41,-239,-145,225,185,86,112,148,313,19,243,56,-35,96
102070,317,247,273,-29,-127,211,94,435,297,-31,81,138,237,-133,113,-20,-14,99,46,-238,-152,284,171,89,131,163,262,51,257,81,-10,214
102071,308,329,318,-6,-106,160,146,490,324,-41,35,215,255,-125,109,-19,24,121,55,-213,-148,276,215,118,128,168,287,85,258,76,-25,189
102072,279,417,392,28,-102,149,185,535,322,-35,47,243,278,-134,102,-20,15,123,77,-215,-146,184,208,115,136,161,251,60,247,62,-35,140
102073,313,429,455,21,-110,165,147,548,300,-40,51,161,268,-130,109,0,-10,97,59,-217,-138,176,171,109,138,173,228,50,247,56,-24,118
102074,359,470,474,25,-90,206,108,522,290,-34,81,142,251,-133,128,59,37,107,71,-203,-127,222,175,117,152,194,251,73,249,72,-24,107
102075,211,355,445,29,-108,250,64,404,280,-30,133,115,237,-148,146,104,-12,122,60,-208,-103,281,184,106,128,192,309,39,238,56,-51,109
102076,239,229,461,13,-94,271,33,342,288,-19,163,110,225,-130,151,67,10,122,62,-203,-122,282,247,113,123,195,298,-69,234,52,-63,114
102077,308,190,441,-18,-108,262,25,309,278,-44,109,91,211,-137,117,-7,23,108,53,-228,-158,224,251,83,100,159,248,-169,199,21,-86,77
102078,314,214,386,-49,-116,232,81,310,259,-43,80,54,207,-126,125,-11,1,103,40,-249,-162,228,280,63,109,173,258,-159,198,3,-98,67
102079,270,160,353,-51,-128,223,98,354,265,-39,45,89,224,-125,139,4,-28,99,49,-233,-139,279,311,77,125,177,276,-9,242,17,-66,122
102080,277,235,371,-23,-127,177,115,375,264,-32,25,62,215,-121,131,57,-25,88,62,-228,-114,318,229,74,130,187,286,100,246,38,-57,115
102081,270,284,363,-39,-111,173,159,338,265,-34,36,42,183,-138,125,58,-50,52,44,-212,-104,303,135,54,127,201,306,16,205,46,-62,124
102082,252,283,325,-56,-109,219,140,339,263,-30,68,42,170,-140,128,-2,-58,36,31,-232,-125,241,73,40,125,195,261,11,196,41,-65,165
102083,253,266,284,-34,-105,244,134,385,273,-36,59,70,181,-133,116,22,-78,26,17,-246,-134,270,34,36,105,178,250,39,181,19,-68,164
102084,249,274,233,-56,-122,190,95,391,271,-49,16,92,173,-156,93,-4,-105,3,-12,-276,-170,255,17,0,60,131,235,12,148,9,-87,129
102085,225,246,255,-78,-128,197,35,391,261,-56,69,58,175,-160,75,-57,-93,3,-10,-290,-199,250,32,4,38,105,216,19,155,9,-96,139
102086,247,196,345,-52,-126,189,50,348,263,-43,72,19,159,-137,70,-71,-67,8,6,-294,-226,191,54,14,55,82,186,9,152,-19,-128,42
102087,230,131,333,-81,-125,211,-14,332,251,-58,87,-9,142,-160,58,-99,-134,-1,-20,-303,-233,143,29,0,25,63,154,-55,112,-69,-165,-45
102088,142,26,335,-88,-120,259,-84,312,240,-38,124,0,140,-149,71,-69,-93,-10,-19,-310,-228,135,59,-28,24,86,203,-92,96,-70,-171,-64
102089,-18,-41,363,-52,-108,207,-87,315,255,-46,22,19,166,-162,76,-13,-72,5,8,-286,-184,147,85,-8,43,124,308,-115,120,-52,-138,-128
102090,33,-109,333,9,-116,200,-95,382,274,-32,20,44,185,-158,103,-10,-79,35,3,-265,-163,170,87,6,35,147,353,-109,129,-42,-133,-99
102091,146,-21,289,32,-105,280,-91,409,281,-21,154,42,185,-145,109,-21,-87,29,11,-266,-154,170,107,11,34,134,273,-86,136,-45,-136,82
102092,178,73,277,-5,-106,286,12,408,276,-26,133,29,159,-167,111,-43,-68,5,-3,-283,-183,113,98,-5,22,89,186,-50,144,-43,-127,123
102093,165,167,278,-29,-125,243,-62,372,261,-50,59,27,165,-175,81,-66,-99,12,-4,-285,-189,179,68,0,9,98,213,-21,128,-18,-117,188
102094,129,298,245,20,-121,220,-46,368,273,-38,51,61,180,-166,99,-19,-63,36,0,-281,-167,229,86,12,44,111,227,-10,145,-13,-109,168
102095,115,329,230,43,-117,186,-6,417,303,-46,37,166,192,-155,83,0,-49,65,6,-286,-161,253,107,8,33,106,249,-18,146,-42,-140,152
102096,166,301,328,5,-100,156,39,399,298,-64,32,230,199,-153,93,9,-53,49,4,-304,-182,230,141,-5,9,50,203,-35,110,-96,-202,20
102097,158,348,393,16,-107,128,58,374,291,-41,55,203,195,-160,92,-1,-4,50,-14,-317,-238,152,159,-11,-28,35,136,-58,98,-170,-257,-94
102098,164,326,446,-16,-124,120,42,331,269,-58,40,129,171,-184,83,-15,10,35,-31,-323,-237,150,178,-21,-36,21,134,-113,78,-185,-286,-107
102099,210,238,392,-31,-112,110,44,307,261,-60,17,18,167,-165,83,13,-39,-4,-33,-304,-203,219,173,-34,-32,40,210,-95,99,-132,-242,-24
102100,242,176,385,-69,-100,183,64,290,257,-52,39,-38,155,-160,57,-73,-72,-14,-29,-316,-234,150,149,-44,-30,19,174,-51,114,-132,-225,-79
102101,262,66,349,-139,-126,191,-56,281,245,-61,63,-42,138,-163,61,-95,-82,-26,-35,-337,-259,131,103,-45,-32,-10,133,-75,101,-136,-250,-100
102102,255,-18,337,-146,-127,182,-76,311,258,-34,16,-32,137,-148,66,-77,-124,-27,-39,-323,-229,160,94,-45,-20,36,171,-26,130,-75,-185,35
102103,117,-37,230,-89,-133,175,-115,358,249,-46,-25,-57,130,-167,49,-99,-182,-74,-40,-334,-267,160,31,-78,-39,31,182,-56,97,-102,-212,27
102104,-77,-63,102,-76,-147,193,-155,402,254,-52,-61,-34,113,-172,12,-188,-160,-73,-66,-358,-299,46,15,-84,-55,-29,102,-46,84,-140,-244,15
102105,-90,-84,79,-53,-148,221,-147,418,281,-46,-74,-35,131,-152,46,-142,-125,-62,-50,-349,-268,-76,61,-72,-51,5,86,47,143,-80,-179,87
102106,63,21,75,-62,-136,157,-144,336,276,-49,-6,-89,122,-144,63,-40,-157,-100,-62,-340,-251,-130,-35,-84,-59,16,107,42,115,-99,-190,88
102107,164,105,161,-61,-122,205,-85,312,266,-44,35,-81,118,-155,55,-32,-91,-95,-57,-333,-244,-24,-15,-82,-59,-23,36,93,93,-160,-242,-174
102108,233,120,319,-67,-126,223,-45,308,272,-23,39,-22,138,-147,83,-26,-49,-32,-37,-320,-226,127,75,-69,-35,10,73,160,142,-121,-199,-161
102109,214,148,377,-68,-155,116,-53,297,258,-65,-18,-8,131,-151,60,-77,-179,-61,-56,-338,-225,299,17,-89,-38,41,192,-63,81,-118,-214,32
102110,172,189,402,-29,-121,105,9,319,286,-43,-31,32,175,-145,79,-63,-124,-17,-21,-301,-183,386,51,-63,-5,73,230,-49,119,-100,-202,-54
102111,173,265,463,-29,-136,78,72,315,301,-46,-35,86,173,-126,79,-48,-71,-2,0,-293,-148,330,49,-38,15,89,241,-86,125,-111,-188,-128
102112,190,259,443,-40,-124,105,67,314,307,-47,22,71,192,-109,107,-32,15,21,14,-264,-160,272,105,-1,46,105,247,8,178,-63,-149,-79
102113,172,257,301,-57,-130,188,51,303,289,-54,39,5,172,-129,102,-11,-41,-6,0,-273,-146,295,86,-14,27,102,247,-45,128,-65,-170,40
102114,135,208,263,-85,-149,175,27,308,273,-63,-4,11,162,-152,95,21,-56,-4,-6,-282,-149,298,102,-21,9,81,205,-163,106,-87,-186,49
102115,72,137,255,-69,-156,109,-46,364,276,-75,-47,38,179,-147,45,-29,-85,20,-12,-280,-187,231,144,-14,12,69,203,-181,114,-75,-190,9
102116,44,80,202,-43,-153,155,-105,420,286,-60,-36,57,180,-124,64,-47,-100,50,-3,-281,-195,218,162,11,35,97,216,-81,166,-27,-140,87
102117,30,-12,132,-65,-161,206,-108,388,264,-51,5,33,177,-111,98,-42,17,36,1,-276,-183,207,199,-5,51,104,224,-135,154,-50,-125,98
102118,80,22,211,-41,-163,139,-47,421,279,-44,8,86,202,-113,86,-60,78,46,24,-265,-172,201,209,-4,62,104,224,-252,137,-64,-129,4
102119,138,7,337,-39,-149,189,19,440,270,-24,29,186,198,-133,94,-2,-21,67,18,-272,-156,209,194,-1,38,115,282,-188,143,-36,-132,47
102120,243,127,416,7,-121,193,92,489,275,-13,69,302,214,-132,81,12,17,124,12,-276,-152,287,300,37,38,111,287,-110,178,-20,-117,25
102121,278,212,506,19,-104,188,152,496,282,-24,74,308,226,-122,95,70,69,160,10,-271,-133,374,311,54,56,116,278,26,228,19,-58,28
102122,245,263,551,-19,-110,195,203,392,280,-4,86,214,183,-121,100,71,59,103,0,-265,-110,370,238,30,56,144,328,127,239,67,-24,164
102123,129,198,491,-39,-116,164,160,355,257,-26,85,93,150,-148,102,58,46,51,-41,-275,-128,269,159,-9,36,109,283,186,212,32,-81,113
102124,108,115,409,-71,-117,189,142,336,256,-28,123,50,141,-151,115,71,-6,29,-34,-269,-133,263,142,-12,31,135,336,175,210,39,-48,145
102125,16,176,425,-42,-121,166,189,374,249,-32,82,123,160,-141,104,55,69,39,-18,-272,-124,273,116,0,43,130,344,139,198,31,-58,120
102126,-81,204,415,-41,-141,144,217,378,267,-36,50,136,172,-134,106,102,90,16,-25,-277,-95,277,88,-41,28,114,350,8,121,-30,-127,51
102127,30,262,421,-57,-133,157,229,360,276,-25,85,111,178,-130,99,100,118,20,-14,-283,-114,343,123,-50,25,122,333,-16,135,-27,-114,117
102128,96,215,367,-91,-146,134,191,337,264,-28,97,102,163,-137,112,97,58,40,3,-276,-133,448,152,-13,45,129,329,71,186,24,-59,241
102129,140,143,375,-94,-148,159,186,349,263,-20,107,121,182,-122,136,127,24,68,8,-255,-89,466,172,19,78,168,354,35,238,82,-20,275
102130,184,79,455,-61,-133,178,177,392,259,-25,125,206,185,-130,159,138,118,91,15,-250,-72,473,218,35,81,170,351,-19,230,64,-35,216
102131,257,119,575,-37,-131,227,173,446,269,-14,167,288,219,-141,156,142,165,117,-2,-278,-98,471,244,29,58,152,328,16,221,42,-59,193
102132,259,186,618,-11,-90,251,171,488,296,-7,187,324,239,-132,156,205,207,156,26,-256,-81,470,272,57,72,165,334,108,251,89,-11,209
102133,218,173,568,-12,-91,277,166,480,286,-12,234,297,235,-128,198,221,193,149,43,-241,-45,490,241,72,90,188,383,62,244,102,28,268
102134,221,142,553,-12,-109,292,162,498,291,-9,310,324,254,-124,201,215,151,136,45,-231,-34,451,183,61,90,187,371,60,211,94,3,298
102135,143,-27,491,-44,-148,312,189,469,285,12,330,337,242,-125,212,247,76,127,51,-223,-48,409,180,46,103,166,354,27,181,52,-47,299
102136,67,-116,427,-34,-138,320,216,452,282,8,258,350,236,-116,210,219,122,165,64,-220,-64,454,250,68,105,165,375,105,217,50,-51,277
102137,72,-21,416,-12,-132,253,188,472,309,-15,198,306,280,-88,178,218,140,174,58,-223,-46,499,271,87,125,173,396,57,235,74,-31,83
102138,64,60,377,-10,-146,222,244,450,283,-16,207,249,260,-103,176,233,172,145,48,-221,-29,502,277,78,117,188,415,5,225,57,-35,81
102139,97,157,401,-2,-130,201,243,488,277,-7,304,298,257,-111,210,232,196,176,61,-215,-9,529,303,90,113,207,445,102,258,97,-22,90
102140,51,130,368,-5,-139,222,240,545,287,-25,293,304,247,-121,183,193,76,125,38,-226,-19,449,192,43,72,179,465,39,196,8,-85,-60
102141,-72,52,318,5,-137,252,151,621,316,-39,195,330,280,-114,183,165,94,141,56,-214,-40,386,213,61,69,170,448,67,218,19,-48,90
102142,-55,27,308,-9,-121,198,116,606,308,-46,133,278,265,-131,172,122,105,132,47,-249,-90,337,206,71,61,135,338,106,211,46,-60,213
102143,-52,-10,352,49,-130,219,122,492,293,-29,109,175,250,-126,151,69,87,94,27,-254,-120,281,177,41,54,98,219,113,186,24,-78,180
102144,-51,-83,395,7,-124,268,115,398,284,-19,101,169,212,-125,151,84,128,62,24,-257,-124,330,135,15,33,113,211,126,175,21,-71,223
