,Fp1,Fp2,F7,F3,Fz,F4,F8,FC5,FC1,FC2,FC6,T7,C3,Cz,C4,T8,TP9,CP5,CP1,CP2,CP6,TP10,P7,P3,Pz,P4,P8,PO9,O1,Oz,O2,PO10
122067,248,76,224,27,-147,28,-340,233,-15,-50,93,-92,231,-32,238,-285,-282,-83,24,-97,90,-71,62,-4,44,82,-23,-266,41,-77,-425,-328
122068,238,51,231,20,-154,19,-367,211,-25,-66,58,-124,224,-54,215,-341,-307,-91,33,-85,50,-85,67,1,50,75,-44,-241,62,-75,-429,-353
122069,215,62,226,28,-156,-11,-389,216,-31,-78,26,-142,233,-26,191,-326,-336,-99,53,-96,35,-116,46,-15,51,80,-73,-225,57,-88,-405,-348
122070,218,55,215,30,-161,-28,-421,198,-27,-79,-9,-159,229,-34,155,-338,-355,-111,41,-109,16,-165,13,-44,34,51,-78,-317,-2,-119,-436,-358
122071,193,17,208,43,-153,-57,-435,167,-26,-89,-73,-190,217,-43,145,-339,-356,-148,21,-123,-20,-133,-51,-80,16,35,-80,-420,-74,-163,-475,-337
122072,179,-2,197,39,-170,-56,-472,148,-18,-93,-92,-251,178,-58,98,-435,-330,-200,-11,-139,-54,-213,-114,-131,-8,-8,-123,-398,-110,-190,-520,-366
122073,170,-43,196,28,-159,-28,-477,160,-17,-98,-98,-219,195,-51,83,-548,-364,-130,6,-150,-78,-250,-85,-105,0,-4,-156,-331,-56,-172,-518,-406
122074,194,-45,199,27,-138,-20,-491,190,-32,-91,-55,-158,200,-52,95,-502,-374,-142,16,-142,-56,-155,-37,-68,11,12,-141,-296,-15,-174,-491,-401
122075,248,-63,246,27,-122,-2,-455,204,-41,-71,-16,-120,201,-50,113,-407,-375,-128,19,-132,-32,-77,-22,-65,5,27,-108,-341,-20,-154,-468,-313
122076,259,-63,261,22,-132,11,-433,210,-45,-82,7,-84,201,-70,133,-361,-349,-97,4,-148,-29,-76,32,-31,-2,12,-86,-330,-14,-144,-460,-307
122077,239,-29,245,27,-137,52,-405,209,-41,-54,42,-39,226,-63,169,-241,-281,-49,42,-104,38,8,96,11,40,70,16,-223,64,-59,-392,-239
122078,246,10,248,2,-155,24,-395,199,-42,-71,0,-30,232,-55,157,-199,-247,-7,43,-93,81,23,145,31,77,83,47,-191,103,-31,-343,-226
122079,237,5,261,6,-158,11,-393,207,-38,-82,6,-36,225,-68,142,-192,-248,-30,37,-116,76,22,137,38,52,69,28,-195,130,-26,-348,-208
122080,267,47,299,35,-146,10,-402,230,-16,-78,24,-49,234,-52,138,-156,-225,-8,62,-111,87,44,156,49,69,94,72,-174,163,-28,-341,-157
122081,263,87,285,33,-138,-14,-412,226,-31,-67,4,-61,232,-51,135,-169,-218,-9,63,-103,94,37,165,72,92,100,96,-172,179,6,-301,-85
122082,208,44,263,13,-163,-95,-449,213,-30,-105,-36,-78,240,-59,92,-278,-217,-1,59,-125,37,-32,151,72,49,61,35,-173,156,-52,-399,-251
122083,201,-13,229,20,-152,-39,-438,203,-25,-112,-71,-77,243,-47,90,-280,-214,3,60,-130,26,-55,154,92,48,48,-6,-148,154,-53,-428,-318
122084,205,-28,224,27,-163,-12,-400,201,-31,-120,-67,-80,230,-55,102,-241,-241,-18,51,-125,34,-34,161,92,56,53,23,-122,187,-7,-394,-257
122085,229,56,261,41,-141,-7,-378,217,-22,-114,-48,-59,235,-69,112,-200,-225,-8,53,-109,40,43,194,81,60,65,35,-141,168,-32,-398,-241
122086,211,108,245,61,-129,32,-365,224,-22,-102,-15,-63,252,-65,124,-178,-222,26,52,-104,47,48,201,91,69,90,55,-164,176,-25,-336,-219
122087,191,90,230,68,-133,39,-361,228,-19,-84,32,-33,260,-49,152,-157,-196,45,81,-81,81,64,229,124,88,135,115,-89,231,66,-248,-119
122088,189,61,254,71,-126,40,-360,218,-1,-74,25,-23,267,-56,160,-151,-181,42,84,-71,66,20,245,141,116,156,52,-83,228,27,-309,-254
122089,201,42,229,21,-149,26,-401,204,-15,-74,-7,-60,267,-59,171,-172,-192,41,85,-61,61,-16,246,138,112,150,21,-89,224,31,-325,-271
122090,130,-9,135,-30,-179,-3,-470,146,-42,-85,-36,-87,242,-65,164,-273,-232,-8,82,-78,53,-19,210,108,103,143,48,-103,213,37,-301,-202
122091,71,-39,84,-49,-172,3,-519,114,-33,-63,-56,-110,215,-37,171,-346,-250,-21,78,-80,58,-62,197,93,118,164,57,-121,202,52,-271,-196
122092,16,-97,51,-88,-217,-32,-584,90,-84,-82,-78,-157,196,-53,137,-397,-279,-48,52,-104,6,-186,177,78,96,105,-44,-174,160,2,-343,-362
122093,32,-79,66,-99,-204,-22,-565,103,-87,-69,-51,-152,186,-63,160,-389,-291,-42,66,-88,19,-207,149,93,107,127,-68,-222,161,11,-364,-396
122094,61,-39,102,-81,-182,-1,-531,110,-74,-48,-15,-118,192,-37,194,-353,-275,-26,77,-59,46,-196,164,91,124,143,-86,-199,127,-45,-399,-430
122095,18,-111,85,-98,-229,-18,-561,77,-78,-61,-27,-125,192,-25,213,-339,-281,-30,76,-39,66,-205,170,75,137,167,-74,-187,105,-78,-406,-443
122096,-10,-158,74,-115,-232,-27,-558,105,-92,-41,-78,-139,205,-16,228,-351,-279,-19,85,-5,79,-225,154,89,148,206,-45,-195,120,-36,-364,-410
122097,-30,-111,65,-113,-216,-56,-515,114,-91,-45,-38,-135,198,-27,228,-407,-310,-26,76,-2,80,-198,152,76,144,207,-37,-202,115,-15,-339,-353
122098,59,-42,176,-75,-179,-96,-441,171,-70,-35,33,-64,228,-23,237,-397,-279,14,77,-7,101,-185,169,85,152,203,-54,-193,134,4,-322,-332
122099,104,-29,202,-25,-159,-25,-403,211,-42,-34,31,-37,258,-43,240,-329,-254,19,95,-19,72,-183,145,83,143,197,-68,-212,119,-4,-339,-391
122100,17,-81,122,-42,-186,-5,-388,207,-51,-50,34,-46,280,-16,238,-258,-252,45,120,4,113,-101,173,120,184,237,3,-165,187,92,-238,-250
122101,-41,-126,63,-57,-211,-43,-401,202,-38,-64,-1,-30,286,0,251,-193,-220,90,160,48,173,-14,224,181,252,317,98,-108,271,192,-120,-124
122102,-35,-156,95,-43,-218,-58,-404,220,-41,-59,-29,15,307,0,241,-137,-191,97,183,49,176,-27,240,200,258,307,48,-93,269,162,-180,-261
122103,-43,-152,108,-44,-204,-46,-372,239,-39,-58,5,0,295,3,263,-117,-167,95,176,56,186,5,268,204,253,309,62,-4,289,180,-177,-230
122104,-121,-191,39,-69,-220,-44,-349,206,-48,-65,15,-35,287,0,258,-153,-205,67,153,37,162,33,214,162,234,297,57,-83,224,134,-205,-209
122105,-126,-177,6,-97,-216,-27,-336,170,-64,-66,6,-62,265,-11,233,-250,-252,44,131,15,96,-119,149,109,207,234,-52,-200,110,6,-381,-443
122106,-146,-181,-35,-96,-206,-14,-351,161,-67,-46,13,-100,263,12,260,-250,-265,14,143,35,132,-82,155,102,223,237,7,-151,147,49,-315,-349
122107,-144,-165,-9,-82,-194,0,-306,145,-62,-25,41,-92,257,28,279,-174,-282,10,149,64,171,36,161,120,242,282,92,-165,211,126,-187,-175
122108,-114,-136,-12,-110,-199,-26,-285,134,-55,-32,66,-68,242,4,281,-118,-253,8,147,63,175,26,158,113,236,295,118,-138,255,156,-156,-152
122109,-112,-135,-11,-100,-192,-6,-300,171,-51,-42,72,-58,265,7,284,-110,-190,18,130,52,181,73,190,122,236,298,104,-117,231,124,-235,-201
122110,-141,-191,-18,-114,-208,-26,-318,174,-52,-50,58,-29,280,-5,266,-115,-150,55,136,51,189,75,222,153,246,287,103,-48,254,114,-244,-230
122111,-142,-187,1,-103,-212,-25,-326,150,-64,-56,49,-23,278,-6,252,-147,-143,42,143,40,161,80,223,160,252,269,97,-4,290,127,-232,-251
122112,-118,-153,29,-100,-220,-22,-322,181,-61,-57,82,-12,273,-2,260,-180,-183,45,157,20,150,78,208,140,261,268,78,-62,286,145,-223,-232
122113,-139,-171,-2,-130,-231,-32,-349,172,-60,-53,80,-63,245,-14,249,-195,-194,21,136,15,132,94,150,124,238,250,81,-178,205,106,-241,-201
122114,-154,-230,-13,-151,-236,-27,-362,146,-92,-40,45,-86,244,-20,225,-205,-184,-1,128,-9,113,42,129,120,200,207,48,-198,169,57,-262,-206
122115,-178,-244,-2,-161,-224,-36,-356,118,-81,-41,37,-84,239,-15,225,-186,-174,14,122,7,118,28,154,135,193,233,73,-126,200,89,-240,-210
122116,-206,-268,-13,-174,-230,-56,-367,116,-90,-59,13,-122,232,-41,220,-196,-192,-20,105,-11,117,31,130,99,193,218,65,-150,169,70,-261,-236
122117,-196,-275,6,-137,-230,-55,-348,133,-77,-57,20,-77,235,-34,224,-252,-152,-20,105,8,119,71,156,79,185,220,62,-128,188,80,-241,-194
122118,-158,-227,71,-84,-202,-17,-292,169,-48,-40,68,-13,245,-29,213,-277,-112,25,114,10,127,65,203,101,180,219,75,-44,246,125,-215,-153
122119,-128,-188,94,-97,-199,16,-268,189,-37,-34,88,39,237,-31,226,-290,-62,40,116,0,141,20,252,123,182,212,86,37,315,174,-170,-105
122120,-95,-204,97,-101,-200,15,-231,194,-49,-56,79,60,230,-39,211,-242,-36,21,109,-18,122,62,289,152,188,228,106,93,381,210,-145,-92
122121,-139,-244,87,-100,-195,18,-227,206,-55,-70,92,68,265,-51,219,-130,-32,75,107,-14,161,142,339,190,210,261,172,157,445,264,-67,-17
122122,-155,-232,97,-78,-191,41,-182,238,-27,-48,137,125,282,-43,265,0,-1,120,134,0,224,238,386,209,230,294,259,154,440,296,-28,32
122123,-145,-206,101,-87,-198,34,-182,236,-43,-35,176,121,275,-40,295,89,6,109,134,9,284,316,381,209,236,333,308,109,403,318,21,87
122124,-79,-148,120,-83,-188,1,-163,236,-49,-33,218,97,273,-60,309,105,23,107,104,35,334,378,371,178,230,347,358,95,391,311,30,140
122125,-57,-96,152,-71,-180,-48,-161,248,-63,-42,213,124,271,-70,313,120,40,109,91,31,332,388,373,174,215,355,395,108,396,322,38,166
122126,-45,-61,168,-52,-156,12,-107,258,-55,-23,245,180,288,-45,344,159,72,147,120,47,357,409,422,206,215,371,412,129,428,314,24,159
122127,-10,-50,181,-34,-149,77,-78,272,-58,-31,270,203,282,-55,355,151,82,169,124,37,376,444,462,225,223,371,428,157,449,318,42,153
122128,-11,-36,200,-10,-139,96,-40,296,-54,-31,282,207,318,-47,375,202,129,193,161,74,422,477,493,273,254,422,473,219,526,442,142,272
122129,3,-20,217,0,-145,103,-19,317,-36,-22,306,230,328,-37,390,202,167,218,175,77,422,463,512,288,256,414,459,209,498,387,64,174
122130,-3,-34,181,-4,-158,84,-21,294,-50,-39,285,234,323,-41,368,181,183,224,169,69,403,448,524,303,253,424,467,270,525,382,81,169
122131,-27,-59,171,-27,-182,34,-40,272,-46,-55,273,235,337,-45,358,161,179,235,188,71,419,443,551,313,269,442,506,359,603,470,173,314
122132,-43,-86,170,-20,-175,28,-94,286,-28,-30,276,223,335,-21,356,119,172,223,171,57,376,376,530,301,247,394,435,370,571,401,97,235
122133,-77,-125,129,-41,-176,29,-115,238,-22,-42,252,155,299,-39,321,81,81,174,130,9,293,307,437,218,183,308,322,188,439,222,-98,33
122134,-81,-128,106,-43,-169,29,-176,236,-36,-51,192,105,285,-41,277,28,21,121,97,-17,248,264,411,171,148,278,263,156,359,161,-142,-6
122135,-101,-159,78,-51,-162,14,-215,223,-37,-59,158,102,293,-64,248,-56,5,117,82,-37,195,133,394,175,137,243,192,205,380,178,-161,-72
122136,-136,-193,46,-77,-161,8,-246,172,-51,-63,131,30,257,-76,242,-97,-41,81,49,-40,158,61,358,139,105,210,129,146,371,155,-170,-103
122137,-152,-207,29,-81,-180,-4,-250,131,-61,-43,123,-25,227,-61,237,-90,-135,22,39,-74,125,49,303,93,102,201,100,31,298,119,-204,-139
122138,-139,-205,5,-92,-171,-6,-238,87,-65,-22,106,-69,187,-80,218,-141,-199,-33,14,-82,100,-22,230,37,58,166,54,-71,220,55,-263,-219
122139,-162,-217,-20,-99,-159,39,-227,85,-74,-24,122,-100,174,-67,240,-122,-242,-49,11,-47,138,-24,193,33,74,214,96,-70,245,119,-161,-92
122140,-224,-250,-70,-138,-185,4,-277,49,-106,-43,90,-114,157,-73,233,-151,-259,-40,8,-49,134,-59,211,49,85,222,103,71,361,208,-83,-19
122141,-281,-306,-125,-162,-209,-25,-314,33,-102,-60,54,-138,144,-62,208,-196,-309,-86,0,-74,91,-88,168,25,79,199,20,49,315,109,-245,-201
122142,-281,-320,-120,-169,-218,-4,-320,20,-99,-46,61,-151,126,-68,213,-198,-346,-133,-5,-83,92,-60,78,-20,60,179,6,-137,154,-12,-355,-277
122143,-273,-324,-112,-165,-230,-26,-305,13,-105,-47,67,-167,136,-67,223,-179,-362,-144,-16,-68,116,19,-18,-80,49,180,66,-478,-124,-111,-318,-124
122144,-251,-307,-128,-163,-218,-55,-337,34,-93,-60,55,-150,147,-55,225,-218,-306,-95,-5,-41,113,-9,43,-16,81,202,84,-367,-4,-9,-235,-65
122145,-292,-312,-124,-172,-232,-62,-355,41,-109,-58,57,-153,143,-55,206,-252,-351,-117,7,-53,122,26,12,5,100,208,157,-457,7,25,-181,73
122146,-302,-265,-86,-157,-218,-35,-292,74,-109,-53,85,-117,179,-30,219,-201,-266,-65,42,-55,139,84,78,29,117,227,177,-382,38,25,-187,69
122147,-245,-252,-63,-156,-218,-42,-268,96,-92,-46,98,-100,200,-53,223,-151,-196,-20,61,-44,126,94,151,39,117,198,94,-228,67,5,-277,-188
122148,-204,-255,-37,-140,-227,-13,-257,101,-96,-53,125,-54,217,-70,238,-74,-138,5,62,-40,170,185,208,75,120,203,152,-157,140,69,-233,-153
122149,-187,-240,-39,-136,-214,-38,-209,96,-92,-48,153,-27,238,-57,291,29,-65,65,103,20,261,324,267,161,194,331,347,-26,324,275,41,331
122150,-155,-211,-13,-134,-221,-13,-164,109,-77,-62,187,-25,232,-42,302,83,-115,38,97,28,269,376,239,145,192,320,377,-98,303,228,31,313
122151,-134,-185,51,-102,-219,-3,-201,152,-74,-67,170,32,246,-18,288,47,-114,76,114,46,271,349,306,154,214,319,370,35,368,280,57,264
122152,-92,-153,74,-68,-179,-8,-146,191,-64,-54,201,57,273,14,323,80,-62,109,130,46,267,339,336,151,240,343,371,78,384,316,76,211
122153,-79,-120,99,-50,-177,28,-112,187,-55,-52,216,48,269,10,324,76,-31,94,122,50,260,323,316,151,222,349,346,41,337,273,38,131
122154,-126,-174,33,-89,-208,36,-135,141,-69,-53,207,-3,242,-22,293,54,-64,49,133,35,243,301,310,146,210,323,325,99,349,281,36,105
122155,-122,-170,52,-93,-185,33,-133,142,-58,-50,208,15,230,-42,273,26,-27,37,98,-3,201,273,274,86,167,278,231,32,283,177,-96,-157
122156,-110,-122,74,-66,-163,47,-100,175,-61,-61,237,47,240,-38,286,47,-13,38,82,10,213,305,267,85,148,274,224,-21,271,174,-68,-134
122157,-66,-86,122,-38,-151,56,-49,199,-43,-34,274,85,265,-12,320,85,63,72,109,52,271,352,314,136,197,334,299,58,337,280,15,8
122158,-83,-103,107,-83,-170,29,-79,191,-75,-57,250,71,235,-34,312,73,47,52,93,16,253,338,313,105,193,332,295,83,331,255,2,-16
122159,-130,-163,70,-85,-178,29,-116,194,-86,-43,234,34,244,-8,315,56,12,62,107,37,271,320,313,139,223,333,301,121,369,311,41,4
122160,-131,-194,60,-92,-191,29,-110,189,-72,-22,220,21,262,-13,307,43,-4,62,119,64,287,304,304,170,243,354,304,136,403,320,63,20
122161,-139,-191,73,-82,-192,-44,-127,227,-57,-53,194,56,281,2,300,23,4,92,134,65,251,321,324,191,246,351,278,147,401,345,55,31
122162,-150,-192,50,-100,-194,-95,-133,230,-55,-58,191,58,282,14,306,8,41,75,147,66,265,347,326,184,254,358,328,145,424,399,106,153
122163,-158,-208,31,-102,-188,-1,-135,212,-50,-35,220,72,286,10,320,-4,34,80,133,80,272,332,321,190,254,364,362,115,436,380,108,163
122164,-156,-203,30,-97,-204,10,-166,196,-61,-48,202,64,269,-14,300,-18,-28,79,112,46,247,300,329,169,230,336,286,92,393,332,55,63
122165,-168,-206,29,-70,-179,19,-146,198,-53,-28,193,63,267,-20,296,-9,-81,83,117,37,242,296,331,166,221,315,253,138,426,322,1,-39
122166,-169,-214,13,-80,-157,12,-131,189,-41,-45,185,59,265,-6,301,-4,-148,86,106,55,249,280,328,187,209,323,274,141,434,330,20,4
122167,-187,-228,-3,-95,-177,12,-182,162,-54,-52,169,51,242,-15,274,-42,-80,83,97,24,236,245,323,172,204,297,240,93,383,289,-19,-9
122168,-196,-235,5,-98,-189,24,-200,158,-50,-58,155,42,241,-21,251,-45,-16,78,102,6,227,208,316,167,216,284,239,93,382,300,-40,-6
122169,-173,-214,47,-79,-182,35,-183,210,-39,-38,176,99,271,-34,273,-23,17,122,120,26,240,198,370,183,184,296,245,156,455,344,-8,28
122170,-128,-188,57,-75,-199,44,-164,229,-56,-42,223,87,265,-42,283,-71,-18,107,96,22,225,251,356,175,174,296,250,148,427,335,0,24
122171,-111,-162,50,-73,-190,68,-157,218,-45,-31,289,82,266,-26,298,-84,-70,77,89,22,234,288,337,178,183,299,236,80,410,324,-9,25
122172,-112,-138,65,-61,-172,118,-137,222,-49,-14,331,98,280,-20,319,-88,-40,110,114,32,251,262,384,207,179,319,240,103,420,338,21,28
122173,-144,-144,23,-85,-167,44,-167,192,-47,-25,289,99,289,-12,317,-63,3,107,127,44,248,250,393,209,187,318,231,120,427,333,37,30
122174,-197,-188,4,-131,-187,0,-165,197,-46,-19,252,118,304,8,313,-104,33,133,127,41,256,272,390,215,203,320,208,115,419,340,13,28
122175,-216,-218,-3,-120,-179,61,-150,176,-58,-12,215,80,268,3,304,-246,-5,102,114,38,216,226,356,198,205,291,159,109,401,307,-18,-17
122176,-177,-189,-6,-110,-163,52,-162,162,-53,-17,192,76,264,4,297,-286,-47,87,124,38,202,219,369,193,211,282,168,128,424,317,-44,-25
122177,-175,-188,-25,-119,-180,30,-198,157,-55,-25,179,87,253,6,280,-150,-79,95,141,42,212,179,363,196,214,283,166,148,416,308,-56,-39
122178,-183,-215,-24,-117,-214,-5,-212,144,-51,-25,174,61,246,2,280,-34,-63,97,143,32,211,111,386,193,202,285,141,159,423,281,-60,-74
122179,-202,-283,-8,-109,-218,19,-210,161,-58,-30,188,84,256,17,285,19,-65,103,126,44,204,106,377,180,200,255,128,84,374,235,-73,-49
122180,-215,-341,-21,-119,-238,8,-211,168,-61,-45,181,59,272,3,263,4,-80,85,116,8,169,86,345,161,183,230,108,34,286,190,-130,-83
122181,-238,-314,-9,-118,-216,36,-191,168,-48,-27,186,53,282,10,279,0,-49,86,131,11,165,86,353,162,199,243,103,99,342,211,-142,-122
122182,-273,-287,-36,-137,-220,31,-196,169,-57,-13,181,46,256,0,260,-54,-69,58,92,-15,128,50,325,142,160,191,65,91,301,163,-189,-159
122183,-281,-293,-68,-152,-232,28,-227,151,-70,-29,128,2,243,-9,229,-146,-81,41,88,-38,98,33,326,118,114,146,31,15,263,130,-212,-184
122184,-245,-243,-64,-123,-206,-8,-190,162,-49,-44,146,4,245,-11,230,-164,-80,51,86,-18,98,43,325,113,142,165,47,-12,255,135,-207,-152
122185,-264,-256,-98,-159,-231,-17,-190,133,-88,-40,156,-17,228,-32,234,-174,-86,40,66,-35,72,5,310,100,131,159,9,-41,232,112,-240,-166
122186,-302,-307,-145,-201,-246,13,-244,113,-116,-48,109,-49,222,-45,235,-211,-100,18,59,-24,72,-2,318,117,155,173,16,6,276,134,-222,-160
122187,-307,-308,-109,-180,-237,23,-235,128,-74,-8,127,-46,239,7,257,-178,-88,43,100,29,124,77,315,148,191,230,66,29,329,162,-201,-102
122188,-333,-329,-131,-189,-239,19,-245,112,-82,2,129,-52,237,18,260,-145,-131,25,118,34,111,66,300,144,183,232,89,28,337,182,-164,-85
122189,-354,-347,-153,-194,-254,3,-263,78,-106,10,140,-65,240,18,277,-133,-155,5,97,36,123,4,265,123,208,238,74,23,332,192,-151,-120
122190,-358,-362,-154,-213,-256,-13,-275,78,-111,-4,133,-82,225,7,251,-173,-161,-3,82,27,104,25,266,117,199,230,26,37,337,169,-201,-146
122191,-359,-358,-160,-215,-249,-26,-281,63,-102,-27,113,-100,196,4,249,-185,-190,-30,71,20,91,72,271,115,192,218,54,42,313,153,-216,-129
122192,-391,-363,-185,-201,-253,-28,-281,22,-106,-8,106,-122,199,13,264,-175,-215,-40,71,10,128,54,235,102,180,223,74,3,275,130,-213,-126
122193,-445,-362,-215,-217,-283,-19,-260,-6,-109,-2,141,-170,165,1,279,-174,-269,-75,52,37,117,11,169,68,172,209,94,-133,219,109,-223,-128
122194,-409,-374,-216,-252,-291,-1,-283,-30,-105,-19,148,-202,141,8,283,-168,-295,-117,54,55,143,67,126,46,171,254,123,-206,170,103,-190,-93
122195,-373,-375,-212,-244,-270,-7,-279,-46,-106,16,150,-188,164,26,301,-168,-277,-101,59,50,141,44,137,34,165,257,75,-122,209,81,-230,-187
122196,-424,-373,-269,-274,-270,-18,-276,-78,-136,1,117,-244,126,0,271,-157,-338,-158,23,11,110,17,89,8,137,222,55,-218,142,38,-275,-220
122197,-430,-394,-292,-268,-282,-1,-267,-63,-152,-2,94,-290,101,6,269,-166,-353,-158,7,0,104,32,56,2,123,216,61,-241,120,33,-246,-183
122198,-409,-372,-242,-268,-265,14,-250,-35,-137,6,116,-269,119,2,269,-176,-338,-138,25,15,85,4,55,11,122,206,42,-232,126,45,-264,-203
122199,-428,-391,-269,-299,-264,16,-272,-52,-152,-3,130,-271,126,0,242,-202,-329,-142,19,7,65,-30,52,19,114,183,15,-220,136,34,-299,-235
122200,-428,-400,-300,-297,-281,27,-248,-59,-143,-3,123,-249,132,1,247,-219,-355,-151,18,-8,70,-60,41,0,113,178,19,-223,129,19,-307,-246
122201,-416,-393,-288,-269,-276,27,-273,-41,-114,18,131,-219,145,12,260,-189,-359,-130,27,16,125,-17,63,13,130,210,76,-205,160,62,-237,-203
122202,-424,-406,-279,-258,-271,10,-300,-34,-120,6,145,-181,144,-12,284,-171,-335,-93,20,9,123,41,110,33,143,219,81,-182,160,83,-200,-198
122203,-413,-399,-269,-253,-280,14,-295,-23,-129,-6,147,-171,156,-23,267,-183,-326,-82,22,11,144,80,120,26,163,227,115,-170,156,104,-156,-143
122204,-400,-362,-242,-236,-256,26,-273,-17,-104,-2,167,-165,169,0,263,-177,-289,-83,37,29,155,76,121,52,185,270,136,-209,130,124,-150,-131
122205,-447,-386,-278,-273,-270,4,-302,-13,-96,-6,147,-172,157,-4,260,-201,-286,-68,43,27,151,31,117,50,186,269,123,-197,150,132,-148,-141
122206,-464,-367,-284,-334,-270,3,-288,-27,-93,-12,117,-193,155,-8,256,-192,-305,-108,46,22,132,3,90,37,169,242,87,-195,132,126,-154,-112
122207,-428,-344,-245,-250,-258,12,-261,-33,-103,1,124,-186,160,8,260,-135,-296,-105,45,24,142,62,99,33,156,256,101,-180,122,110,-122,-56
122208,-384,-344,-224,-249,-274,-22,-253,0,-105,1,150,-171,163,8,254,-97,-279,-92,17,9,163,91,101,26,158,249,141,-174,146,98,-139,-99
122209,-360,-319,-211,-228,-248,-3,-246,-2,-118,1,187,-149,161,14,277,-67,-265,-78,24,10,186,100,123,44,158,259,141,-154,150,79,-156,-130
122210,-361,-322,-213,-200,-249,-34,-289,-14,-108,-14,167,-138,147,7,266,-92,-270,-69,29,0,199,117,161,65,159,286,137,-89,216,153,-104,-66
122211,-339,-309,-193,-221,-246,-61,-283,-24,-103,-6,174,-122,148,-7,275,-201,-228,-60,37,4,190,123,157,72,171,287,151,-78,225,169,-107,-76
122212,-285,-299,-166,-203,-242,-56,-254,8,-100,-23,170,-130,153,-5,289,-254,-208,-51,65,18,172,110,182,88,173,253,135,-90,227,172,-112,-96
122213,-305,-311,-152,-203,-249,-8,-253,9,-93,-27,146,-125,155,-5,275,-232,-180,-83,46,7,161,112,150,71,164,258,132,-162,159,104,-168,-128
122214,-332,-373,-180,-227,-252,32,-299,-21,-92,-20,115,-141,175,2,277,-215,-198,-62,40,17,165,143,124,55,176,275,120,-173,139,74,-182,-160
122215,-386,-390,-214,-216,-259,26,-292,-22,-98,-19,111,-141,169,5,274,-169,-272,-61,38,16,177,139,112,65,157,277,125,-158,151,80,-150,-140
122216,-373,-351,-229,-193,-255,0,-287,-2,-95,-38,117,-120,163,9,259,-145,-280,-57,29,-1,153,65,113,50,115,266,110,-168,142,69,-167,-152
