,Fp1,Fp2,F7,F3,Fz,F4,F8,FC5,FC1,FC2,FC6,T7,C3,Cz,C4,T8,TP9,CP5,CP1,CP2,CP6,TP10,P7,P3,Pz,P4,P8,PO9,O1,Oz,O2,PO10
29433,-445,-724,-217,-80,-328,-267,-577,31,116,-64,-530,-397,272,274,-127,-479,-213,-194,103,-136,-267,-185,7,159,288,210,-197,-142,33,38,-46,-64
29434,-434,-623,-210,-104,-334,-254,-586,50,104,-71,-528,-360,263,262,-132,-484,-268,-212,94,-146,-287,-153,-31,116,252,201,-177,-286,-20,-13,-104,-189
29435,-437,-596,-225,-111,-327,-248,-600,-13,109,-79,-517,-337,258,254,-129,-467,-276,-191,87,-145,-285,-135,17,107,243,196,-122,-418,-49,-53,-120,-199
29436,-386,-711,-250,-136,-332,-178,-609,-42,106,-63,-517,-318,270,267,-143,-489,-250,-154,89,-152,-301,-174,105,132,249,177,-190,-396,-7,-22,-95,-78
29437,-402,-756,-271,-152,-341,-129,-604,-34,109,-54,-518,-338,266,260,-149,-490,-252,-149,98,-149,-303,-222,133,143,242,176,-207,-312,28,16,-79,-40
29438,-429,-824,-271,-149,-341,-130,-667,-54,111,-46,-480,-324,266,267,-123,-451,-229,-134,107,-150,-292,-153,113,144,253,192,-186,-232,44,25,-67,-6
29439,-473,-848,-283,-159,-346,-113,-790,-31,110,-36,-428,-316,267,250,-128,-477,-285,-154,72,-172,-311,-251,22,136,236,163,-266,-300,4,-41,-115,-158
29440,-529,-831,-296,-129,-354,-138,-810,19,102,-46,-375,-319,286,239,-140,-525,-226,-152,81,-170,-334,-333,41,152,223,152,-291,-343,4,-53,-149,-224
29441,-570,-901,-363,-127,-363,-121,-817,29,86,-23,-311,-365,283,237,-118,-468,-246,-170,80,-167,-304,-269,56,155,241,177,-219,-227,21,-25,-106,-120
29442,-526,-906,-378,-167,-348,-78,-738,52,96,-8,-368,-380,287,245,-97,-391,-338,-211,87,-157,-266,-261,18,122,243,195,-176,-346,-8,-48,-126,-230
29443,-521,-925,-357,-159,-354,-70,-738,9,69,-15,-398,-366,252,234,-113,-427,-391,-239,54,-183,-298,-347,-54,69,197,167,-176,-413,-76,-98,-175,-257
29444,-515,-808,-253,-142,-342,-53,-744,-43,68,10,-308,-334,230,240,-113,-454,-370,-230,25,-182,-298,-264,-88,62,203,159,-189,-280,-66,-52,-127,-48
29445,-447,-728,-223,-110,-324,-144,-712,0,81,-23,-471,-297,244,232,-153,-486,-344,-223,37,-188,-317,-183,-89,65,199,147,-207,-261,-86,-86,-164,-41
29446,-534,-722,-437,-116,-326,-185,-698,40,98,-35,-538,-359,231,253,-150,-546,-376,-249,44,-178,-309,-154,-117,43,197,144,-195,-342,-120,-107,-188,-108
29447,-606,-846,-502,-123,-356,-94,-708,-19,72,-8,-470,-381,216,273,-99,-666,-319,-255,60,-150,-246,-200,-83,52,221,179,-176,-299,-89,-91,-173,-168
29448,-526,-801,-373,-88,-369,-146,-817,-53,68,-29,-464,-384,222,287,-95,-565,-299,-243,81,-141,-231,-198,-43,86,237,209,-136,-244,-53,-92,-172,-279
29449,-578,-767,-412,-92,-348,-229,-784,11,99,-31,-475,-421,231,268,-120,-357,-275,-252,79,-144,-289,-172,-59,86,231,198,-88,-381,-67,-96,-176,-217
29450,-697,-831,-369,-109,-350,-207,-721,73,94,-51,-521,-404,248,257,-165,-334,-291,-250,75,-198,-395,-193,-45,71,217,157,-165,-408,-74,-95,-192,-186
29451,-593,-804,-268,-134,-352,-232,-771,73,77,-77,-542,-338,234,257,-174,-406,-314,-236,62,-190,-362,-237,-30,67,213,141,-207,-322,-65,-107,-196,-150
29452,-601,-840,-229,-156,-349,-168,-815,-23,71,-48,-440,-287,220,247,-155,-478,-293,-246,29,-192,-340,-248,-30,60,193,127,-208,-338,-108,-147,-235,-219
29453,-561,-787,-195,-166,-353,-125,-723,-95,56,-37,-476,-300,218,247,-174,-454,-229,-242,35,-205,-359,-264,-23,45,174,120,-166,-385,-137,-174,-272,-241
29454,-472,-707,-131,-191,-343,-126,-702,-176,56,-10,-453,-335,207,257,-138,-447,-235,-237,37,-176,-326,-254,-7,45,184,143,-136,-390,-131,-171,-263,-242
29455,-441,-677,-140,-206,-329,-124,-672,-180,62,-38,-404,-388,196,246,-139,-470,-269,-249,22,-175,-311,-269,-27,41,173,138,-191,-346,-129,-180,-265,-272
29456,-452,-677,-222,-209,-347,-125,-639,-164,49,-30,-462,-415,212,246,-143,-468,-282,-247,34,-199,-302,-272,-7,65,169,135,-207,-304,-129,-176,-279,-293
29457,-401,-639,-284,-241,-324,-112,-620,-101,58,-17,-417,-379,228,250,-121,-540,-295,-237,51,-187,-267,-264,-14,75,194,159,-148,-351,-133,-159,-258,-346
29458,-401,-671,-309,-192,-338,-195,-619,-49,63,-45,-487,-350,238,246,-151,-646,-284,-227,41,-191,-231,-253,-17,74,188,169,-112,-406,-145,-175,-250,-267
29459,-392,-672,-270,-177,-345,-270,-596,-30,68,-47,-545,-317,264,222,-163,-465,-251,-186,43,-200,-241,-243,34,86,184,148,-162,-364,-132,-168,-264,-325
29460,-381,-660,-227,-185,-329,-228,-543,-20,82,-52,-515,-287,246,207,-180,-313,-264,-182,41,-212,-292,-277,15,78,172,144,-171,-382,-139,-201,-278,-363
29461,-386,-720,-227,-187,-331,-137,-507,-29,78,-21,-411,-230,233,214,-149,-365,-268,-157,35,-200,-337,-334,26,84,163,131,-181,-438,-141,-208,-286,-331
29462,-403,-731,-303,-181,-297,-75,-605,-36,89,3,-413,-276,249,243,-142,-388,-262,-175,54,-183,-326,-353,53,113,170,121,-228,-489,-116,-183,-266,-221
29463,-435,-664,-349,-189,-316,-149,-663,-57,66,-24,-476,-389,240,228,-162,-377,-298,-214,49,-196,-324,-351,32,89,163,93,-294,-512,-129,-211,-283,-227
29464,-434,-702,-242,-197,-321,-189,-658,-64,55,-29,-472,-407,225,241,-171,-426,-301,-227,33,-219,-317,-323,38,67,145,93,-274,-484,-183,-241,-338,-308
29465,-424,-684,-210,-179,-343,-177,-654,-84,61,-15,-447,-419,192,231,-173,-421,-325,-248,9,-225,-338,-314,6,28,127,75,-289,-531,-236,-286,-382,-334
29466,-479,-737,-202,-179,-343,-169,-673,-102,62,-3,-407,-401,186,218,-155,-433,-367,-252,8,-220,-338,-275,-39,29,131,65,-262,-509,-235,-293,-389,-350
29467,-488,-790,-198,-221,-354,-149,-713,-135,44,-39,-410,-432,170,213,-174,-469,-377,-283,3,-251,-357,-313,-72,9,121,47,-295,-459,-253,-313,-399,-364
29468,-464,-767,-228,-216,-350,-136,-730,-142,43,-35,-440,-437,176,226,-176,-477,-368,-293,4,-234,-367,-301,-81,12,124,48,-302,-423,-257,-309,-386,-384
29469,-471,-861,-237,-204,-340,-104,-716,-124,62,-19,-432,-443,176,241,-166,-493,-393,-289,16,-219,-353,-259,-123,5,139,69,-313,-379,-252,-304,-398,-445
29470,-490,-865,-287,-226,-341,-115,-739,-127,45,-16,-412,-441,177,257,-150,-498,-414,-290,29,-214,-328,-299,-117,3,155,69,-275,-398,-241,-311,-397,-495
29471,-555,-851,-380,-185,-345,-82,-720,-90,63,-13,-398,-436,198,263,-109,-609,-396,-287,30,-184,-262,-295,-124,23,177,91,-225,-411,-234,-314,-409,-451
29472,-692,-932,-571,-164,-348,-86,-653,-21,64,-22,-446,-408,196,268,-104,-641,-400,-272,43,-176,-276,-343,-99,25,166,79,-322,-380,-232,-321,-414,-437
29473,-712,-891,-548,-118,-344,-115,-666,76,78,-11,-416,-364,221,262,-96,-452,-314,-251,50,-169,-311,-344,-56,35,171,85,-362,-429,-224,-316,-391,-386
29474,-620,-824,-428,-127,-333,-126,-711,46,83,-9,-405,-351,243,260,-110,-272,-239,-211,51,-171,-356,-295,18,62,186,86,-301,-470,-194,-278,-366,-335
29475,-531,-763,-343,-141,-318,-113,-656,9,78,-8,-421,-326,230,273,-112,-319,-312,-213,58,-175,-338,-263,16,78,195,104,-279,-416,-186,-271,-349,-274
29476,-465,-737,-314,-176,-327,-149,-675,-47,51,-19,-422,-312,202,264,-107,-383,-389,-215,49,-155,-300,-421,32,71,188,102,-320,-337,-173,-283,-363,-378
29477,-456,-691,-320,-189,-348,-193,-651,-122,49,-23,-407,-334,190,265,-105,-353,-393,-240,44,-122,-268,-399,-19,61,196,131,-252,-473,-209,-282,-373,-388
29478,-486,-747,-276,-251,-368,-179,-680,-210,37,-34,-388,-324,159,267,-102,-370,-390,-263,49,-140,-255,-255,-114,53,191,153,-156,-458,-218,-238,-340,-277
29479,-480,-829,-234,-240,-356,-133,-701,-161,45,-10,-408,-297,201,298,-107,-426,-350,-233,68,-126,-283,-311,-74,75,218,137,-262,-359,-162,-224,-303,-338
29480,-446,-773,-223,-217,-346,-139,-676,-141,52,-11,-417,-363,207,287,-97,-412,-335,-237,71,-131,-294,-374,-68,71,225,98,-353,-435,-170,-259,-354,-406
29481,-447,-802,-254,-247,-353,-77,-684,-142,40,-21,-426,-406,198,278,-102,-429,-379,-252,60,-153,-308,-344,-70,59,205,88,-302,-455,-176,-274,-370,-529
29482,-507,-837,-360,-228,-353,-66,-661,-125,25,-15,-467,-418,197,289,-98,-444,-402,-259,53,-134,-291,-360,-76,54,205,114,-259,-450,-168,-256,-358,-641
29483,-487,-756,-398,-212,-344,-167,-660,-64,36,-27,-483,-402,201,288,-104,-436,-454,-262,48,-128,-282,-288,-145,40,223,122,-235,-482,-178,-239,-315,-471
29484,-520,-721,-353,-166,-345,-193,-650,35,75,-24,-437,-393,222,290,-104,-472,-392,-240,55,-115,-336,-344,-141,45,227,122,-308,-460,-170,-248,-332,-547
29485,-564,-733,-371,-166,-364,-227,-630,11,57,-50,-440,-410,200,272,-122,-494,-353,-251,44,-141,-351,-377,-114,32,219,111,-346,-405,-151,-226,-301,-426
29486,-513,-761,-319,-192,-360,-226,-624,-91,49,-43,-464,-401,192,277,-114,-454,-330,-232,47,-122,-312,-363,-99,61,221,129,-308,-419,-132,-182,-253,-267
29487,-482,-767,-282,-203,-334,-186,-569,-92,72,-21,-416,-381,216,285,-100,-443,-343,-239,59,-121,-283,-320,-59,68,221,132,-269,-402,-147,-200,-295,-330
29488,-474,-730,-303,-198,-353,-208,-537,-87,72,-43,-395,-411,217,287,-103,-400,-365,-247,57,-137,-270,-329,-70,57,203,106,-278,-365,-178,-237,-310,-438
29489,-500,-768,-297,-210,-340,-208,-639,-138,79,-64,-474,-411,216,275,-144,-446,-334,-235,56,-148,-303,-352,-86,52,186,104,-292,-359,-183,-251,-334,-668
29490,-511,-799,-320,-221,-362,-146,-639,-143,62,-41,-458,-410,209,278,-119,-467,-351,-248,53,-143,-277,-346,-95,64,185,117,-228,-414,-175,-221,-301,-454
29491,-529,-792,-384,-229,-351,-201,-683,-105,46,-23,-463,-394,223,274,-84,-479,-331,-226,63,-132,-265,-300,-59,88,220,135,-259,-355,-114,-162,-262,-187
29492,-604,-831,-427,-205,-367,-224,-767,-39,58,-21,-513,-372,252,305,-89,-474,-282,-166,91,-133,-278,-324,8,120,249,141,-335,-259,-56,-151,-250,-309
29493,-594,-838,-406,-203,-370,-232,-668,-44,53,-20,-495,-389,236,297,-83,-397,-273,-172,91,-122,-255,-364,18,128,237,149,-312,-312,-69,-135,-225,-285
29494,-532,-825,-293,-198,-365,-219,-665,-79,65,-12,-486,-321,253,293,-80,-349,-203,-153,99,-117,-254,-302,72,145,243,167,-270,-308,-50,-148,-217,-281
29495,-515,-799,-207,-183,-358,-159,-639,-57,79,-11,-409,-264,265,289,-63,-329,-149,-131,104,-121,-212,-199,126,141,249,184,-226,-248,-33,-140,-215,-259
29496,-441,-742,-137,-163,-351,-88,-564,-30,64,-8,-357,-275,241,274,-51,-304,-173,-148,72,-136,-226,-228,114,96,225,170,-221,-444,-77,-166,-247,-199
29497,-375,-689,-110,-148,-334,-11,-472,3,64,4,-294,-242,247,251,-66,-267,-157,-146,41,-162,-225,-352,177,88,180,129,-283,-619,-105,-221,-303,-267
29498,-412,-694,-90,-133,-311,-33,-442,21,69,16,-247,-180,245,265,-32,-513,-160,-118,35,-166,-197,-396,255,124,185,135,-282,-527,-74,-205,-267,-285
29499,-448,-861,-96,-142,-318,-84,-483,24,74,1,-303,-124,251,283,-26,-659,-173,-113,49,-141,-159,-385,244,145,199,172,-245,-394,-43,-146,-244,-339
29500,-509,-950,-146,-163,-342,-128,-525,19,72,-21,-326,-81,272,295,-26,-308,-158,-112,81,-127,-154,-274,220,159,225,186,-168,-342,-15,-134,-234,-323
29501,-536,-874,-199,-165,-345,-154,-471,12,68,-25,-364,-107,266,303,-23,45,-106,-105,94,-114,-217,-200,172,156,241,189,-129,-320,-12,-108,-195,-240
29502,-547,-805,-157,-159,-337,-153,-442,33,68,-5,-315,-94,278,310,-43,-23,-109,-100,101,-98,-263,-72,98,160,254,184,-116,-302,-22,-79,-164,-118
29503,-554,-741,-144,-178,-348,-185,-453,24,63,-11,-295,-120,279,319,-23,-155,-82,-97,108,-80,-182,4,130,159,271,228,-71,-69,25,-77,-146,-97
29504,-567,-723,-179,-202,-368,-172,-410,18,74,-10,-259,-181,261,322,8,-184,-78,-98,103,-74,-147,93,118,176,295,249,-11,-40,63,-15,-97,-30
29505,-625,-798,-257,-228,-384,-196,-443,-8,71,-17,-284,-240,266,325,11,-165,-59,-116,120,-63,-128,60,76,184,308,265,-21,-106,68,67,-21,39
29506,-668,-832,-278,-217,-382,-198,-431,-21,82,-27,-372,-222,302,339,-19,-170,-3,-66,155,-51,-110,45,231,249,343,294,82,-118,157,123,35,-107
29507,-634,-838,-271,-196,-387,-193,-429,0,85,-18,-374,-178,311,338,-23,-186,5,-36,169,-52,-86,26,346,264,360,343,252,-246,177,131,37,-259
29508,-638,-848,-251,-213,-395,-194,-432,13,78,-26,-346,-130,300,309,-30,-191,35,-7,130,-84,-147,-84,413,245,317,278,45,-364,110,21,-66,-134
29509,-650,-856,-254,-214,-394,-141,-424,16,69,-23,-339,-139,305,316,-30,-193,-79,1,125,-91,-197,-264,441,224,287,197,-135,-430,33,-96,-182,-312
29510,-656,-867,-282,-180,-383,-126,-412,5,80,-8,-288,-157,334,318,-3,-141,-100,-11,132,-60,-126,-187,387,241,331,267,-7,-294,74,-13,-97,-100
29511,-649,-944,-251,-191,-360,-64,-440,23,95,8,-272,-128,322,336,7,-129,-61,-20,127,-54,-98,-34,274,234,331,290,20,-215,72,26,-86,78
29512,-671,-941,-248,-178,-354,-60,-484,51,77,12,-244,-148,305,316,-4,-194,-108,-75,100,-88,-152,22,110,169,294,231,-95,-181,-20,-79,-171,-16
29513,-692,-991,-364,-171,-369,-56,-508,45,75,12,-236,-189,296,305,-28,-280,-74,-108,108,-96,-179,-46,35,160,278,207,-160,-196,-4,-73,-134,-232
29514,-707,-1026,-422,-195,-358,-65,-532,18,73,4,-317,-231,278,290,-48,-264,-158,-152,96,-98,-198,-5,-8,144,275,234,-34,-260,-49,-66,-113,-104
29515,-698,-979,-386,-196,-360,-63,-514,22,82,-1,-341,-279,260,291,-42,-214,-242,-191,69,-105,-175,-2,-71,110,254,244,-1,-198,-51,-63,-141,-79
29516,-707,-1001,-331,-140,-348,-68,-525,60,76,11,-304,-259,260,293,-43,-195,-176,-164,60,-128,-172,-18,-2,125,229,203,-82,-180,-50,-95,-178,-146
29517,-726,-954,-337,-139,-369,-127,-508,82,93,-7,-309,-242,258,285,-32,-209,-157,-167,55,-117,-159,33,24,127,243,217,-40,-101,-25,-56,-132,35
29518,-721,-920,-315,-150,-376,-160,-557,79,74,-21,-325,-241,279,272,-40,-230,-190,-159,54,-111,-165,58,-2,131,267,240,-49,-108,24,18,-60,106
29519,-697,-871,-300,-156,-369,-200,-635,23,81,-24,-298,-259,261,278,-38,-256,-199,-141,53,-121,-180,0,46,168,260,226,-75,71,72,41,-42,-19
29520,-681,-867,-253,-156,-351,-194,-643,-10,84,-14,-284,-294,238,282,-64,-252,-252,-193,30,-139,-226,-90,-51,107,203,162,-249,-35,-18,-59,-156,-91
29521,-697,-1012,-302,-200,-358,-78,-682,-64,54,-2,-223,-278,191,251,-79,-271,-259,-260,-16,-176,-261,-209,-124,39,167,121,-324,-145,-93,-143,-238,-144
29522,-724,-1168,-320,-209,-351,28,-747,-51,42,21,-156,-279,168,236,-60,-266,-302,-288,-26,-182,-269,-167,-172,20,155,91,-292,-199,-158,-210,-304,-286
29523,-765,-1154,-401,-205,-362,-34,-722,35,55,15,-243,-306,184,244,-47,-250,-228,-265,-27,-173,-252,-152,-120,4,149,85,-246,-226,-146,-190,-290,-388
29524,-868,-1210,-601,-209,-367,-9,-679,102,68,8,-317,-265,223,251,-42,-357,-146,-206,-6,-173,-194,-187,12,40,163,131,-179,-319,-99,-139,-207,-188
29525,-818,-1156,-521,-167,-377,-23,-634,135,69,11,-314,-204,242,254,-48,-418,-57,-142,12,-160,-148,-205,174,93,181,157,-155,-423,-66,-149,-214,-234
29526,-726,-1091,-417,-206,-349,-86,-523,111,54,-5,-351,-201,250,271,-22,-200,28,-94,51,-128,-136,-206,322,162,214,189,-74,-299,19,-91,-173,-225
29527,-688,-1081,-398,-183,-343,-102,-458,120,81,-8,-324,-189,264,286,-45,-27,-3,-53,60,-104,-212,-169,367,172,240,192,-138,-379,25,-67,-155,-117
29528,-621,-1002,-274,-253,-361,-201,-447,47,44,-41,-380,-170,245,283,-78,-219,-142,-93,49,-129,-274,-166,280,157,226,161,-240,-414,1,-52,-123,-21
29529,-666,-969,-175,-274,-361,-224,-473,-109,20,-36,-380,-128,208,283,-57,-275,-187,-140,47,-130,-240,-61,141,130,234,190,-186,-283,-38,-44,-125,10
29530,-680,-1004,-181,-266,-378,-203,-493,-151,21,-21,-360,-105,179,300,-52,-264,-234,-156,51,-131,-271,-156,34,92,206,169,-222,-209,-92,-107,-186,-75
29531,-677,-1015,-234,-282,-373,-130,-504,-178,31,-8,-311,-163,159,291,-39,-295,-278,-209,39,-131,-232,-113,-49,75,194,170,-134,-131,-88,-111,-190,-108
29532,-696,-971,-242,-299,-376,-149,-541,-190,16,-9,-343,-226,135,288,-60,-305,-296,-256,9,-140,-236,-73,-121,44,200,162,-81,-49,-111,-126,-212,-162
29533,-708,-997,-232,-293,-384,-133,-526,-159,22,-17,-334,-256,149,285,-53,-260,-227,-247,2,-158,-223,-91,-100,42,181,155,-146,32,-96,-148,-231,-154
29534,-710,-927,-266,-275,-362,-84,-452,-125,57,-2,-298,-369,162,295,-23,-246,-184,-252,19,-144,-194,-64,-111,35,191,184,-144,-194,-119,-134,-208,-192
29535,-767,-912,-361,-230,-374,-102,-479,-84,58,-5,-303,-356,211,304,-32,-237,-179,-220,35,-126,-192,-133,-77,48,201,200,-67,-414,-134,-143,-215,-224
29536,-832,-963,-400,-206,-385,-160,-610,-20,46,-22,-319,-281,238,302,-37,-241,-164,-170,55,-133,-186,-94,21,90,222,209,-43,-270,-66,-98,-187,-151
29537,-838,-976,-468,-206,-390,-207,-618,-4,48,-33,-349,-259,234,306,-43,-242,-128,-150,59,-131,-164,-77,94,102,216,203,-19,-173,-24,-84,-176,-114
29538,-780,-896,-401,-199,-406,-165,-577,-25,36,-29,-338,-250,225,301,-46,-239,-142,-161,53,-130,-185,-118,108,97,207,167,-125,-237,-32,-107,-212,-201
29539,-730,-857,-300,-180,-410,-99,-545,-47,52,-28,-347,-290,217,304,-60,-248,-236,-213,37,-139,-232,-84,-5,56,174,130,-224,-353,-112,-152,-241,-269
29540,-765,-923,-332,-184,-403,-117,-514,1,57,-30,-297,-275,215,298,-32,-285,-230,-206,41,-137,-207,-71,6,35,199,163,-204,-362,-132,-161,-250,-309
29541,-807,-968,-335,-186,-412,-171,-534,60,62,-44,-315,-260,234,298,-26,-277,-197,-208,51,-126,-188,-77,-17,74,211,206,-163,-335,-144,-149,-224,-181
29542,-854,-974,-391,-167,-403,-196,-584,63,58,-56,-393,-294,210,302,-65,-302,-174,-221,37,-119,-241,-145,-91,67,214,174,-257,-268,-138,-116,-183,-126
29543,-803,-974,-494,-223,-402,-128,-629,59,68,-44,-365,-283,213,305,-60,-331,-174,-210,59,-128,-247,-179,-52,60,227,180,-260,-230,-91,-63,-150,-91
29544,-731,-936,-390,-262,-392,-122,-631,32,57,-43,-320,-241,217,317,-67,-317,-196,-213,47,-116,-233,-154,-53,64,239,205,-225,-204,-74,-56,-138,-94
29545,-688,-955,-328,-254,-377,-157,-567,-20,54,-24,-297,-260,197,314,-44,-298,-249,-222,34,-103,-211,-97,-85,70,226,224,-168,-253,-96,-65,-162,-67
29546,-703,-996,-309,-262,-395,-148,-556,-29,51,-30,-309,-281,196,299,-26,-479,-343,-235,37,-120,-180,-112,-102,47,223,205,-165,-255,-131,-136,-237,-155
29547,-686,-968,-250,-277,-392,-160,-557,-100,46,-30,-333,-282,203,309,-32,-578,-270,-203,56,-101,-170,-181,-18,89,246,226,-205,-61,-44,-119,-195,-230
29548,-661,-927,-193,-297,-378,-209,-645,-137,40,-39,-323,-259,196,308,-49,-256,-263,-237,34,-113,-193,-172,-88,64,247,234,-174,-263,-70,-33,-113,-91
29549,-616,-956,-170,-297,-374,-176,-695,-108,32,-22,-285,-219,201,293,-72,-96,-241,-226,29,-133,-234,-119,-86,59,246,216,-149,-289,-78,-14,-113,-35
29550,-605,-977,-187,-328,-375,-78,-596,-86,32,1,-294,-253,202,303,-66,-212,-164,-196,59,-122,-257,-120,12,99,249,205,-136,-184,-9,32,-65,-4
29551,-713,-1051,-218,-302,-386,-68,-588,-66,47,1,-355,-256,215,301,-60,-276,-147,-153,52,-115,-240,-218,105,123,255,217,-126,-253,-4,2,-68,-313
29552,-828,-1059,-246,-261,-396,-93,-544,-54,47,-18,-311,-218,217,290,-53,-300,-170,-139,54,-133,-216,-280,189,135,252,219,-88,-347,1,-32,-98,-514
29553,-725,-976,-237,-271,-403,-127,-489,-55,35,-30,-273,-219,205,294,-31,-445,-191,-135,58,-132,-188,-297,173,124,230,208,-124,-389,-12,-42,-115,-437
29554,-665,-963,-232,-255,-391,-127,-569,-63,46,-16,-291,-257,228,320,-16,-397,-137,-143,66,-99,-114,-220,150,124,266,241,53,-466,-33,-25,-105,-458
29555,-681,-942,-215,-230,-380,-145,-610,-44,77,-9,-341,-227,247,321,-33,-162,-82,-126,94,-76,-100,-148,180,157,294,277,77,-409,31,53,-44,-167
29556,-705,-973,-255,-253,-389,-70,-524,-62,67,-11,-295,-174,235,300,-66,-73,-130,-151,72,-110,-249,-116,123,126,261,205,-195,-457,17,44,-56,81
29557,-707,-986,-298,-240,-408,-68,-545,-25,29,-7,-282,-159,235,276,-79,-248,-254,-146,60,-137,-289,-227,132,109,241,142,-332,-439,-8,-24,-107,-91
29558,-716,-962,-352,-196,-401,-153,-484,11,48,-19,-265,-154,244,270,-77,-270,-252,-135,61,-143,-242,-250,133,127,236,143,-293,-406,-41,-66,-159,-225
29559,-738,-932,-421,-187,-405,-151,-432,111,60,-20,-284,-209,251,286,-59,-203,-193,-160,61,-143,-231,-241,109,124,237,155,-256,-412,-42,-59,-151,-166
29560,-782,-866,-401,-162,-386,-195,-384,173,89,-51,-436,-229,282,310,-100,-200,-125,-110,85,-131,-233,-179,152,169,268,172,-231,-280,35,-2,-92,-164
29561,-743,-902,-349,-221,-390,-207,-407,54,66,-23,-385,-253,245,306,-80,-207,-123,-122,81,-108,-215,-104,132,173,303,197,-195,-82,71,26,-69,-119
29562,-666,-912,-322,-245,-396,-175,-474,-28,37,-27,-319,-274,223,303,-70,-269,-151,-167,64,-130,-235,-159,83,150,277,194,-201,29,68,7,-87,-251
29563,-647,-840,-335,-242,-395,-169,-446,-3,42,-19,-303,-259,224,302,-54,-265,-238,-192,67,-122,-180,-68,-36,119,263,209,-79,-81,35,7,-74,-216
29564,-649,-842,-274,-235,-390,-129,-393,35,49,-20,-320,-229,239,298,-62,-255,-153,-159,79,-123,-198,-58,32,139,271,211,-84,-176,40,14,-69,-131
29565,-649,-921,-241,-223,-376,-89,-451,57,64,-4,-319,-204,254,313,-43,-270,-17,-132,84,-108,-206,-121,134,149,271,230,-131,-257,60,32,-56,-275
29566,-642,-957,-238,-239,-393,-119,-477,41,56,-7,-284,-206,263,303,-30,-200,-85,-136,79,-108,-158,-156,150,158,259,248,17,-314,31,26,-73,-338
29567,-625,-908,-198,-183,-369,-128,-414,48,66,-5,-293,-179,257,304,-23,-189,-42,-117,81,-109,-171,-146,190,170,269,225,-65,-216,61,61,-27,109
29568,-625,-950,-234,-213,-357,-101,-447,-26,41,2,-240,-215,233,296,-27,-239,-155,-151,48,-120,-185,-132,135,137,260,198,-103,-35,82,79,-16,163
29569,-607,-916,-235,-212,-371,-141,-527,32,53,6,-280,-221,244,300,-34,-271,-171,-170,54,-134,-202,-84,76,116,236,192,-110,-30,56,49,-26,85
29570,-599,-896,-248,-197,-363,-139,-531,14,51,-15,-367,-229,226,281,-66,-326,-143,-188,42,-140,-233,-42,11,73,210,183,-131,-121,12,17,-58,83
29571,-620,-884,-234,-184,-375,-173,-554,25,67,-24,-396,-221,217,290,-86,-311,-175,-198,29,-128,-233,-15,-9,70,212,178,-109,-158,-6,15,-62,95
29572,-622,-806,-194,-174,-377,-191,-517,7,50,-41,-392,-200,221,268,-87,-292,-97,-187,5,-144,-246,-8,22,78,190,169,-131,-279,-32,-13,-72,72
29573,-615,-809,-173,-199,-391,-187,-480,-26,28,-62,-410,-210,219,251,-119,-336,-104,-190,7,-171,-290,-64,39,67,160,133,-194,-211,-54,-60,-142,-53
29574,-608,-837,-133,-175,-378,-207,-449,19,53,-51,-390,-155,232,261,-136,-330,-140,-158,37,-177,-277,-43,97,108,174,154,-175,-169,-26,-65,-144,-165
29575,-564,-831,-127,-151,-362,-183,-410,101,90,-34,-344,-61,283,281,-96,-279,-109,-105,70,-164,-221,-18,155,144,210,196,-91,-95,18,-35,-106,-131
29576,-568,-817,-164,-181,-360,-167,-436,69,80,-40,-346,-53,301,302,-95,-263,-115,-70,71,-155,-196,-23,136,148,207,209,-67,-98,4,-14,-97,-60
29577,-575,-785,-156,-167,-335,-118,-445,36,85,-34,-321,-116,298,298,-73,-250,-58,-89,90,-126,-183,-42,116,156,227,221,-81,-71,18,5,-92,-30
29578,-617,-796,-190,-173,-359,-88,-465,26,70,-36,-299,-193,288,294,-52,-232,-79,-116,62,-126,-178,-47,88,129,232,218,-47,-99,7,4,-76,-43
29579,-653,-897,-246,-158,-384,-162,-500,83,80,-34,-345,-197,277,291,-81,-266,-90,-114,66,-124,-189,-168,84,119,214,216,-87,-162,0,-9,-110,-145
29580,-697,-982,-378,-210,-393,-128,-509,88,70,-36,-372,-235,258,286,-74,-224,-122,-127,46,-137,-181,-231,124,109,190,190,-121,-286,-24,-30,-132,-183
29581,-770,-981,-380,-189,-393,-150,-559,131,73,-42,-318,-243,257,281,-65,-247,-148,-131,49,-151,-165,-192,152,114,207,188,-125,-365,-46,-60,-136,-168
29582,-761,-974,-309,-163,-379,-139,-611,138,69,-33,-283,-216,261,303,-55,-428,-171,-132,55,-123,-134,-136,142,103,217,204,-101,-302,-50,-74,-161,-206
