,Fp1,Fp2,F7,F3,Fz,F4,F8,FC5,FC1,FC2,FC6,T7,C3,Cz,C4,T8,TP9,CP5,CP1,CP2,CP6,TP10,P7,P3,Pz,P4,P8,PO9,O1,Oz,O2,PO10
102117,80,205,324,174,-52,300,171,312,-1,-14,51,72,268,-248,127,75,-89,-136,-164,-117,-212,16,142,15,-144,-83,156,-178,-173,-224,-285,-140
102118,-10,177,326,264,-43,184,159,305,-4,-18,16,4,292,-236,145,152,-89,-101,-154,-104,-159,34,150,24,-124,-61,190,-130,-120,-177,-230,-120
102119,59,191,370,259,-36,238,233,406,8,13,41,120,304,-239,190,-86,-50,-87,-133,-56,-41,139,206,40,-100,-24,254,-14,-52,-125,-189,-70
102120,179,166,401,311,-21,294,287,529,26,12,-47,110,312,-237,213,85,-55,-116,-134,-49,50,80,200,72,-89,32,322,57,-15,-62,-127,-37
102121,273,85,385,301,-2,309,377,636,24,-2,-18,114,316,-263,140,317,-72,-120,-157,-114,-278,129,181,36,-133,-56,220,-145,-142,-179,-212,-87
102122,289,134,351,275,-1,281,397,646,31,-1,28,108,334,-250,169,234,-134,-70,-124,-87,-177,122,200,51,-122,-26,280,-46,-62,-102,-137,-31
102123,304,231,421,252,-3,304,421,582,30,-7,89,118,354,-238,201,214,-61,-83,-135,-79,-62,189,189,59,-108,0,343,-3,-32,-81,-118,29
102124,344,340,547,282,12,242,418,503,30,-4,16,195,380,-228,175,369,0,-69,-109,-45,-95,164,270,84,-95,17,360,87,-8,-72,-91,38
102125,362,364,621,261,-5,75,472,482,44,-23,-45,233,397,-223,151,295,48,-23,-90,-52,-113,151,354,114,-83,25,359,214,68,-22,-94,19
102126,314,266,613,158,-9,214,433,405,37,-26,-46,132,382,-231,159,308,77,-69,-105,-91,-94,162,302,75,-110,-5,345,40,20,-46,-123,-14
102127,346,282,485,145,-3,167,380,327,33,-8,45,198,337,-207,165,311,-33,-70,-99,-70,-93,145,266,82,-95,4,348,24,45,-25,-110,0
102128,285,282,535,170,-25,-18,155,428,45,-13,101,234,362,-231,117,333,-13,-31,-86,-102,-138,159,363,113,-79,-18,335,250,115,-1,-93,-1
102129,234,203,448,129,-38,215,88,459,45,-13,28,64,363,-220,92,270,-19,-72,-126,-122,-182,77,275,75,-107,-41,325,-33,11,-85,-167,-42
102130,250,167,412,68,-9,403,71,418,47,-1,-69,9,360,-214,138,143,21,-93,-133,-102,-142,7,196,62,-108,-26,376,-196,-47,-119,-186,0
102131,182,227,373,126,-42,439,174,378,32,0,-7,76,333,-238,123,70,-10,-109,-135,-117,-171,56,220,63,-128,-42,320,-82,-40,-115,-169,-16
102132,148,347,401,274,-51,418,273,397,48,-4,-20,280,368,-225,128,174,-13,-51,-113,-99,-171,109,293,106,-122,-31,270,-5,-3,-101,-143,-30
102133,159,334,332,292,-56,307,308,464,43,-10,9,167,347,-215,120,152,-68,-39,-111,-92,-157,21,337,126,-103,-52,236,29,28,-65,-146,-2
102134,242,297,126,297,-74,100,264,562,34,-16,-20,113,351,-223,151,195,-8,-11,-91,-63,-98,-8,274,133,-78,9,338,-7,49,-22,-91,84
102135,291,212,180,260,-41,74,264,560,42,-38,-60,122,359,-222,162,56,-119,-32,-104,-72,-52,144,188,115,-80,18,355,-82,-8,-73,-108,-19
102136,262,233,342,223,-44,176,256,464,30,-37,-79,65,332,-221,149,70,-156,-54,-126,-85,-100,116,262,117,-107,-17,321,-33,-3,-66,-132,-24
102137,249,285,446,208,-41,195,277,457,44,-35,-17,75,347,-228,136,309,-166,-45,-114,-98,-235,116,274,120,-115,-59,274,0,18,-67,-135,-21
102138,222,197,470,189,-29,263,280,432,19,-20,-22,188,343,-225,113,119,-178,-75,-138,-96,-205,21,261,95,-124,-73,277,-60,0,-94,-169,-71
102139,230,102,468,201,4,250,278,375,14,-6,-74,242,301,-231,102,95,-59,-106,-153,-96,-248,11,268,60,-137,-87,229,-49,-10,-95,-174,-65
102140,164,100,458,216,-12,168,294,364,12,-33,-119,120,300,-230,75,123,52,-61,-148,-99,-231,14,258,84,-122,-91,206,-8,-1,-93,-188,-85
102141,157,160,535,258,-25,180,252,450,34,-34,-109,135,331,-214,98,36,-2,-30,-130,-96,-208,26,280,112,-111,-63,243,12,22,-94,-177,-60
102142,227,262,521,265,-36,139,257,471,42,-26,-101,189,328,-216,98,8,-35,-52,-132,-88,-212,42,301,114,-104,-46,274,48,45,-65,-166,-84
102143,276,281,476,275,-28,166,295,506,35,-23,-36,185,341,-209,137,73,-40,-55,-121,-80,-167,2,288,104,-113,-36,298,1,29,-81,-162,-85
102144,286,268,495,263,-6,237,309,385,50,-28,-32,141,344,-220,152,113,11,-29,-112,-78,-168,39,312,125,-99,-15,293,58,17,-81,-114,-26
102145,228,154,470,263,-25,254,280,421,40,-39,-12,2,338,-219,155,42,-37,-53,-127,-78,-173,55,257,95,-104,-35,273,41,5,-89,-146,-40
102146,188,147,449,263,-39,395,231,480,53,-11,83,-14,347,-209,172,-7,-111,-73,-113,-68,-125,3,200,66,-128,-21,294,-42,-37,-108,-174,-76
102147,176,186,461,263,-52,339,55,489,69,-6,134,104,325,-227,159,28,-134,-124,-119,-69,-122,69,231,94,-107,15,336,32,21,-62,-122,-26
102148,137,117,434,228,-41,41,76,452,35,3,1,144,299,-238,133,80,-136,-147,-146,-85,-218,-40,205,77,-125,-22,259,-37,-6,-95,-166,-96
102149,165,6,392,202,-31,54,9,326,24,-19,-90,155,289,-218,141,100,-131,-137,-165,-81,-201,-60,150,37,-136,-5,256,-196,-92,-153,-209,-107
102150,170,-57,435,221,-23,246,-18,407,32,-9,11,86,316,-217,148,172,-133,-146,-141,-58,-143,-70,146,43,-97,24,323,-133,-73,-115,-151,-4
102151,166,-24,403,256,-33,259,-7,474,21,-23,43,40,310,-218,148,124,-144,-140,-127,-64,-150,29,106,38,-106,18,299,-181,-95,-157,-208,-103
102152,164,4,384,210,-38,300,39,423,17,-24,-63,47,309,-201,164,71,-193,-119,-125,-60,-165,7,66,55,-98,23,290,-241,-138,-188,-194,-132
102153,142,104,277,315,-20,98,173,539,44,-17,-80,30,349,-192,145,99,-209,-94,-102,-53,-139,8,79,57,-76,34,280,-227,-122,-162,-142,-100
102154,180,212,285,262,-7,-96,222,456,34,-33,-136,69,315,-208,135,113,-194,-143,-109,-42,-127,4,111,51,-83,25,288,-214,-124,-179,-169,-61
102155,242,270,314,177,-39,17,249,446,27,-53,-197,98,293,-203,106,207,-240,-173,-126,-74,-193,-27,97,22,-119,-25,250,-209,-180,-274,-299,-149
102156,260,315,350,156,-36,163,264,517,28,-41,-178,105,314,-172,100,174,-246,-113,-97,-75,-215,-38,171,81,-78,-19,218,-107,-95,-189,-238,-160
102157,229,370,360,183,-49,164,293,470,35,-33,-170,117,319,-156,129,185,-144,-91,-75,-39,-174,-80,183,104,-57,-8,209,-107,-65,-179,-219,-204
102158,205,299,372,198,-74,242,241,356,18,-35,-150,80,298,-181,100,139,-185,-118,-123,-83,-196,-64,125,59,-92,-26,224,-174,-118,-197,-264,-183
102159,185,151,452,217,-47,270,215,427,3,-10,-39,83,294,-186,102,82,-173,-132,-100,-87,-210,-106,133,80,-94,-28,243,-126,-84,-159,-228,-174
102160,203,77,472,152,-41,101,70,525,67,4,-62,146,316,-173,114,157,-99,-148,-94,-66,-182,-27,155,73,-79,-12,252,-104,-71,-144,-188,-137
102161,190,118,306,215,-57,10,-78,434,34,-41,-85,180,296,-200,131,-6,-67,-173,-115,-77,-124,-7,139,48,-99,-18,253,-134,-105,-192,-214,-152
102162,133,176,248,339,-46,-52,-42,481,54,-47,-54,36,334,-190,154,-78,-132,-142,-105,-66,-37,3,153,72,-105,-9,308,-107,-71,-160,-205,-155
102163,102,191,344,304,-36,163,94,460,52,-16,-3,39,339,-177,129,258,-146,-112,-106,-97,-212,22,146,54,-122,-38,276,-110,-79,-129,-188,-45
102164,81,158,389,249,-18,370,112,359,45,-11,-64,73,329,-171,123,208,-117,-101,-126,-89,-273,50,179,54,-130,-37,256,-74,-57,-129,-177,-32
102165,66,179,403,116,-15,354,110,293,27,-12,-90,72,284,-186,143,97,-147,-137,-156,-87,-130,-14,152,34,-130,-37,252,-145,-107,-196,-251,-136
102166,71,206,410,89,-31,243,153,287,13,-10,-103,53,293,-191,149,73,-267,-131,-136,-94,-160,-55,120,18,-150,-45,217,-116,-107,-223,-267,-204
102167,103,144,426,122,-29,242,166,238,-24,-3,-89,25,271,-197,171,159,-181,-149,-143,-84,-154,-2,126,23,-147,-27,259,-74,-89,-167,-217,-87
102168,138,188,388,124,-35,276,206,216,0,11,-75,47,258,-177,188,128,-93,-118,-116,-66,-129,-88,170,54,-125,-22,304,-52,-58,-120,-179,-75
102169,146,198,347,121,-60,215,170,250,3,4,-170,24,280,-188,171,82,-188,-106,-114,-67,-136,-115,171,62,-107,-24,287,-86,-82,-159,-214,-155
102170,153,242,345,115,-73,250,126,308,-18,3,-61,28,258,-192,198,160,-194,-122,-118,-59,-103,-13,191,39,-97,-6,271,-117,-149,-226,-267,-232
102171,147,164,386,115,-42,277,122,281,-20,13,-27,21,242,-194,184,-50,-168,-175,-125,-43,-93,-28,154,30,-100,17,277,-83,-133,-195,-235,-177
102172,166,66,339,146,-22,270,132,328,-34,13,-58,1,236,-200,204,-33,-198,-188,-118,-32,-1,-152,54,34,-106,44,348,-87,-100,-183,-204,-136
102173,137,102,315,180,-29,244,100,374,-26,4,-91,-11,252,-218,174,73,-149,-164,-119,-46,-218,-126,80,57,-111,-17,238,-130,-77,-161,-203,-192
102174,65,126,229,119,-35,242,117,311,-25,2,-67,-116,241,-207,198,80,-219,-218,-132,-46,-158,58,13,29,-104,14,285,-258,-105,-149,-168,-65
102175,39,147,196,99,-51,141,161,297,-9,-13,-108,-161,251,-185,198,200,-228,-217,-116,-19,-80,10,19,37,-70,56,345,-239,-123,-168,-181,-90
102176,0,144,90,176,-62,133,115,340,-17,-24,-159,-92,271,-199,133,86,-199,-163,-108,-33,-167,-102,104,81,-56,46,290,-165,-89,-154,-156,-160
102177,-91,46,-87,113,-98,98,8,373,-28,-40,-186,-101,255,-172,147,47,-249,-174,-86,15,-140,-55,127,111,-6,108,385,-139,-38,-104,-90,-13
102178,-125,-27,-147,59,-89,46,-117,395,1,-27,-177,-126,301,-127,180,103,-206,-144,-46,54,-79,23,168,167,44,161,428,-37,27,-18,-23,37
102179,-106,-33,-32,77,-98,74,-86,317,3,0,-110,-165,302,-140,173,40,-233,-121,-38,34,-88,-58,166,167,32,132,389,-24,54,-26,-53,-21
102180,-79,-5,155,97,-101,131,-67,263,8,-8,-146,-24,292,-153,164,42,-170,-124,-47,33,-61,0,211,169,30,131,377,-4,68,-26,-67,-48
102181,109,103,398,168,-54,244,90,273,20,-17,-74,115,318,-167,177,97,-63,-72,-79,9,-132,91,201,152,1,103,272,-54,46,-32,-64,-65
102182,332,153,577,234,-33,288,238,317,10,-26,8,186,315,-202,187,38,-25,-40,-97,-23,-117,-1,195,116,-35,70,288,-143,0,-81,-115,-55
102183,364,256,601,203,-11,163,270,339,5,-3,49,200,319,-201,196,189,-22,-5,-90,-12,-53,44,264,159,-11,104,365,-39,36,-45,-82,26
102184,279,275,535,203,-43,-25,275,332,-4,-5,21,162,326,-192,184,187,-29,-57,-97,-3,-146,89,262,150,-27,66,325,-88,15,-92,-141,-99
102185,112,163,416,182,-76,62,143,312,2,-23,-111,132,323,-178,164,99,-11,-43,-64,18,-121,151,306,192,2,110,349,-18,51,-38,-70,-34
102186,12,64,361,184,-82,124,84,318,0,-40,-131,173,331,-153,180,168,29,-25,-38,64,-57,139,311,222,42,137,405,43,104,34,-13,21
102187,26,46,395,200,-89,126,102,358,24,-23,-102,167,346,-153,182,163,-61,-24,-28,72,-47,90,289,218,49,139,412,26,58,-2,-48,-28
102188,-28,42,362,147,-86,164,127,336,21,-19,-84,93,347,-154,178,78,-115,-8,-30,58,-111,94,299,228,45,134,371,15,64,18,-48,-50
102189,-5,85,392,143,-91,197,160,358,5,-26,-55,89,327,-156,183,103,-46,-18,-14,51,-78,119,310,212,28,149,401,73,126,55,-10,7
102190,192,210,572,214,-71,224,242,458,8,-20,-19,217,347,-172,207,204,38,21,-44,30,-55,107,349,214,8,125,413,63,85,6,-14,44
102191,177,154,547,228,-71,233,209,435,18,-18,-56,208,342,-182,183,207,104,21,-44,9,-78,153,366,233,12,120,411,127,91,35,-34,52
102192,105,48,425,194,-61,258,208,371,5,6,-11,104,326,-178,179,91,-66,-26,-41,10,-119,99,321,219,20,126,396,126,129,73,-11,63
102193,52,-17,435,170,-54,270,79,377,-2,19,33,62,331,-163,196,57,-109,-41,-36,32,-89,54,334,231,32,137,373,217,200,152,67,28
102194,-11,-43,392,145,-74,229,-9,348,-24,0,-13,6,314,-170,173,74,-44,-27,-30,35,-63,56,377,227,33,132,393,334,256,169,94,0
102195,-46,-3,231,105,-87,145,165,297,-32,-37,-223,0,291,-173,123,129,-152,-52,-58,21,-95,36,299,166,-15,104,389,138,92,32,3,-8
102196,-29,7,343,172,-66,192,43,355,-1,-34,-176,145,329,-168,135,124,2,-28,-63,1,-145,58,306,154,-30,42,329,27,-4,-72,-146,-118
102197,-22,23,308,139,-59,216,32,339,0,-30,-101,-33,299,-169,155,133,-113,-96,-84,-3,-101,77,183,122,-34,49,379,-139,-17,-71,-136,-35
102198,-38,17,305,134,-58,275,27,390,29,-17,-78,-37,345,-167,165,92,-13,-44,-59,12,-117,48,252,144,-19,51,382,-91,13,-57,-101,-61
102199,-53,-7,322,24,-59,324,13,374,23,-15,-48,-12,329,-170,157,72,-75,-75,-72,15,-123,101,267,147,-30,33,364,-48,2,-55,-128,-38
102200,-30,15,352,76,-65,194,85,387,29,-37,-77,67,341,-154,163,-50,-81,-54,-61,41,-28,56,264,148,3,85,425,-56,4,-35,-70,100
102201,-44,-26,332,77,-75,134,1,404,27,-35,-64,87,321,-157,236,-4,-21,-75,-59,64,174,44,214,128,-1,121,503,-123,-47,-88,-87,46
102202,-111,13,313,178,-76,183,-15,463,13,0,22,107,313,-147,247,107,15,-74,-63,51,51,73,290,150,-4,95,392,-39,11,-46,-67,-3
102203,-167,10,277,244,-65,213,103,450,33,0,-19,301,332,-141,160,-3,2,-72,-38,18,-228,44,341,153,-7,44,265,-15,27,-47,-105,-10
102204,-134,-49,279,221,-51,299,66,629,52,7,-74,296,369,-137,185,160,21,-57,-28,45,-194,152,368,175,19,62,351,87,90,-4,-46,51
102205,-71,46,322,174,-63,337,67,429,41,8,-46,-13,352,-132,214,163,68,-61,-38,72,-52,373,299,195,57,127,518,202,161,89,22,118
102206,-66,88,403,139,-64,11,113,309,5,12,81,-23,339,-137,210,281,53,-2,-27,53,-54,181,336,189,44,116,533,194,150,93,37,173
102207,-33,99,435,201,-62,10,6,379,19,-3,-13,209,374,-120,204,297,67,10,-13,59,2,298,353,214,48,159,563,101,94,72,45,197
102208,17,94,364,180,-56,148,94,430,29,3,-44,230,344,-117,215,289,61,20,-8,81,13,353,432,244,80,175,501,324,204,153,113,305
102209,40,106,313,116,-62,222,124,423,8,6,36,212,336,-147,184,313,37,-6,-19,39,-94,203,417,219,38,105,402,267,166,90,31,173
102210,52,104,328,162,-45,350,184,438,2,10,0,202,327,-153,155,193,30,-50,-60,1,-110,77,308,156,-6,55,396,-148,-28,-64,-75,49
102211,81,93,389,170,-45,69,211,367,6,8,-52,174,324,-171,146,190,43,-47,-67,6,-108,169,286,147,-25,52,413,-110,2,-12,-48,132
102212,150,103,484,229,-41,-200,183,422,29,-15,-35,204,351,-161,139,253,46,-5,-56,0,-132,217,289,156,-27,38,400,-130,-29,-70,-109,11
102213,96,73,393,214,-65,-40,250,422,11,-23,-64,169,351,-145,134,184,21,17,-45,9,-114,132,339,190,14,65,466,136,76,14,-25,165
102214,36,15,338,202,-86,101,124,440,-10,-10,-77,167,317,-160,125,87,49,-34,-61,-16,-149,90,337,161,-14,15,365,143,59,-23,-78,-17
102215,12,-35,334,210,-58,166,-8,471,3,1,-47,186,332,-139,172,198,40,-43,-59,19,-93,204,243,153,-24,45,394,-311,-70,-75,-87,37
102216,6,-6,288,169,-61,182,-212,424,5,-22,-73,194,338,-134,164,165,69,4,-20,34,-84,116,334,184,34,96,448,-137,40,1,-23,168
102217,6,41,356,143,-56,245,-92,337,4,-31,-35,170,346,-121,152,102,93,0,-14,39,-100,33,360,198,45,97,370,65,106,43,-35,1
102218,11,85,453,171,-48,240,36,344,16,9,-35,147,339,-113,158,95,101,-36,-24,40,-144,168,305,205,53,84,310,-8,97,44,-45,-78
102219,19,55,422,126,-78,146,-2,341,-16,-5,-124,71,320,-126,166,106,-5,-46,-32,42,-113,199,280,212,85,116,353,-35,107,84,29,15
102220,44,11,422,139,-79,176,63,407,4,0,-167,131,349,-135,180,35,-26,0,-36,57,-96,150,253,203,73,119,375,-51,80,62,3,-18
102221,60,33,384,116,-58,191,84,426,20,14,-90,225,358,-140,197,159,9,2,-28,68,-62,191,263,220,98,143,439,-59,69,54,1,86
102222,42,78,447,107,-37,307,107,408,29,12,-96,194,337,-144,159,61,55,-19,-24,49,-135,83,291,215,112,98,321,61,65,11,-86,-141
102223,25,71,402,44,-57,232,86,371,12,2,-67,127,344,-149,175,171,-28,-14,-13,58,-95,87,271,227,110,128,409,55,142,100,-12,-90
102224,40,38,340,139,-70,159,125,412,30,-10,-2,124,372,-134,164,178,-33,26,15,65,-89,123,272,250,146,157,415,98,178,134,19,-34
102225,-42,15,283,182,-73,134,254,525,44,-38,-198,107,389,-131,138,75,57,-4,23,77,-118,142,324,265,172,181,358,132,205,159,55,10
102226,-49,42,328,100,-63,205,29,563,49,-30,-152,183,367,-141,155,127,31,-28,22,72,-111,134,301,244,143,175,381,19,175,137,70,27
102227,23,176,368,181,-46,184,73,506,43,12,-95,254,358,-121,193,166,87,-22,53,112,-60,165,343,287,191,222,429,122,222,182,122,107
102228,19,215,410,199,-47,129,142,432,21,3,-84,269,354,-128,191,70,87,-52,33,111,-11,181,401,284,205,252,439,133,205,207,124,117
102229,43,221,437,235,-79,128,193,400,7,7,-61,231,346,-100,219,90,33,-3,47,140,83,144,471,332,234,273,492,243,268,245,162,165
102230,102,277,446,201,-86,140,229,391,0,2,-80,265,356,-116,180,89,102,8,41,95,-123,131,425,328,200,198,383,299,271,232,138,79
102231,101,253,425,196,-56,204,166,499,38,21,-36,356,375,-109,206,131,164,20,53,109,-104,118,409,341,219,224,413,386,365,339,221,151
102232,129,218,449,201,-70,241,147,581,39,38,-32,225,391,-112,209,115,74,44,61,141,-50,31,429,350,201,252,424,297,339,327,240,136
102233,154,210,482,231,-76,191,101,467,11,9,2,61,374,-122,175,169,-118,3,32,86,-98,110,253,243,143,182,351,-249,43,79,75,4
102234,94,142,484,201,-75,198,88,343,-5,4,67,132,346,-134,174,167,-36,-6,6,79,-97,226,271,232,148,168,356,-144,70,57,28,-12
102235,53,45,468,116,-64,270,65,356,-5,35,-81,152,363,-117,208,136,87,-24,32,90,-21,153,305,253,154,212,420,-44,178,191,161,135
102236,50,5,405,74,-63,218,93,288,2,21,-119,147,345,-108,196,119,-83,-34,24,118,69,191,273,238,158,238,473,-17,149,153,136,119
102237,56,33,321,144,-100,100,112,238,0,-15,-220,139,335,-121,144,-12,-182,-42,-13,88,70,193,236,217,127,212,473,-83,107,94,62,27
102238,63,80,321,176,-85,146,127,249,-4,-8,-147,164,321,-120,124,328,-106,-49,-20,47,-196,137,260,202,114,146,347,-77,88,83,20,-54
102239,28,64,386,177,-86,108,121,286,6,-22,-133,131,316,-126,112,197,-98,-59,-23,46,-219,154,283,214,128,161,358,0,106,129,81,-6
102240,-5,97,429,172,-106,97,81,331,19,-4,-85,82,326,-102,161,142,-73,-51,17,83,-32,145,265,226,151,244,494,76,172,200,176,148
102241,35,104,448,227,-74,0,25,432,41,-5,84,57,362,-108,200,153,-69,-33,22,103,-28,75,289,237,174,282,486,76,185,219,183,169
102242,30,2,399,221,-58,-102,-90,302,35,16,118,114,371,-113,223,157,1,7,7,107,-43,7,314,259,166,241,419,73,192,178,119,-76
102243,28,-131,368,206,-85,40,-102,400,25,23,27,93,367,-102,239,266,-33,-10,2,116,45,172,316,236,163,278,528,76,190,186,189,53
102244,42,-175,362,242,-62,189,-71,569,36,17,-31,106,388,-131,204,109,1,-17,10,92,-14,180,340,243,147,258,514,183,238,217,208,143
102245,-16,-61,246,282,-63,277,39,484,64,17,-73,192,400,-129,214,181,152,-24,19,101,-14,119,373,285,167,266,507,325,326,318,253,149
102246,29,92,310,206,-67,307,78,424,62,-2,-149,65,368,-126,203,184,94,-47,34,98,16,205,418,297,165,279,522,324,300,273,221,132
102247,34,127,378,71,-88,324,78,456,53,3,-135,35,388,-119,229,194,66,22,40,98,19,243,422,312,161,288,581,200,270,263,229,253
102248,9,126,346,31,-91,294,154,425,69,14,29,174,409,-124,258,122,66,35,39,100,6,108,321,302,148,265,588,9,242,272,269,333
102249,34,108,423,61,-93,249,124,386,69,1,0,143,409,-114,244,161,-19,34,28,101,37,89,271,291,153,283,616,48,250,273,265,333
102250,44,100,409,222,-90,182,65,433,51,0,-64,124,426,-115,224,152,6,39,38,101,8,174,290,294,142,245,502,69,226,229,178,93
102251,25,62,328,261,-97,142,24,470,45,15,-28,139,394,-99,226,125,-8,32,34,106,7,329,302,293,133,230,503,131,280,258,192,156
102252,5,27,268,244,-91,29,26,573,54,14,-80,267,401,-92,225,0,33,37,36,90,-28,167,301,279,121,215,520,79,215,196,155,118
102253,-46,88,301,232,-95,100,84,665,61,0,-153,334,431,-114,194,39,48,-7,27,62,-26,136,255,244,91,193,486,-93,94,89,71,26
102254,-84,104,260,214,-108,122,118,639,69,1,-141,277,428,-129,206,108,39,-8,22,66,-7,200,232,218,78,169,476,-207,31,55,50,94
102255,-36,103,269,233,-94,116,120,574,78,-23,-78,54,406,-140,170,135,-77,-75,-25,11,-81,114,165,145,42,114,444,-184,-5,32,6,35
102256,21,32,414,210,-91,143,76,553,63,-11,-94,121,382,-149,162,67,-47,-53,-36,1,-115,118,214,155,12,97,322,-66,44,42,-12,0
102257,75,6,473,205,-83,168,93,531,46,7,-89,201,380,-123,174,2,-99,-12,-13,31,-111,156,275,191,21,120,351,-40,81,55,-8,5
102258,80,40,333,197,-50,188,123,350,28,9,-63,144,354,-128,211,98,-126,-9,-15,35,-86,113,276,177,45,124,397,-58,71,47,-4,60
102259,102,41,482,198,-50,204,87,309,33,11,39,134,334,-147,204,169,-86,-44,-40,15,-99,141,130,145,20,98,362,-86,21,7,-25,41
102260,121,39,519,176,-70,301,-11,298,8,15,100,105,331,-156,192,96,-38,-63,-32,16,-78,75,203,166,13,89,385,20,63,37,-11,13
102261,98,92,457,166,-89,327,-7,271,27,19,-36,150,349,-145,228,-31,70,-24,-19,47,13,-59,306,193,48,124,411,81,101,45,-1,-53
102262,72,199,463,191,-101,197,167,282,33,-4,-230,152,352,-145,184,307,-6,-9,-24,40,-127,31,274,182,78,108,358,32,61,28,-15,7
102263,90,223,442,206,-60,146,40,320,38,9,-69,181,358,-125,198,313,-37,-11,-9,43,-201,146,282,202,73,109,319,26,64,36,-24,39
102264,66,64,375,210,-75,99,0,403,44,14,-15,181,369,-117,205,146,-18,-16,-16,47,-81,141,284,198,54,109,333,55,86,40,-39,-73
102265,26,-43,402,202,-68,127,-13,459,48,18,-3,184,342,-138,187,183,-105,-59,-54,21,-147,50,213,134,13,41,251,-24,5,-49,-120,-42
102266,-33,-51,313,117,-63,227,-106,455,32,15,-17,157,311,-163,180,134,-96,-116,-98,-23,-188,-126,119,57,-21,20,178,-153,-91,-128,-156,-82
