,Fp1,Fp2,F7,F3,Fz,F4,F8,FC5,FC1,FC2,FC6,T7,C3,Cz,C4,T8,TP9,CP5,CP1,CP2,CP6,TP10,P7,P3,Pz,P4,P8,PO9,O1,Oz,O2,PO10
146855,114,344,50,-30,-18,415,537,401,143,-159,126,177,255,-231,-28,166,116,-196,-105,329,-149,462,397,-52,-37,-94,-50,-94,97,-136,-196,141
146856,234,505,78,-21,23,443,619,440,161,-126,158,179,277,-203,-5,272,136,-171,-63,393,-78,500,443,-10,-7,-44,6,-126,145,-67,-117,251
146857,297,533,66,-19,23,367,660,461,190,-108,181,190,308,-188,21,303,138,-134,-22,391,-38,517,499,50,28,-19,61,-25,219,-27,-108,235
146858,260,468,4,-60,17,426,628,434,173,-103,235,188,297,-198,41,340,119,-111,-34,399,-52,489,533,40,6,-53,26,-19,195,-127,-214,20
146859,244,459,-47,-64,4,439,585,382,164,-121,238,238,288,-192,39,380,129,-87,-28,409,-61,490,617,87,9,-67,21,-46,196,-165,-239,-13
146860,208,471,-7,-66,-5,478,565,382,175,-117,251,258,285,-180,71,371,129,-61,-6,421,-30,503,635,148,40,-11,48,-105,249,-79,-146,241
146861,213,437,8,-40,-1,523,584,427,188,-85,288,289,294,-160,100,375,179,-48,30,464,1,519,672,160,89,29,57,-39,341,33,-58,430
146862,234,450,-29,-50,-13,502,574,424,172,-105,290,296,267,-191,96,370,186,-72,-4,452,0,534,641,130,80,29,38,60,314,58,-61,435
146863,235,478,18,11,20,512,671,470,174,-79,298,352,293,-177,130,419,205,-46,10,489,7,561,575,118,94,28,-4,114,295,0,-144,71
146864,229,470,42,40,21,501,685,516,170,-79,299,291,313,-169,131,414,237,-27,51,514,8,572,574,162,118,8,-39,69,304,-53,-197,-92
146865,240,499,101,18,3,444,713,512,153,-101,268,111,269,-179,127,350,267,-79,36,513,29,579,617,146,125,13,-60,102,318,-43,-184,40
146866,278,562,221,14,18,369,739,406,174,-94,227,1,242,-186,117,252,271,-84,43,520,35,645,630,172,147,57,-20,189,400,40,-110,134
146867,257,550,165,47,28,455,749,449,213,-87,253,465,314,-170,127,219,295,6,85,522,6,645,652,200,167,53,-3,194,421,69,-100,155
146868,276,499,125,53,30,492,774,422,213,-56,251,344,289,-157,144,237,302,-28,72,538,48,591,643,201,186,93,7,189,438,113,-39,221
146869,256,511,79,38,31,464,708,353,178,-71,291,233,258,-163,154,187,287,-50,42,527,103,568,645,210,196,135,44,158,439,181,81,301
146870,244,521,83,-20,36,449,646,360,190,-58,273,270,242,-156,163,260,316,-39,38,514,144,554,673,207,199,166,81,152,420,161,100,400
146871,217,507,109,-33,47,535,659,363,188,-41,247,337,238,-168,171,338,343,-43,45,508,125,556,665,209,182,148,74,236,439,85,-7,276
146872,238,514,110,-20,34,513,673,363,166,-83,215,366,216,-187,121,309,355,-71,7,521,60,531,645,190,150,121,29,295,450,62,-60,114
146873,268,534,89,-57,23,534,683,369,163,-93,207,297,213,-179,111,301,307,-35,32,528,77,520,705,233,185,170,75,89,473,151,77,289
146874,288,489,88,-69,24,522,662,359,158,-89,209,206,203,-182,107,349,243,-56,23,488,36,563,636,200,184,138,33,67,369,42,-53,251
146875,168,422,52,-107,-1,509,642,333,153,-102,216,169,183,-202,113,274,254,-92,1,497,23,600,566,136,163,118,42,208,395,89,23,377
146876,130,443,67,-80,6,504,645,389,150,-90,235,233,212,-189,119,297,211,-82,8,523,11,544,629,150,155,122,18,96,382,78,4,303
146877,182,459,95,-66,35,475,634,407,182,-73,240,259,206,-161,125,269,192,-78,5,471,6,491,636,143,142,82,-41,7,313,-23,-120,141
146878,86,461,69,-84,6,468,618,372,149,-96,218,239,190,-187,99,267,216,-102,23,419,-49,470,595,124,116,66,-78,5,314,-25,-119,102
146879,50,456,14,-98,-2,436,626,384,148,-82,245,243,214,-173,117,374,179,-98,23,431,-15,416,581,136,110,94,-55,28,326,18,-70,72
146880,131,447,-5,-77,0,396,619,425,166,-69,233,293,288,-177,117,390,224,1,50,434,-31,401,801,192,130,82,-51,-57,334,10,-75,84
146881,186,395,-20,-113,10,491,618,429,195,-57,233,318,295,-173,114,362,210,4,43,415,-41,398,723,168,124,61,-29,-14,311,18,-30,227
146882,263,392,14,-101,-10,499,603,412,174,-92,221,239,285,-183,106,272,172,-37,18,392,-48,327,513,131,93,62,-43,49,277,21,1,308
146883,330,372,70,-70,-20,516,539,383,175,-67,217,179,293,-177,113,143,174,-30,28,423,-45,356,488,156,113,79,-38,61,296,20,-9,259
146884,294,373,97,-18,-32,524,547,469,158,-87,189,227,323,-170,87,113,177,33,37,407,-84,354,663,167,99,33,-122,42,298,-20,-103,-26
146885,258,419,123,1,-25,528,548,483,144,-119,179,317,336,-193,74,179,186,16,44,425,-120,313,671,155,85,5,-140,-66,239,-48,-132,21
146886,256,441,98,-34,-14,528,541,446,146,-91,194,255,302,-213,82,155,124,-73,19,413,-100,320,447,127,83,18,-134,-74,216,-47,-102,24
146887,294,453,145,-12,3,500,594,485,200,-77,196,242,334,-194,110,146,147,-71,39,419,-83,339,445,142,111,46,-117,-25,251,1,-70,25
146888,356,471,216,-49,6,475,619,531,192,-71,209,302,363,-176,102,219,148,-5,48,408,-93,331,552,148,111,48,-149,-45,206,-21,-117,-40
146889,378,389,200,-8,7,514,608,518,184,-66,255,398,368,-156,121,251,4,21,79,424,-19,340,553,155,129,71,-96,-29,242,-4,-73,87
146890,349,321,127,80,2,515,569,499,209,-60,253,402,384,-149,170,321,99,14,91,482,0,400,544,162,137,91,-38,10,259,42,-22,190
146891,315,446,140,44,0,378,517,522,190,-86,192,284,340,-161,154,275,223,-68,43,495,-28,494,553,127,133,87,1,-34,260,72,11,284
146892,223,446,99,-17,0,402,497,525,151,-86,95,256,303,-184,117,208,198,-149,23,442,-36,459,515,87,112,95,1,19,254,46,-15,253
146893,155,444,25,-4,10,458,564,550,176,-74,150,231,335,-185,111,230,157,-96,17,448,-67,341,576,79,93,49,-77,-35,189,-68,-125,-73
146894,186,410,19,0,11,473,569,471,193,-64,243,216,332,-165,140,277,162,-65,33,454,-21,394,619,126,139,93,4,-55,223,-22,-55,42
146895,219,386,7,-30,3,444,496,409,166,-61,224,239,324,-169,157,332,140,-110,32,452,24,445,491,104,153,121,91,171,339,107,24,251
146896,254,484,70,-66,-13,496,524,402,163,-77,271,103,313,-172,170,368,200,-173,28,479,30,483,467,94,138,117,102,259,374,125,49,267
146897,274,551,121,-6,-3,576,627,458,192,-52,309,-78,326,-158,211,330,177,-175,49,518,34,500,468,96,152,107,87,78,304,68,18,242
146898,240,541,90,-17,4,541,676,539,221,-42,268,376,379,-162,182,297,184,-44,64,515,46,518,535,121,152,99,86,-94,238,11,-54,189
146899,254,500,111,-53,20,546,739,491,185,-60,252,335,370,-178,164,66,286,-34,63,526,22,558,644,159,166,109,105,164,413,153,67,319
146900,295,515,125,-5,22,592,773,512,193,-60,304,388,397,-165,180,100,327,-27,84,526,27,523,667,191,175,104,108,271,510,216,134,384
146901,235,544,47,2,14,546,716,561,200,-79,312,316,372,-173,176,178,268,-65,36,487,59,508,544,102,136,90,172,113,322,72,23,252
146902,67,585,57,14,2,500,653,537,184,-92,275,286,351,-195,167,275,222,-90,7,451,56,562,491,61,79,70,206,-225,204,-60,-105,25
146903,-40,544,128,66,23,583,617,521,193,-89,276,319,363,-193,144,374,266,-7,25,448,25,596,637,117,124,69,114,-154,246,-39,-120,157
146904,72,536,211,104,28,522,654,558,211,-99,269,357,412,-161,162,383,334,84,63,499,38,637,811,193,190,113,121,-21,387,131,61,687
146905,194,530,210,73,18,512,651,535,205,-107,224,346,433,-159,181,359,336,98,100,545,98,587,834,233,217,138,184,37,465,216,182,903
146906,344,496,229,126,25,520,701,553,199,-88,253,350,431,-159,174,338,357,28,71,542,120,631,703,192,217,129,153,300,475,223,145,828
146907,471,522,273,133,30,558,714,567,197,-102,250,404,416,-147,140,297,371,45,88,532,-29,720,687,204,201,78,42,349,483,151,20,454
146908,483,564,319,120,15,569,726,550,193,-103,202,413,402,-167,115,317,360,13,85,466,-78,696,682,176,166,28,-42,158,363,12,-144,50
146909,494,592,299,69,29,530,705,502,208,-95,229,370,382,-182,115,443,348,-31,64,465,-33,620,605,145,128,5,-36,37,265,-75,-255,-148
146910,493,584,258,31,24,412,695,486,209,-87,246,338,395,-178,122,504,320,-12,84,511,-8,608,613,168,171,47,22,75,337,-7,-126,65
146911,449,540,226,-15,2,425,642,495,193,-102,243,342,390,-175,121,502,318,22,105,506,-1,593,742,221,213,67,36,87,424,96,8,221
146912,400,490,217,-29,10,516,648,527,198,-83,253,358,383,-148,118,444,352,46,123,521,4,589,772,253,215,93,27,140,477,146,54,301
146913,378,432,173,-23,12,495,673,525,202,-81,241,392,377,-131,131,342,376,52,131,494,-8,591,728,241,218,74,21,258,424,69,-77,195
146914,411,574,145,-61,6,492,680,512,176,-96,251,384,351,-156,112,317,385,10,122,490,-57,581,692,210,193,41,-12,242,370,7,-174,149
146915,438,610,168,-35,-4,481,704,511,175,-102,265,411,368,-165,91,302,359,39,119,506,-52,541,793,233,203,57,-11,119,389,35,-100,217
146916,446,629,164,-51,13,438,713,490,183,-105,250,477,377,-159,108,301,372,113,154,513,-33,536,959,275,236,112,31,80,421,69,-24,243
146917,466,677,163,-142,59,405,700,466,195,-83,275,439,386,-129,148,379,348,104,158,550,34,538,830,289,269,192,107,238,454,164,97,223
146918,435,527,135,-96,10,483,626,457,165,-93,233,285,339,-150,105,370,216,-8,99,527,-38,453,595,202,218,103,-38,286,414,131,-2,165
146919,403,427,151,-12,12,521,633,460,176,-93,225,291,342,-161,83,303,201,-11,89,472,-108,406,671,196,192,25,-175,294,419,98,-120,42
146920,368,526,138,18,42,539,662,472,174,-93,219,262,373,-145,87,273,286,26,108,474,-115,417,713,233,202,30,-178,197,353,14,-149,-6
146921,318,603,77,-6,30,542,601,457,192,-96,195,166,358,-146,94,213,313,-17,87,527,-71,383,632,221,235,92,-86,334,468,165,46,319
146922,248,571,83,-11,12,494,467,491,208,-129,143,177,379,-169,66,110,290,-16,82,532,-84,399,662,247,221,105,-62,389,521,231,135,438
146923,216,541,160,2,24,457,404,513,207,-144,91,271,374,-183,22,57,279,-17,79,456,-132,346,704,185,160,45,-113,320,335,46,-34,292
146924,238,489,181,35,46,469,446,493,208,-148,80,235,355,-172,14,56,239,-77,46,421,-156,322,576,132,127,-6,-199,50,209,-80,-191,-28
146925,313,471,170,18,16,441,519,456,197,-132,106,164,341,-177,7,-28,205,-68,35,399,-162,317,505,126,117,-26,-246,-162,177,-118,-269,-236
146926,348,510,172,-32,-4,464,539,408,178,-115,119,-40,341,-181,13,-31,172,-53,59,413,-144,355,541,169,136,6,-171,-151,242,-32,-167,-81
146927,316,564,179,-33,6,457,552,388,189,-94,164,78,344,-173,44,215,223,-75,61,402,-107,359,542,177,157,45,-102,52,327,49,-78,12
146928,306,532,163,-1,9,430,576,469,207,-115,81,518,394,-160,34,295,258,-30,83,423,-130,387,556,196,188,50,-90,217,367,105,-37,66
146929,312,514,166,-35,11,415,610,450,215,-147,86,277,378,-169,38,320,253,-3,106,431,-102,414,582,215,203,73,-28,166,370,128,16,222
146930,245,487,165,5,13,414,559,459,215,-145,111,299,408,-181,59,284,218,23,95,403,-62,434,638,205,180,71,-27,31,317,74,2,283
146931,267,481,153,27,14,432,544,463,198,-138,117,401,421,-171,61,199,262,62,93,412,-56,501,754,221,201,111,7,11,323,108,75,418
146932,230,472,106,18,-10,438,485,469,203,-163,89,321,389,-175,7,15,220,28,82,355,-169,521,583,189,179,58,-79,-25,312,70,9,197
146933,243,439,70,-14,-14,455,507,501,210,-128,94,237,409,-169,29,-53,209,19,107,361,-166,515,491,185,197,46,-115,94,358,66,-49,-48
146934,227,436,16,-6,-7,338,512,494,194,-124,181,240,421,-155,86,66,159,8,114,437,-98,443,457,194,203,101,-12,-74,321,88,21,145
146935,212,399,-3,-78,-28,364,459,412,188,-128,166,272,368,-154,99,235,126,-35,108,456,-54,398,476,190,181,91,11,-170,252,-1,-46,144
146936,202,361,39,-26,-16,431,436,405,213,-112,162,286,399,-122,125,286,118,-27,99,469,-23,373,511,184,214,108,28,-131,257,-17,-59,62
146937,212,348,64,20,-13,380,436,427,205,-125,164,318,419,-119,138,253,148,9,92,537,-17,362,607,203,210,130,7,-101,266,9,-56,108
146938,191,358,-14,-6,-50,339,422,425,191,-132,149,280,381,-133,151,177,77,-8,85,523,6,346,643,193,184,119,7,-107,260,-9,-51,119
146939,256,358,-39,-40,-49,360,417,430,209,-120,139,269,405,-120,130,112,87,5,85,501,-30,426,623,180,196,127,16,-61,287,13,-68,110
146940,233,356,-31,-69,-28,371,456,407,207,-112,124,229,374,-126,122,96,66,-37,66,473,-33,420,486,153,183,108,4,-149,240,-26,-78,95
146941,166,355,-51,-54,-50,370,491,376,178,-109,131,96,334,-136,148,193,27,-110,26,478,25,374,343,112,161,120,17,-223,204,-51,-68,122
146942,161,380,-4,-63,-48,300,474,336,185,-129,112,90,339,-159,146,247,38,-107,36,486,19,361,358,118,171,134,17,-118,224,-29,-63,131
146943,243,341,57,-132,-21,365,473,342,181,-119,114,155,350,-132,163,300,52,-36,48,468,11,381,441,154,181,133,23,-173,260,-16,-62,161
146944,259,323,19,-99,-16,401,429,355,197,-107,77,142,364,-138,157,313,67,7,58,475,3,382,475,183,177,162,10,-192,289,3,-63,193
146945,143,309,-53,-75,-37,395,402,350,180,-126,66,63,339,-161,126,218,54,-108,20,427,-33,350,408,108,148,117,-12,-35,239,-28,-54,168
146946,52,184,-164,-58,-34,414,409,389,171,-129,69,151,329,-160,114,104,32,-82,8,451,-59,307,450,117,142,93,-42,-106,223,-61,-80,91
146947,104,215,-199,-39,-22,401,358,392,192,-126,61,203,335,-165,120,94,52,-55,16,486,-64,307,495,133,149,112,-42,-162,252,-57,-86,82
146948,127,346,-124,-71,-9,349,325,356,195,-124,47,166,334,-165,98,68,60,-83,15,483,-68,354,515,126,151,124,-51,-220,247,-30,-44,167
146949,181,426,-81,-114,-34,308,310,339,193,-130,13,170,327,-153,78,122,46,-90,16,473,-56,353,531,112,149,130,-15,-64,247,42,16,239
146950,229,365,-53,-47,-48,383,276,345,202,-123,35,167,342,-143,76,229,53,-104,15,492,-57,362,475,94,136,117,-33,-67,236,-11,-48,188
146951,202,362,-31,-116,-53,352,280,350,198,-141,45,150,346,-145,54,124,45,-86,28,482,-101,295,587,107,117,75,-76,-184,160,-141,-153,107
146952,150,345,-8,-191,-60,340,294,300,149,-166,12,65,325,-159,29,18,21,-67,5,452,-108,238,638,112,108,57,-99,-211,127,-174,-204,-14
146953,92,308,32,-94,-52,316,292,372,182,-175,-36,123,357,-130,22,-25,-121,14,23,415,-103,270,723,153,143,68,-71,-365,152,-151,-158,-104
146954,107,298,-7,-54,-70,294,252,394,209,-179,-53,195,368,-123,4,-72,-78,22,18,386,-133,286,658,174,155,104,-58,-211,214,-85,-93,79
146955,103,292,-48,-72,-83,319,270,412,202,-156,-31,-16,296,-142,9,-58,58,-105,22,394,-143,279,596,124,145,75,-65,-137,237,-53,-75,303
146956,65,312,-116,-73,-83,328,321,433,187,-132,-14,168,294,-132,36,-109,137,-79,19,383,-98,252,640,79,144,69,-59,-34,219,-40,-77,267
146957,93,317,-82,-49,-48,358,360,438,205,-107,24,244,318,-112,37,-109,103,-40,31,408,-89,235,513,98,158,69,-135,-27,207,-92,-160,124
146958,159,355,-82,-49,-40,414,378,348,194,-92,67,46,327,-105,59,-53,115,-54,62,449,-96,320,435,139,188,86,-88,-80,265,-41,-94,109
146959,158,360,-61,-81,-37,447,388,325,170,-113,38,178,308,-99,68,-30,151,-40,61,434,-82,365,453,154,196,118,3,34,290,29,0,230
146960,90,297,-96,-66,-32,463,408,343,191,-115,33,195,296,-96,67,47,90,-66,54,429,-60,342,486,141,194,122,45,20,268,29,24,452
146961,74,336,-173,-85,-42,388,405,305,176,-105,83,132,293,-127,72,103,84,-118,42,420,-58,286,493,114,189,97,9,20,271,-23,-36,364
146962,115,372,-153,-95,-45,382,371,298,154,-142,81,123,258,-155,50,164,104,-142,0,360,-155,252,454,74,130,27,-145,59,226,-81,-227,-51
146963,148,362,-31,-52,-3,314,331,387,165,-123,81,98,267,-138,69,92,88,-143,-6,360,-159,262,393,58,118,-11,-211,-59,176,-127,-259,-303
146964,61,290,15,-65,-11,284,290,380,151,-124,23,84,265,-146,47,-31,123,-108,7,383,-157,291,423,85,140,26,-153,26,245,-73,-175,-85
146965,97,298,8,-92,-32,338,327,340,147,-137,36,76,255,-139,53,-47,73,-126,7,392,-116,287,444,81,150,60,-135,-7,217,-51,-155,-23
146966,174,352,47,-76,-18,369,379,347,173,-107,60,103,262,-117,75,47,58,-100,22,433,-134,319,544,124,161,51,-162,-245,193,-89,-180,-40
146967,254,363,71,-28,-15,322,369,333,186,-96,52,164,280,-113,79,113,75,-73,47,467,-135,316,521,133,166,48,-136,-115,202,-112,-191,-46
146968,273,290,56,-34,-38,389,347,343,171,-120,87,130,263,-122,81,235,25,-113,45,466,-88,281,419,109,172,69,-56,-15,212,-78,-147,-56
146969,243,281,78,-61,-31,392,353,353,148,-114,82,73,251,-131,94,226,43,-167,35,465,-79,249,397,104,168,115,-11,-85,223,-28,-56,-43
146970,245,228,94,-66,-23,395,356,340,165,-91,93,146,241,-135,113,261,73,-172,38,453,-15,290,433,100,177,153,23,-79,245,27,33,-31
146971,300,177,102,-51,-28,395,387,341,170,-115,97,152,265,-144,97,121,81,-154,20,412,-94,324,452,113,178,90,-102,-41,232,-5,-48,148
146972,355,283,59,-66,-44,377,422,350,139,-115,84,153,251,-137,64,39,102,-138,12,356,-160,277,451,110,138,6,-235,3,200,-118,-247,11
146973,363,399,43,-147,-31,396,389,332,134,-97,65,166,243,-142,94,98,71,-127,-5,368,-120,279,465,111,149,46,-179,-12,222,-74,-171,19
146974,308,396,49,-88,-20,397,356,360,158,-97,66,182,258,-158,102,92,59,-125,8,342,-114,267,440,104,140,76,-132,-61,235,6,-59,124
146975,300,403,16,-76,-20,412,322,351,146,-114,60,151,238,-173,74,89,76,-112,12,341,-150,265,447,109,127,45,-156,-11,245,-3,-86,117
146976,272,385,9,-63,-18,463,304,348,139,-81,78,91,274,-161,60,60,82,-87,-3,357,-177,322,476,109,130,30,-167,14,276,-2,-85,102
146977,228,399,27,-51,-20,475,327,371,154,-75,103,79,318,-144,61,105,58,-37,46,340,-124,323,516,158,166,61,-115,65,345,72,-40,161
146978,198,476,43,-69,-31,394,328,404,151,-84,85,168,324,-157,72,114,81,-9,33,315,-112,283,582,171,170,74,-115,5,308,6,-94,67
146979,227,444,36,-21,-2,514,397,471,174,-60,112,352,360,-138,92,38,85,47,43,358,-96,238,802,192,155,50,-137,-120,265,-70,-150,5
146980,253,439,-14,-50,21,513,519,423,188,-47,161,293,335,-120,111,-158,28,55,59,387,-79,252,770,185,156,61,-112,-291,188,-132,-165,26
146981,163,379,-62,-73,-16,404,486,376,169,-70,125,155,290,-158,98,-81,-42,-117,16,349,-85,250,377,70,113,49,-136,-230,129,-151,-193,6
146982,100,299,-111,-76,-8,403,399,359,165,-90,29,88,277,-173,74,30,-77,-153,-1,345,-125,235,342,71,110,36,-152,-226,142,-165,-227,-1
146983,91,282,-66,-48,-1,356,360,440,196,-103,-7,134,329,-152,53,50,-192,-50,46,365,-153,236,445,111,134,14,-163,-278,171,-149,-243,-87
146984,51,211,-31,-1,-10,341,322,442,215,-115,12,-149,302,-164,37,8,-227,-131,41,340,-198,224,315,29,112,2,-242,-139,130,-187,-278,-150
146985,66,214,-114,10,-7,328,284,453,213,-96,-15,6,326,-163,32,-18,-79,-154,42,309,-203,169,302,35,95,0,-257,-161,102,-205,-287,-151
146986,70,278,-186,-60,-26,350,280,396,200,-90,-32,198,323,-134,49,25,-50,-110,74,373,-167,149,328,85,146,29,-195,-250,169,-132,-197,-62
146987,90,293,-135,-38,-46,381,249,337,207,-102,-39,-26,274,-131,68,78,-88,-198,41,426,-141,157,211,5,132,45,-138,-86,141,-107,-157,24
146988,12,195,-178,-37,-48,365,273,314,182,-156,-43,10,274,-150,62,9,-125,-181,25,447,-159,159,226,1,124,21,-126,-213,79,-128,-126,39
146989,0,148,-193,-21,-27,360,291,312,209,-133,-8,62,324,-126,54,-22,-129,-91,60,423,-130,183,400,59,144,19,-125,-400,84,-147,-118,23
146990,54,91,-153,-20,-24,395,273,295,204,-103,-15,-34,285,-113,24,-54,-98,-146,50,379,-156,188,308,45,117,16,-158,-213,112,-163,-219,-43
146991,94,161,-112,-48,-35,331,311,262,169,-133,-71,-29,248,-138,5,-81,-131,-222,28,357,-188,187,229,8,94,4,-192,-108,111,-184,-243,-99
146992,142,246,-114,-94,-53,293,279,191,146,-134,-66,48,252,-154,-9,-217,-130,-252,11,368,-182,183,251,20,104,5,-206,-216,86,-170,-215,-82
146993,135,284,-98,-80,-58,288,244,221,142,-122,-59,81,242,-145,12,-176,-59,-230,29,370,-138,290,339,40,125,43,-129,-213,143,-99,-140,29
146994,124,264,-99,-93,-49,299,248,238,145,-134,-33,53,264,-145,40,5,-44,-163,55,415,-101,366,411,71,153,95,-29,-158,184,-54,-80,-7
146995,201,269,-60,-134,-27,367,285,253,128,-121,28,61,258,-127,67,71,-72,-166,42,465,-72,357,361,88,203,132,34,-155,207,-34,-32,39
146996,224,282,-64,-180,-49,383,338,235,101,-125,62,143,262,-134,63,164,-24,-171,28,448,-55,263,330,95,196,116,-12,-82,260,10,-26,210
146997,196,274,-72,-143,-37,384,347,269,127,-114,56,104,253,-141,75,269,-72,-221,12,419,-48,256,331,70,162,107,32,-120,255,30,8,299
146998,185,144,-60,-144,-51,359,350,316,144,-118,22,69,259,-162,76,196,-96,-198,8,463,-44,315,398,82,180,161,95,-179,247,77,131,538
146999,161,150,-85,-137,-34,345,345,305,127,-111,9,93,264,-151,85,178,-55,-160,38,479,-13,382,416,93,192,198,159,-189,266,119,213,806
147000,191,317,-71,-88,-18,373,387,298,147,-109,11,90,254,-154,67,140,-66,-179,36,400,-60,332,379,88,164,154,82,-157,220,15,45,540
147001,161,337,-69,-89,-20,361,399,326,140,-136,10,34,251,-172,28,1,-67,-157,0,360,-95,263,376,59,132,68,-44,-93,209,-85,-186,-148
147002,105,313,-96,-47,-40,349,309,399,144,-150,-11,53,290,-169,7,-145,-5,-120,-1,358,-132,335,487,93,142,58,-39,-40,269,-9,-159,-331
147003,61,332,-122,6,-41,333,267,412,160,-129,-14,135,310,-160,10,-97,-19,-159,13,355,-95,353,419,84,141,74,0,-151,223,-16,-97,-42
