,Fp1,Fp2,F7,F3,Fz,F4,F8,FC5,FC1,FC2,FC6,T7,C3,Cz,C4,T8,TP9,CP5,CP1,CP2,CP6,TP10,P7,P3,Pz,P4,P8,PO9,O1,Oz,O2,PO10
61905,170,101,305,-64,-125,347,-351,398,-138,-200,-477,-250,-51,-335,-68,-349,-143,-203,-159,-80,-519,-296,-254,-231,-218,-47,-240,-773,-345,-445,-415,-806
61906,234,5,287,-47,-121,349,-393,259,-140,-194,-438,-211,-68,-331,-64,-347,-105,-158,-160,-63,-503,-296,-172,-207,-193,-18,-235,-706,-278,-373,-351,-790
61907,192,-40,188,-32,-129,283,-372,287,-120,-211,-483,-147,-35,-330,-87,-343,-219,-61,-148,-66,-480,-271,-56,-146,-178,-5,-251,-671,-234,-304,-278,-693
61908,184,23,276,-32,-158,264,-318,272,-132,-214,-460,-211,-27,-327,-88,-335,-225,-65,-131,-58,-475,-264,-68,-117,-179,0,-226,-656,-200,-272,-249,-668
61909,313,76,292,-45,-140,276,-338,259,-135,-208,-422,-167,-5,-342,-72,-337,-180,-79,-137,-61,-464,-272,-126,-119,-180,3,-201,-647,-216,-288,-278,-696
61910,360,26,274,-47,-126,256,-365,289,-118,-204,-429,-121,-1,-337,-74,-329,-194,-91,-128,-45,-432,-285,-141,-138,-171,20,-182,-655,-237,-306,-271,-658
61911,375,-80,366,-90,-152,286,-440,198,-154,-227,-461,-106,-46,-361,-81,-341,-212,-95,-144,-43,-441,-363,-144,-155,-181,3,-209,-667,-250,-332,-284,-685
61912,475,-139,400,-232,-162,311,-455,172,-155,-212,-469,-65,-21,-334,-77,-343,-180,-68,-144,-37,-440,-334,-136,-134,-175,4,-209,-667,-235,-352,-316,-719
61913,491,-74,435,-154,-140,276,-370,190,-130,-221,-423,-27,-10,-313,-51,-327,-143,-45,-105,3,-431,-281,-106,-97,-157,45,-161,-609,-157,-271,-265,-642
61914,379,43,501,-123,-123,242,-341,181,-134,-187,-378,-27,-10,-309,-21,-295,-131,-9,-89,37,-386,-240,-65,-62,-140,55,-151,-593,-117,-214,-223,-592
61915,317,126,552,-144,-137,204,-272,184,-143,-193,-373,-46,-9,-292,-13,-275,-132,-2,-82,18,-392,-269,-44,-60,-123,69,-150,-632,-148,-264,-262,-612
61916,357,107,508,-132,-159,194,-255,268,-120,-186,-367,-85,23,-294,-7,-256,-124,30,-68,22,-381,-299,-25,-45,-126,67,-123,-645,-174,-305,-286,-651
61917,363,90,436,-185,-171,210,-271,253,-108,-186,-411,-94,32,-294,-16,-275,-98,1,-64,16,-390,-225,0,-39,-110,74,-114,-650,-146,-259,-254,-628
61918,301,80,338,-194,-179,198,-264,71,-118,-211,-438,-79,8,-290,-23,-296,-127,18,-65,6,-401,-273,2,-60,-136,42,-145,-629,-119,-258,-256,-636
61919,297,104,326,-184,-169,176,-297,53,-131,-209,-437,-145,0,-302,-39,-317,-164,4,-85,-4,-400,-346,-35,-70,-141,7,-207,-672,-159,-293,-305,-699
61920,337,97,271,-110,-154,204,-345,300,-131,-202,-463,-192,-6,-311,-27,-338,-165,-75,-90,0,-438,-361,-120,-101,-158,-3,-260,-667,-168,-330,-340,-772
61921,303,9,224,-120,-169,179,-359,359,-128,-221,-464,-170,18,-297,-27,-321,-227,-33,-72,3,-405,-317,-65,-59,-140,27,-206,-609,-144,-300,-290,-775
61922,210,-17,261,-138,-166,168,-396,322,-146,-207,-457,-92,20,-305,-10,-220,-178,0,-61,30,-354,-300,-58,-13,-105,97,-160,-618,-118,-261,-254,-713
61923,210,-69,323,-124,-168,162,-386,246,-156,-196,-437,-96,26,-316,16,-175,-125,3,-57,31,-326,-271,-61,-9,-80,119,-138,-566,-76,-221,-195,-615
61924,260,-142,405,-133,-156,214,-370,185,-145,-182,-405,-73,10,-299,60,-209,-92,41,-32,69,-303,-271,-45,23,-35,144,-118,-506,-38,-195,-166,-602
61925,254,-62,386,-136,-157,239,-368,169,-158,-168,-436,-93,-11,-310,32,-372,-62,-27,-54,66,-312,-253,-67,-5,-51,144,-136,-536,-45,-211,-180,-610
61926,186,-14,384,-122,-156,205,-348,208,-165,-178,-408,-110,-15,-309,-8,-468,-90,-50,-69,51,-367,-229,-53,-11,-55,121,-139,-533,-49,-202,-188,-630
61927,223,-62,370,-136,-154,209,-350,282,-159,-185,-447,-99,11,-307,-9,-313,-176,20,-50,48,-393,-219,8,13,-36,125,-88,-525,-33,-178,-198,-629
61928,293,-128,309,-199,-173,204,-370,312,-169,-201,-463,-141,-5,-311,-2,-300,-176,7,-53,38,-364,-212,-8,10,-39,129,-46,-515,-2,-149,-162,-574
61929,338,-43,410,-152,-154,211,-353,213,-174,-188,-435,-270,-10,-334,-10,-293,-139,39,-56,34,-333,-216,2,4,-64,136,-50,-512,5,-143,-127,-544
61930,412,21,524,-138,-135,243,-341,186,-168,-175,-395,-235,-35,-336,22,-245,-67,11,-60,60,-297,-170,48,13,-33,163,-1,-474,44,-89,-64,-450
61931,434,43,510,-156,-137,264,-330,199,-164,-159,-351,-15,-4,-315,50,-185,-64,66,-38,96,-259,-120,116,62,10,213,67,-459,51,-88,-57,-386
61932,417,110,453,-150,-136,287,-307,232,-157,-161,-319,-48,18,-320,41,-205,-38,92,-18,99,-281,-138,82,72,5,215,4,-495,12,-140,-119,-546
61933,360,50,448,-92,-131,312,-295,272,-146,-140,-316,-70,14,-317,62,-190,51,60,-23,86,-278,-193,42,65,12,215,2,-507,27,-140,-109,-592
61934,304,31,439,-86,-147,282,-308,320,-120,-160,-326,-3,51,-318,53,-190,-22,165,2,72,-273,-158,92,102,17,221,38,-444,92,-102,-54,-490
61935,325,131,379,-71,-142,249,-342,343,-126,-184,-317,54,49,-313,33,-208,-55,143,0,67,-285,-105,103,105,15,212,47,-407,98,-64,-72,-468
61936,437,166,397,-62,-144,230,-339,372,-121,-174,-325,128,54,-293,18,-222,42,99,5,91,-273,-42,106,112,39,214,85,-403,111,-44,-43,-416
61937,457,121,485,-90,-143,218,-288,370,-117,-168,-313,139,79,-281,20,-179,1,165,26,105,-247,-6,139,158,71,238,116,-384,119,-53,-25,-406
61938,426,89,537,-116,-138,218,-260,317,-113,-163,-346,99,91,-283,37,-159,4,172,59,119,-236,7,144,169,76,267,161,-348,117,-24,0,-374
61939,392,27,532,-134,-166,241,-303,258,-128,-208,-385,34,58,-301,-9,-169,3,131,28,94,-270,-33,101,129,40,236,148,-369,81,-51,-20,-380
61940,383,-26,501,-141,-159,305,-346,295,-120,-196,-378,25,64,-295,0,-185,12,142,27,102,-272,-33,134,144,33,228,145,-346,117,-17,4,-323
61941,431,26,426,-156,-151,318,-288,249,-112,-186,-373,75,71,-281,1,-175,27,165,49,96,-255,-37,165,157,42,232,144,-304,154,1,16,-310
61942,393,-10,397,-154,-149,256,-304,133,-122,-225,-363,67,88,-291,-27,-201,33,204,37,72,-271,-16,182,163,36,228,152,-329,167,5,8,-337
61943,366,-24,430,-99,-155,202,-359,457,-111,-237,-399,32,126,-315,-46,-226,30,215,48,65,-289,-15,215,181,37,200,145,-375,168,7,14,-372
61944,387,41,500,-52,-134,172,-298,480,-81,-214,-407,64,124,-318,-37,-207,76,192,75,75,-278,-76,199,192,45,229,148,-340,186,17,-2,-440
61945,317,18,464,31,-129,183,-284,372,-80,-241,-412,122,124,-319,-51,-206,65,208,67,69,-290,-40,222,203,43,217,158,-324,188,21,1,-432
61946,345,24,479,16,-106,221,-234,401,-66,-213,-371,137,148,-301,-10,-174,18,256,84,70,-265,29,250,216,50,247,186,-301,201,48,52,-312
61947,331,13,429,-38,-108,229,-204,380,-91,-203,-408,87,135,-325,-12,-185,10,235,75,60,-262,22,212,203,44,229,173,-328,183,21,31,-297
61948,307,-62,448,-43,-111,238,-276,347,-102,-214,-455,55,119,-321,-15,-119,11,221,53,53,-260,-40,197,190,11,216,159,-339,165,-13,-7,-393
61949,323,-199,504,-62,-119,209,-348,318,-105,-205,-389,35,101,-297,-15,-73,52,226,59,62,-237,-40,189,202,8,225,180,-350,179,-7,-9,-391
61950,340,-159,478,-119,-155,196,-378,235,-121,-216,-382,21,83,-300,-3,-122,83,194,53,74,-233,-27,179,194,19,227,184,-351,176,-7,-22,-399
61951,307,-140,461,-170,-146,172,-422,243,-123,-212,-398,2,101,-292,23,-287,44,219,58,90,-205,-44,190,196,32,231,210,-332,182,13,11,-367
61952,334,-56,484,-133,-129,183,-390,308,-109,-194,-395,118,122,-272,21,-378,40,267,79,96,-243,-56,242,223,43,234,205,-337,185,9,20,-379
61953,427,46,548,-113,-129,209,-341,371,-115,-207,-406,115,109,-304,-16,-227,59,270,53,48,-257,-21,226,174,24,218,183,-367,155,-22,8,-374
61954,415,55,530,-80,-123,228,-318,454,-128,-210,-379,115,114,-330,-9,-169,54,270,42,40,-257,-47,197,153,-15,204,189,-376,112,-49,-29,-391
61955,391,21,545,-37,-99,303,-290,467,-136,-200,-322,157,115,-319,-1,-139,86,221,22,38,-242,-93,218,169,-31,192,210,-347,104,-57,-44,-389
61956,388,73,573,7,-94,345,-274,376,-132,-200,-273,187,106,-319,2,-129,74,235,2,39,-252,-15,223,148,-41,196,209,-338,115,-29,-8,-295
61957,415,96,493,-32,-106,289,-237,349,-120,-204,-298,172,114,-335,8,-141,66,239,0,56,-234,14,206,135,-32,196,217,-297,113,-7,15,-254
61958,387,-20,446,-80,-122,190,-227,356,-118,-239,-360,159,97,-337,-7,-149,124,213,-14,24,-260,-35,175,100,-53,173,128,-314,85,-74,-65,-434
61959,324,-66,423,-93,-117,203,-189,373,-121,-227,-321,166,83,-347,8,-118,144,224,-2,33,-243,-40,219,117,-55,195,148,-308,96,-53,-20,-404
61960,269,-7,429,-89,-97,226,-164,404,-122,-231,-301,188,77,-338,26,-76,116,242,10,60,-209,38,263,139,-40,214,223,-286,134,-1,32,-306
61961,330,64,493,-83,-88,232,-149,421,-121,-225,-292,200,67,-333,44,-74,126,246,0,51,-197,9,246,120,-49,213,208,-316,138,6,18,-287
61962,306,76,532,-116,-125,240,-173,318,-139,-227,-297,149,44,-337,14,-80,118,213,-25,47,-213,24,223,103,-68,202,214,-344,115,-16,20,-203
61963,209,-1,476,-157,-138,252,-210,263,-152,-233,-334,103,11,-323,4,-92,107,172,-36,29,-225,23,212,94,-87,196,236,-331,104,-23,25,-206
61964,155,-86,421,-172,-130,251,-188,200,-163,-231,-317,83,1,-308,20,-81,77,157,-38,43,-189,75,156,88,-87,211,293,-326,100,-4,33,-217
61965,156,-79,383,-160,-130,219,-145,199,-158,-238,-309,57,-20,-328,11,-74,64,140,-62,29,-201,163,146,69,-95,199,337,-314,94,-4,20,-157
61966,235,-59,445,-91,-105,197,-142,306,-114,-230,-314,102,42,-336,-15,-88,90,169,-47,28,-218,183,166,63,-100,191,297,-313,61,-49,-24,-261
61967,246,-71,514,-55,-107,291,-131,336,-131,-221,-291,95,46,-350,-5,-89,121,181,-39,18,-223,153,159,54,-108,137,246,-315,45,-58,-37,-376
61968,234,-69,467,-94,-103,270,-153,323,-134,-241,-309,41,14,-356,-26,-115,120,179,-39,-16,-250,125,146,63,-103,123,172,-335,38,-86,-45,-373
61969,212,-45,461,-103,-117,276,-150,333,-125,-230,-298,63,18,-346,-29,-100,140,144,-32,9,-249,116,176,72,-96,133,175,-318,54,-74,-37,-318
61970,184,-68,425,-90,-112,300,-122,328,-119,-237,-288,114,31,-307,-22,-73,159,167,-2,29,-227,103,217,108,-62,160,202,-257,101,3,11,-249
61971,227,-92,433,-93,-106,288,-92,358,-103,-235,-275,110,72,-313,-12,-64,184,215,1,30,-198,152,240,127,-58,179,236,-249,117,14,42,-144
61972,246,-117,428,-99,-104,269,-108,371,-131,-226,-271,176,90,-305,0,-54,192,224,-1,32,-182,171,239,121,-52,185,254,-237,134,22,64,-74
61973,189,-154,393,-107,-113,274,-119,341,-150,-238,-272,171,73,-300,9,-53,217,219,8,38,-188,177,243,133,-17,202,231,-221,152,37,66,-123
61974,137,-123,410,-86,-120,302,-118,374,-110,-201,-233,194,123,-305,44,-59,242,265,42,83,-170,168,268,176,14,228,223,-184,169,34,48,-236
61975,133,-80,431,-31,-114,332,-82,530,-90,-194,-214,235,157,-301,54,-27,282,329,77,106,-151,199,306,212,39,242,275,-144,212,89,112,-155
61976,118,-54,330,10,-92,330,-80,578,-83,-169,-208,218,142,-299,74,5,396,300,89,120,-125,239,312,216,65,265,318,-144,232,102,145,-104
61977,173,1,313,-34,-77,344,-77,249,-115,-175,-224,253,108,-287,69,17,478,293,63,116,-126,232,322,215,59,251,268,-139,247,90,76,-253
61978,179,-25,363,6,-88,355,-51,377,-112,-172,-226,224,124,-284,78,7,298,397,53,89,-157,189,415,248,56,233,227,-190,216,55,27,-339
61979,214,-115,417,-51,-100,378,-111,521,-106,-195,-231,283,144,-308,82,-2,246,364,55,61,-166,181,435,218,26,215,214,-219,211,56,46,-275
61980,328,-174,453,-138,-94,410,-132,453,-119,-205,-163,309,120,-317,68,26,296,296,36,69,-139,168,363,190,23,221,229,-197,198,63,63,-231
61981,284,-124,471,-133,-101,376,-115,463,-131,-201,-188,294,125,-324,43,46,246,288,8,68,-150,105,329,164,-6,227,195,-196,167,30,40,-238
61982,273,-7,499,-102,-94,385,-95,413,-117,-203,-181,292,122,-307,66,73,264,281,25,71,-122,205,335,151,8,241,222,-198,171,25,69,-195
61983,242,39,500,-144,-110,333,-81,312,-138,-196,-157,248,113,-328,84,62,305,278,37,98,-122,250,309,152,44,259,261,-176,196,48,99,-147
61984,219,65,511,-175,-125,297,-65,320,-131,-185,-183,239,109,-304,103,135,326,268,48,124,-100,259,290,188,66,286,304,-101,244,122,141,-97
61985,239,33,504,-144,-113,273,-34,395,-108,-170,-156,262,148,-263,114,217,362,295,74,165,-54,263,308,218,110,316,334,-93,267,175,186,-95
61986,233,-77,511,-183,-112,342,-38,383,-131,-164,-135,254,130,-297,106,155,360,288,60,152,-64,213,323,225,103,304,334,-97,282,159,162,-105
61987,259,-93,622,-170,-98,362,-27,293,-120,-145,-124,258,113,-265,143,70,379,295,95,167,-33,246,347,256,117,339,369,-68,294,151,159,-103
61988,296,-78,604,-172,-100,356,-90,312,-126,-145,-139,238,113,-276,139,-88,363,272,102,163,-53,238,332,247,118,339,354,-79,279,146,179,-108
61989,266,-49,536,-134,-115,366,-84,349,-113,-139,-143,246,119,-260,123,-19,329,257,84,183,-74,249,336,224,128,349,371,-143,259,142,197,-78
61990,165,-9,496,-102,-102,336,-62,364,-124,-128,-167,229,102,-279,127,86,327,248,75,165,-73,248,314,194,105,340,353,-183,235,137,181,-50
61991,143,60,478,-72,-100,306,-49,415,-128,-141,-167,191,105,-275,131,50,303,244,79,151,-86,241,259,178,100,331,336,-169,213,129,204,-18
61992,195,-24,528,-111,-105,286,-8,343,-125,-144,-174,164,92,-276,112,30,280,219,67,149,-80,240,227,145,93,329,360,-146,183,140,208,55
61993,173,-108,545,-87,-115,318,-10,289,-116,-143,-179,158,70,-279,110,2,271,153,34,138,-98,212,226,127,99,307,346,-152,152,104,168,-33
61994,164,-72,426,-84,-105,343,-51,331,-114,-148,-187,146,53,-297,102,10,230,170,21,117,-121,168,208,114,72,291,278,-166,149,77,130,-186
61995,174,-36,414,-102,-121,371,-50,292,-117,-135,-157,97,30,-297,96,24,220,150,9,115,-123,155,171,94,54,298,269,-136,153,100,143,-127
61996,135,-19,441,-112,-111,382,-52,96,-124,-131,-145,146,34,-288,108,17,231,155,5,121,-114,150,169,90,53,275,249,-157,151,105,143,-116
61997,119,-25,391,-65,-125,374,-87,355,-134,-153,-162,99,30,-308,95,10,220,127,2,102,-141,112,141,75,26,228,225,-207,134,74,88,-133
61998,155,23,265,-50,-111,317,-54,562,-109,-126,-166,44,55,-306,86,15,195,125,1,88,-169,39,107,55,20,213,222,-272,77,5,33,-132
61999,147,24,132,-87,-98,288,-49,491,-104,-136,-188,-30,86,-299,77,25,129,163,7,70,-176,51,119,74,-5,205,253,-287,87,3,7,-208
62000,113,33,216,-127,-102,364,-44,431,-111,-135,-167,-94,42,-312,85,13,190,72,-5,74,-159,68,62,61,-4,188,214,-337,83,-13,22,-207
62001,125,21,265,-99,-110,372,-31,410,-124,-132,-167,107,19,-299,85,5,212,60,-4,82,-172,111,97,48,2,190,180,-336,75,5,24,-154
62002,103,-93,338,-118,-122,389,-66,360,-129,-146,-198,105,30,-292,57,-15,127,154,-9,80,-198,159,179,75,16,193,147,-329,82,32,27,-133
62003,136,-80,413,-160,-130,418,-110,340,-136,-124,-209,64,35,-288,86,-4,153,163,0,91,-172,128,171,82,19,203,167,-343,87,41,69,-156
62004,186,-13,418,-147,-114,452,-100,317,-113,-93,-220,160,47,-269,108,17,254,137,23,126,-132,66,174,103,67,242,209,-274,143,93,139,-89
62005,227,4,425,-149,-109,426,-72,319,-114,-105,-191,135,60,-271,120,23,185,152,41,144,-131,127,187,109,66,256,258,-262,149,115,156,16
62006,243,-129,479,-130,-104,375,-96,271,-116,-115,-189,201,67,-258,118,27,149,184,55,139,-132,156,199,138,66,273,232,-273,165,118,160,-29
62007,261,-179,480,-172,-98,347,-49,274,-121,-94,-225,170,64,-257,111,-5,158,160,42,129,-150,118,176,118,75,266,191,-294,155,83,112,-199
62008,180,-182,492,-140,-92,371,-67,316,-124,-101,-273,138,56,-270,95,-42,159,154,45,110,-178,90,137,100,74,221,150,-323,134,71,83,-247
62009,111,-180,490,-85,-108,338,-170,267,-112,-146,-270,120,43,-295,74,-70,82,153,37,114,-224,39,154,105,77,211,127,-328,153,84,99,-227
62010,151,-63,428,-76,-88,341,-169,298,-120,-122,-269,145,76,-281,89,-41,77,173,58,145,-201,71,180,141,119,261,155,-247,212,161,158,-121
62011,187,-44,344,-105,-85,330,-154,385,-101,-139,-248,143,96,-272,110,14,153,125,73,145,-192,31,155,151,137,264,149,-280,191,141,104,-169
62012,157,-148,343,-136,-93,385,-155,349,-96,-117,-189,134,91,-289,114,22,129,130,63,129,-219,-32,131,144,124,228,69,-323,153,69,43,-350
62013,71,-195,315,-162,-128,409,-201,256,-124,-125,-207,60,43,-302,98,-67,114,107,27,105,-254,-79,96,114,76,205,28,-362,100,14,6,-393
62014,67,-112,334,-167,-101,436,-132,271,-123,-114,-182,47,42,-291,126,-164,100,32,26,130,-203,-65,50,89,91,235,87,-381,102,5,25,-263
62015,136,-88,459,-209,-124,338,-98,179,-141,-134,-198,27,42,-280,110,-263,42,88,38,147,-197,-64,126,109,98,251,93,-349,108,25,33,-241
62016,137,-79,380,-204,-132,265,-111,199,-121,-136,-265,23,60,-259,86,-142,72,93,54,156,-188,-95,126,148,113,256,98,-309,124,46,22,-245
62017,140,-111,292,-189,-106,255,-109,226,-121,-147,-269,11,65,-265,96,-89,116,58,53,158,-198,-108,89,127,133,248,83,-278,117,16,10,-321
62018,134,-77,308,-153,-109,263,-105,250,-99,-140,-244,-9,60,-256,98,-97,106,75,67,156,-207,-142,115,151,147,232,55,-309,102,23,-11,-342
62019,122,-19,361,-126,-104,307,-96,291,-82,-116,-220,30,94,-251,114,-107,106,120,93,162,-185,-120,187,182,162,249,70,-292,139,31,7,-327
62020,68,-54,440,-157,-116,303,-143,262,-115,-136,-256,-5,87,-260,97,-168,120,137,90,169,-189,-35,183,159,165,272,108,-307,133,45,29,-245
62021,51,-74,413,-166,-108,298,-145,273,-121,-132,-261,3,73,-251,92,-178,103,125,83,155,-192,-62,147,150,150,254,82,-312,121,13,-7,-338
62022,62,-84,294,-174,-124,316,-141,279,-122,-148,-288,0,53,-259,86,-164,115,114,78,143,-218,-80,132,132,136,216,14,-287,135,-19,-47,-450
62023,67,-124,232,-156,-131,314,-144,271,-110,-132,-274,22,61,-247,101,-112,127,140,100,153,-205,-66,140,168,141,238,42,-298,147,2,-70,-396
62024,89,-85,252,-159,-103,293,-145,348,-96,-130,-263,73,74,-246,98,-67,152,130,109,154,-198,-70,172,176,141,228,42,-312,144,-42,-100,-395
62025,-5,-114,199,-163,-135,299,-149,298,-115,-143,-261,117,84,-265,86,-121,122,159,79,123,-213,-68,219,185,113,197,41,-318,148,-54,-106,-397
62026,-100,-179,194,-128,-112,323,-149,106,-112,-165,-260,129,74,-268,101,-107,121,214,83,124,-220,-99,248,199,112,203,5,-321,155,-62,-98,-436
62027,-117,-218,69,-102,-118,345,-258,315,-84,-159,-284,26,90,-283,91,-132,133,209,76,109,-241,-107,266,209,82,194,-42,-332,148,-57,-103,-403
62028,-105,-242,85,-51,-137,345,-271,506,-96,-162,-320,-96,67,-295,46,-177,161,115,54,78,-269,-129,154,170,55,141,-33,-401,96,-134,-171,-448
62029,-16,-274,102,-95,-126,292,-280,295,-111,-184,-339,-85,35,-310,34,-186,131,42,22,61,-305,-128,112,116,15,108,-40,-403,45,-191,-224,-491
62030,144,-257,186,-131,-124,283,-270,246,-103,-185,-313,-31,45,-309,34,-180,13,122,24,59,-307,-114,181,136,22,113,-63,-346,89,-133,-159,-372
62031,77,-264,313,-199,-141,236,-232,224,-111,-171,-317,-7,34,-317,37,-196,1,124,43,62,-304,-96,135,173,38,125,-57,-328,103,-137,-132,-390
62032,101,-241,335,-226,-144,293,-236,188,-119,-160,-322,21,52,-297,99,-174,66,129,69,80,-287,-37,130,165,62,155,-6,-295,143,-104,-114,-318
62033,150,-166,314,-246,-133,358,-200,177,-105,-175,-337,41,56,-283,89,-159,49,131,82,90,-265,-64,142,159,52,142,-2,-290,131,-105,-131,-337
62034,107,-179,342,-235,-126,322,-270,219,-95,-180,-343,68,84,-294,66,-191,34,128,68,88,-264,-103,131,179,48,114,-19,-292,119,-119,-140,-395
62035,79,-166,348,-216,-120,287,-352,206,-102,-161,-334,35,63,-284,64,-175,16,116,57,73,-280,-133,131,174,55,121,-77,-303,86,-129,-163,-459
62036,87,-99,329,-186,-128,247,-263,158,-112,-177,-308,-21,52,-288,63,-174,-23,122,57,78,-280,-208,93,144,41,116,-69,-352,72,-151,-144,-468
62037,135,-82,300,-194,-138,243,-216,169,-114,-179,-291,-48,47,-299,65,-187,-35,71,46,74,-283,-216,36,114,21,113,-74,-437,37,-190,-159,-468
62038,110,-64,236,-204,-127,255,-205,237,-102,-162,-291,-57,52,-274,80,-173,-25,52,54,98,-271,-204,37,128,30,136,-75,-433,20,-201,-175,-438
62039,64,-126,242,-202,-148,212,-227,249,-106,-177,-308,-42,51,-268,84,-170,-49,80,77,95,-266,-255,55,133,59,140,-63,-454,-2,-223,-183,-435
62040,12,-207,233,-231,-148,192,-235,191,-117,-181,-334,-71,54,-275,64,-180,-74,80,85,103,-274,-219,58,133,75,147,-29,-488,-4,-205,-183,-467
62041,7,-267,257,-225,-129,213,-235,154,-116,-169,-330,-86,34,-286,54,-142,-78,63,68,111,-259,-124,47,138,86,173,4,-500,-4,-212,-180,-509
62042,-28,-252,276,-199,-137,244,-251,153,-125,-164,-352,-114,33,-298,82,-55,-55,61,62,108,-231,-150,34,115,71,169,20,-464,-9,-190,-161,-485
62043,17,-191,274,-219,-134,256,-225,235,-107,-168,-296,-154,33,-300,84,-63,14,80,53,94,-208,-131,58,132,59,184,43,-428,-7,-196,-181,-501
62044,16,-272,241,-135,-121,197,-204,289,-82,-161,-260,-101,56,-297,99,-102,46,99,71,128,-204,-91,71,113,83,200,44,-424,-17,-191,-150,-433
62045,-15,-263,212,-109,-122,142,-181,375,-82,-169,-277,-28,98,-300,93,-268,-41,114,71,130,-199,-56,65,124,95,198,33,-452,-5,-170,-121,-397
62046,-27,-140,86,-93,-141,166,-206,497,-70,-173,-308,-112,109,-327,58,-280,-62,87,35,81,-259,-63,60,110,48,182,-3,-432,-11,-174,-130,-370
62047,-37,-31,105,-74,-133,203,-178,432,-71,-166,-302,-268,83,-307,58,-137,20,57,28,80,-260,-101,44,71,34,162,-22,-476,-63,-209,-166,-443
62048,0,11,151,-92,-119,238,-120,292,-96,-144,-286,-86,33,-316,69,-153,83,11,22,89,-227,-97,73,74,42,171,34,-477,-43,-190,-163,-390
62049,13,-26,284,-84,-116,278,-132,215,-93,-154,-286,38,72,-312,70,-120,67,110,45,92,-225,-42,145,116,59,188,80,-440,14,-154,-124,-309
62050,-30,-202,406,-143,-122,312,-175,-1,-113,-137,-267,116,88,-312,86,-111,90,185,62,108,-202,-15,170,153,76,200,125,-419,60,-133,-89,-320
62051,97,-258,486,-162,-106,314,-182,228,-100,-102,-240,97,98,-288,115,-73,208,109,71,122,-177,-14,129,171,105,221,148,-344,68,-98,-82,-363
62052,111,-234,415,-139,-126,352,-230,363,-100,-132,-255,79,78,-291,104,-109,146,123,54,100,-196,-62,159,171,77,192,57,-352,66,-126,-95,-435
62053,153,-207,442,-199,-131,400,-213,281,-110,-122,-274,63,86,-287,121,-103,35,152,59,117,-212,-65,216,194,90,211,33,-331,93,-89,-67,-361
62054,192,-156,492,-203,-144,337,-131,291,-118,-134,-228,81,69,-295,101,-65,33,135,63,130,-192,-46,200,172,87,206,31,-361,96,-104,-98,-360
