,Fp1,Fp2,F7,F3,Fz,F4,F8,FC5,FC1,FC2,FC6,T7,C3,Cz,C4,T8,TP9,CP5,CP1,CP2,CP6,TP10,P7,P3,Pz,P4,P8,PO9,O1,Oz,O2,PO10
115879,259,361,587,-279,-263,179,-225,484,53,-103,-102,-62,250,-123,-466,55,53,-96,-227,-404,-284,105,208,12,-4,83,122,-467,43,-207,-434,-170
115880,265,372,613,-278,-250,142,-248,518,58,-101,-126,-1,258,-108,-461,17,20,-70,-218,-396,-280,72,229,44,4,78,143,-408,82,-180,-417,-155
115881,231,379,538,-302,-255,139,-241,460,44,-98,-113,20,273,-91,-432,57,0,-69,-202,-383,-253,108,225,47,19,108,169,-434,99,-180,-396,-122
115882,210,354,488,-277,-257,146,-219,476,48,-99,-82,54,290,-81,-391,84,128,-51,-207,-367,-234,125,258,46,21,137,176,-424,104,-175,-384,-130
115883,193,341,468,-278,-274,131,-218,492,38,-106,-107,38,290,-104,-423,96,118,-53,-213,-380,-235,160,225,25,21,112,167,-428,95,-189,-426,-168
115884,218,363,481,-296,-275,139,-223,507,41,-105,-106,69,287,-90,-433,78,148,-48,-178,-370,-233,183,273,59,47,118,163,-430,117,-156,-396,-126
115885,215,347,512,-321,-259,144,-279,482,56,-92,-121,25,283,-105,-419,3,126,-33,-178,-360,-247,110,281,88,54,129,144,-407,121,-148,-362,-121
115886,140,270,473,-340,-286,111,-364,481,42,-99,-141,-53,268,-92,-432,-63,82,-62,-205,-358,-268,23,279,77,47,109,105,-447,120,-161,-415,-231
115887,101,218,416,-331,-298,113,-392,463,22,-120,-154,-143,270,-90,-450,-37,36,-92,-205,-363,-257,39,325,75,66,114,123,-474,138,-133,-416,-214
115888,104,235,402,-310,-295,117,-328,439,26,-114,-164,-257,274,-88,-443,-52,-16,-88,-208,-369,-239,79,320,87,95,144,169,-427,188,-82,-333,-101
115889,125,269,438,-315,-277,107,-304,435,42,-100,-133,-144,284,-78,-423,-33,122,-49,-189,-368,-224,109,311,84,70,149,185,-387,211,-77,-292,-99
115890,112,263,343,-295,-275,107,-389,500,52,-87,-92,-23,297,-78,-410,0,180,-18,-157,-348,-201,137,379,90,63,160,165,-387,175,-102,-368,-166
115891,119,251,297,-301,-302,88,-462,519,46,-103,-98,-117,291,-100,-445,-21,102,-37,-146,-349,-227,109,302,49,74,130,141,-401,139,-140,-392,-196
115892,159,255,343,-332,-295,69,-415,515,43,-105,-116,-95,291,-73,-424,-7,117,-20,-144,-353,-240,100,275,71,91,121,159,-404,173,-107,-368,-129
115893,138,282,329,-307,-304,62,-334,554,45,-109,-109,-68,323,-68,-427,-30,134,-16,-157,-351,-241,87,305,93,81,153,202,-392,211,-51,-312,-16
115894,127,324,337,-296,-300,66,-214,505,56,-121,-83,-3,304,-64,-423,9,156,7,-172,-358,-227,60,378,125,104,179,264,-336,296,2,-264,5
115895,109,333,343,-327,-316,63,-166,517,38,-109,-97,55,290,-71,-422,106,140,-27,-159,-354,-207,111,334,115,115,193,262,-303,310,0,-276,-31
115896,127,309,426,-328,-310,66,-166,503,20,-115,-151,63,284,-76,-428,76,157,-54,-193,-358,-207,135,217,71,76,187,252,-334,175,-72,-307,-26
115897,170,297,529,-322,-301,102,-128,428,37,-127,-112,92,257,-80,-398,-137,207,-49,-203,-356,-210,193,245,68,60,176,249,-296,186,-69,-292,-21
115898,165,293,617,-314,-274,126,-158,404,47,-96,-76,117,268,-76,-388,-446,208,-35,-188,-344,-200,239,298,80,77,185,233,-313,226,-51,-279,-65
115899,138,283,596,-324,-272,106,-205,428,35,-95,-83,86,265,-80,-404,-421,212,-20,-188,-351,-219,150,304,66,63,167,175,-335,209,-68,-291,-62
115900,149,277,566,-332,-296,83,-269,449,31,-102,-119,11,260,-73,-415,-292,161,-62,-222,-355,-241,20,262,57,49,151,151,-315,212,-60,-291,-69
115901,106,290,497,-349,-292,97,-258,426,32,-109,-89,-137,237,-88,-362,-104,96,-121,-255,-370,-172,94,177,13,43,163,205,-379,157,-79,-304,-44
115902,107,302,470,-359,-306,90,-266,411,21,-124,-98,-132,224,-80,-377,54,109,-125,-266,-359,-187,132,203,4,34,154,220,-391,138,-114,-344,-95
115903,127,300,453,-358,-330,79,-310,415,17,-154,-132,-66,240,-84,-411,131,55,-104,-253,-365,-200,101,225,49,58,152,207,-367,154,-105,-350,-126
115904,128,302,433,-341,-313,88,-357,441,24,-133,-105,-60,269,-84,-406,137,76,-83,-221,-348,-172,116,274,69,84,167,211,-359,174,-74,-323,-98
115905,153,324,468,-335,-293,85,-373,455,33,-128,-99,-6,290,-59,-416,155,147,-56,-205,-333,-168,136,272,71,88,177,241,-359,202,-41,-294,-59
115906,156,320,551,-323,-280,72,-341,507,55,-155,-138,58,293,-71,-428,132,162,-41,-191,-354,-193,134,238,73,89,172,232,-301,217,-31,-293,-64
115907,158,330,526,-323,-300,78,-303,429,25,-157,-131,74,281,-90,-431,17,158,-22,-196,-373,-228,68,257,96,80,173,170,-252,226,-30,-295,-48
115908,213,367,516,-326,-300,108,-254,430,45,-136,-95,64,300,-85,-430,-184,140,-5,-168,-355,-242,81,312,95,81,165,112,-261,221,-31,-290,-30
115909,231,406,550,-333,-274,105,-234,503,47,-142,-132,-32,295,-85,-416,-174,6,-23,-199,-347,-237,144,298,70,65,141,135,-305,198,-87,-337,-103
115910,142,365,515,-298,-286,119,-254,513,53,-133,-166,-26,292,-82,-398,-106,163,-18,-199,-326,-219,136,264,90,85,147,154,-250,231,-58,-314,-121
115911,112,292,528,-316,-277,122,-259,485,45,-117,-50,-12,276,-80,-385,-102,225,-41,-195,-331,-223,131,254,92,94,175,202,-241,239,-16,-279,-60
115912,134,226,517,-319,-272,143,-287,536,47,-90,-4,0,308,-60,-368,41,204,-25,-187,-320,-209,174,270,97,103,182,250,-252,247,-14,-265,-24
115913,147,280,469,-341,-296,131,-259,528,44,-114,-116,129,285,-80,-408,127,228,-16,-196,-334,-189,188,281,108,90,176,244,-297,220,-51,-303,-37
115914,175,360,477,-345,-286,114,-356,451,46,-117,-141,178,277,-75,-401,201,187,-25,-191,-349,-158,187,293,94,83,169,222,-299,218,-59,-313,-47
115915,190,355,456,-310,-289,125,-432,460,42,-131,-59,94,287,-84,-405,143,190,-36,-214,-373,-187,182,313,84,69,156,126,-294,197,-57,-327,-80
115916,181,339,453,-335,-293,105,-384,464,34,-143,-50,28,280,-88,-420,151,228,-44,-236,-385,-197,194,321,90,49,152,147,-255,219,-9,-310,-28
115917,176,344,481,-349,-263,125,-337,498,40,-113,-79,-2,285,-97,-393,67,224,-34,-219,-356,-200,198,344,109,61,162,210,-258,236,-20,-281,8
115918,203,393,533,-349,-253,154,-184,494,52,-114,-92,-22,288,-74,-384,33,195,-45,-240,-364,-220,197,357,90,69,166,283,-238,222,-19,-260,32
115919,186,396,527,-348,-270,145,-48,461,38,-106,-85,-93,269,-88,-397,74,171,-76,-245,-364,-226,151,281,58,62,151,245,-224,251,0,-253,25
115920,202,443,527,-328,-243,153,-27,457,37,-106,-64,-188,274,-85,-397,102,134,-75,-234,-351,-202,175,265,52,75,169,258,-217,261,6,-234,20
115921,233,474,578,-321,-226,175,18,444,65,-87,-23,-34,304,-64,-377,140,158,-31,-207,-336,-182,194,330,111,82,188,281,-202,276,1,-235,12
115922,231,443,578,-324,-243,169,17,456,54,-81,-30,52,286,-81,-394,137,200,-34,-219,-349,-202,194,327,105,56,156,248,-220,267,-19,-264,-32
115923,161,409,529,-358,-274,133,-22,492,26,-128,-66,-2,279,-92,-415,119,199,-49,-238,-389,-216,190,296,79,53,131,227,-254,222,-68,-303,-81
115924,156,424,549,-345,-274,137,-21,498,53,-104,17,35,299,-76,-389,63,190,-3,-190,-372,-222,203,317,93,51,137,218,-257,233,-68,-311,-60
115925,179,404,500,-332,-291,141,-74,505,54,-100,7,60,307,-79,-394,-123,187,-18,-191,-358,-224,223,318,101,71,126,222,-233,230,-47,-314,-33
115926,157,382,485,-353,-297,134,-111,481,48,-95,-19,69,290,-89,-381,-208,174,-40,-215,-366,-208,210,311,105,67,134,234,-256,209,-80,-364,-91
115927,132,403,480,-323,-280,139,-148,529,56,-107,-63,68,294,-83,-383,-39,171,-12,-186,-349,-197,192,386,111,67,151,229,-205,220,-75,-353,-130
115928,106,416,433,-315,-255,145,-176,547,64,-95,-53,18,288,-61,-378,90,192,5,-169,-332,-177,193,476,110,83,152,222,-236,231,-68,-304,-83
115929,114,395,388,-349,-273,129,-170,525,54,-89,-80,-53,299,-76,-375,11,179,5,-177,-349,-179,209,409,118,87,157,244,-247,221,-30,-276,-29
115930,96,391,394,-354,-286,99,-192,520,50,-136,-108,-80,324,-86,-397,-21,181,-17,-171,-353,-194,231,266,116,87,173,222,-226,217,-28,-246,-9
115931,113,380,411,-381,-281,111,-201,484,41,-132,-74,-1,295,-79,-383,52,190,-32,-162,-344,-206,207,255,114,99,180,251,-230,243,-43,-252,-5
115932,151,400,448,-373,-269,152,-182,455,48,-101,-43,62,289,-68,-361,141,196,-15,-177,-321,-156,198,319,128,122,210,268,-217,252,-11,-225,0
115933,124,374,390,-353,-287,141,-207,462,30,-132,-44,53,285,-67,-383,173,196,-31,-180,-345,-155,215,320,112,105,194,291,-191,248,-40,-302,19
115934,91,378,397,-363,-305,137,-267,510,41,-144,-53,-8,275,-83,-359,164,223,-35,-201,-340,-155,273,342,119,95,189,310,-212,229,-24,-287,15
115935,81,342,413,-335,-285,156,-235,469,35,-99,-23,-54,281,-51,-348,128,203,-6,-201,-323,-142,292,418,113,81,211,294,-254,229,-26,-281,-18
115936,35,262,359,-354,-290,141,-313,425,32,-99,19,-6,272,-69,-369,-20,125,-16,-201,-349,-170,229,482,103,75,183,333,-252,218,-36,-288,-74
115937,60,271,376,-360,-294,160,-448,448,19,-113,29,55,277,-80,-376,-162,161,-26,-197,-348,-180,210,373,108,86,151,287,-223,235,-34,-305,-75
115938,105,347,386,-359,-256,207,-406,447,33,-87,71,58,296,-60,-326,-153,238,-9,-187,-312,-147,227,285,122,98,192,248,-191,279,-14,-276,-12
115939,88,348,477,-364,-258,201,-291,427,27,-91,77,16,279,-73,-335,13,111,-28,-203,-339,-159,184,272,98,82,154,245,-207,256,-41,-281,-50
115940,81,350,576,-313,-267,157,-167,521,27,-98,-3,45,288,-88,-375,135,129,-20,-205,-370,-189,221,315,103,76,150,231,-210,231,-66,-296,-66
115941,106,359,568,-297,-273,144,-71,474,33,-120,-66,107,299,-72,-408,180,288,24,-171,-370,-201,269,361,110,74,139,235,-197,238,-66,-321,-57
115942,115,366,519,-327,-278,107,-134,455,37,-98,-94,70,297,-74,-402,141,246,41,-173,-372,-187,260,403,124,86,128,222,-223,259,-39,-309,-33
115943,87,337,464,-370,-290,107,-216,474,16,-135,-101,-35,275,-84,-425,89,176,-3,-190,-367,-212,221,403,112,77,126,208,-232,237,-43,-302,-15
115944,57,293,418,-382,-315,120,-207,449,5,-162,-113,-41,269,-89,-431,61,161,-34,-209,-384,-231,200,366,100,82,120,221,-203,276,-17,-274,15
115945,62,292,445,-352,-280,109,-179,504,33,-121,-98,118,308,-47,-390,-5,211,10,-171,-343,-204,222,385,155,138,175,245,-130,330,43,-204,54
115946,25,292,477,-356,-294,87,-174,478,24,-135,-107,130,301,-58,-400,-25,197,4,-183,-322,-221,192,314,149,148,182,250,-123,340,48,-204,48
115947,54,301,503,-373,-302,93,-171,447,29,-131,-82,-37,305,-44,-396,55,183,-9,-227,-330,-223,172,304,140,148,173,248,-144,314,11,-230,4
115948,89,356,499,-377,-292,102,-155,425,44,-127,-64,-17,283,-56,-379,101,226,-14,-207,-334,-195,195,314,126,144,172,258,-205,248,-20,-262,-43
115949,56,349,481,-385,-302,103,-167,409,26,-145,-78,-26,254,-84,-394,70,167,-70,-246,-371,-209,146,270,78,112,158,225,-270,204,-93,-311,-97
115950,34,317,461,-386,-290,123,-184,457,27,-146,-76,35,268,-91,-424,15,144,-30,-244,-376,-234,147,301,97,110,156,200,-264,218,-80,-299,-63
115951,51,321,359,-370,-301,128,-224,503,49,-125,-83,82,305,-59,-418,6,204,-3,-224,-356,-238,135,376,141,133,172,185,-246,240,-40,-274,-51
115952,40,292,259,-365,-290,114,-260,483,50,-104,-103,52,314,-57,-414,6,216,26,-208,-342,-248,135,424,175,150,167,150,-229,271,-26,-273,-57
115953,0,279,260,-410,-305,97,-280,443,28,-125,-201,63,275,-76,-438,26,182,22,-204,-363,-243,132,352,146,145,150,189,-221,270,-31,-267,-86
115954,7,335,333,-372,-276,112,-229,474,43,-112,-100,117,275,-80,-428,-88,185,-1,-213,-373,-282,115,302,118,107,126,161,-229,222,-78,-334,-151
115955,36,309,380,-342,-287,88,-247,471,38,-156,-85,19,267,-89,-434,-332,180,-58,-231,-383,-313,85,301,93,86,84,131,-236,206,-99,-360,-147
115956,72,302,385,-372,-302,82,-276,429,18,-170,-118,-16,253,-96,-427,-267,178,-81,-217,-399,-303,102,281,71,69,97,110,-266,179,-95,-353,-144
115957,91,270,393,-389,-307,70,-309,459,32,-160,-138,-34,254,-108,-442,-86,122,-79,-244,-393,-307,92,243,62,50,107,119,-261,169,-107,-375,-167
115958,64,235,402,-389,-293,77,-289,455,25,-151,-113,-59,272,-97,-439,-17,116,-91,-233,-390,-310,-18,226,61,48,95,110,-295,144,-161,-434,-218
115959,71,246,415,-373,-300,87,-295,465,38,-147,-112,-54,312,-86,-456,-46,36,-62,-210,-406,-340,-7,237,57,38,92,97,-324,138,-134,-424,-187
115960,67,247,415,-395,-285,41,-394,461,37,-147,-146,-70,293,-94,-466,-180,-5,-65,-243,-404,-336,42,259,67,48,98,115,-335,138,-127,-407,-158
115961,102,260,413,-367,-280,87,-451,455,45,-127,-89,-126,275,-74,-420,-379,53,-77,-245,-372,-294,73,347,76,65,99,132,-358,136,-144,-381,-161
115962,104,261,350,-419,-291,96,-372,420,12,-143,-35,-146,251,-78,-415,-434,39,-105,-270,-404,-318,50,305,50,51,86,113,-376,118,-158,-412,-177
115963,35,187,284,-393,-325,54,-434,442,6,-160,-140,-70,225,-89,-440,-236,120,-127,-286,-409,-327,8,235,24,46,83,140,-348,111,-159,-386,-189
115964,23,119,255,-398,-323,54,-495,428,14,-136,-162,-38,248,-81,-441,-55,136,-102,-279,-371,-298,74,210,53,73,105,146,-325,139,-125,-361,-129
115965,30,53,325,-430,-331,53,-431,376,-4,-138,-151,-33,247,-59,-440,-3,120,-76,-272,-342,-276,111,268,59,83,134,206,-317,195,-86,-341,-124
115966,9,126,375,-372,-323,70,-338,421,16,-138,-175,-30,262,-84,-448,76,132,-45,-274,-349,-245,149,320,95,93,146,224,-273,248,-48,-319,-77
115967,-3,247,284,-395,-325,31,-316,417,5,-167,-204,-79,230,-95,-477,51,95,-80,-311,-397,-277,145,234,52,35,115,202,-276,159,-94,-309,-45
115968,22,281,305,-381,-308,56,-276,408,0,-160,-173,-74,225,-101,-484,38,82,-107,-289,-391,-274,134,179,43,51,134,232,-285,139,-75,-288,-5
115969,31,300,302,-406,-312,47,-279,399,-1,-160,-165,-69,226,-108,-486,59,69,-130,-309,-401,-278,122,183,57,51,95,220,-297,159,-86,-332,-38
115970,73,333,359,-391,-291,67,-248,421,23,-119,-143,-53,248,-83,-447,79,96,-75,-284,-380,-255,134,230,89,57,123,241,-265,186,-74,-293,1
115971,86,309,412,-390,-304,66,-268,418,17,-150,-141,-35,235,-87,-462,-15,124,-61,-280,-378,-266,102,256,95,49,140,223,-230,215,-49,-282,5
115972,58,296,333,-409,-322,54,-284,405,-3,-170,-172,-60,231,-95,-487,-73,130,-87,-300,-399,-304,109,269,103,51,107,185,-216,225,-59,-330,-76
115973,22,264,316,-403,-341,46,-289,386,-6,-180,-182,-88,224,-106,-474,-111,112,-101,-298,-403,-306,87,245,80,66,85,150,-259,190,-73,-310,-128
115974,55,262,387,-365,-314,48,-212,450,21,-149,-155,-14,250,-81,-458,-163,117,-85,-258,-395,-308,130,267,109,76,95,168,-268,176,-114,-346,-196
115975,66,302,419,-363,-306,51,-193,424,10,-128,-145,-9,218,-97,-451,-237,62,-102,-290,-414,-294,111,247,86,44,99,206,-283,187,-108,-326,-131
115976,61,297,442,-403,-301,59,-241,384,20,-114,-113,-61,213,-90,-424,-225,30,-103,-304,-406,-271,108,237,83,68,124,196,-297,184,-95,-315,-109
115977,83,325,471,-391,-288,53,-250,386,-5,-142,-112,-79,222,-101,-440,-188,53,-107,-309,-416,-310,87,259,70,44,102,145,-343,149,-159,-441,-180
115978,95,348,431,-384,-292,67,-248,370,-17,-155,-116,-104,208,-116,-475,-56,69,-119,-312,-435,-311,81,297,49,4,64,127,-370,134,-162,-425,-180
115979,133,394,400,-368,-289,90,-190,407,-1,-166,-130,-94,206,-102,-477,38,84,-108,-310,-418,-286,152,326,73,32,81,157,-356,147,-149,-370,-139
115980,159,395,413,-330,-274,105,-173,464,22,-144,-127,-73,232,-97,-473,62,96,-81,-277,-399,-261,150,243,76,60,106,194,-295,192,-117,-348,-130
115981,176,371,449,-292,-281,92,-192,514,13,-147,-126,-34,259,-94,-456,48,148,-87,-308,-415,-280,123,197,92,54,104,203,-231,203,-89,-347,-144
115982,144,336,513,-285,-292,89,-235,593,16,-165,-135,-75,260,-95,-453,49,199,-105,-315,-411,-304,83,223,80,51,65,164,-254,198,-107,-369,-121
115983,121,331,514,-318,-301,82,-239,520,1,-165,-91,-143,266,-96,-437,42,144,-110,-308,-421,-290,86,208,67,28,71,181,-254,211,-85,-338,-82
115984,101,341,418,-349,-302,90,-253,423,-8,-149,-100,3,227,-104,-458,63,97,-117,-309,-430,-307,100,184,40,12,67,171,-297,163,-128,-366,-108
115985,151,318,363,-343,-294,98,-295,461,-10,-139,-113,27,220,-103,-465,15,76,-114,-316,-442,-334,87,191,20,2,47,152,-323,137,-136,-382,-135
115986,164,284,423,-370,-299,94,-297,447,-16,-144,-142,20,199,-113,-479,-31,99,-132,-297,-450,-333,90,233,31,2,60,128,-276,161,-115,-364,-126
115987,109,324,429,-381,-286,120,-212,409,-18,-144,-119,83,205,-131,-484,16,112,-120,-299,-454,-313,126,256,42,1,58,172,-266,173,-107,-333,-97
115988,63,357,380,-338,-269,147,-161,442,-14,-121,-85,232,223,-118,-433,-15,155,-58,-285,-440,-283,161,289,61,34,113,251,-209,216,-73,-305,-48
115989,58,350,288,-353,-269,124,-147,482,-4,-113,-75,287,237,-107,-443,-239,171,-19,-281,-413,-278,183,334,90,40,123,228,-206,225,-53,-292,2
115990,74,367,300,-350,-275,97,-198,495,-9,-149,-109,189,257,-107,-449,-274,125,-23,-290,-417,-294,186,346,75,23,86,174,-223,213,-74,-289,-1
115991,23,347,353,-359,-273,74,-260,495,9,-134,-115,93,271,-83,-442,-153,120,-23,-253,-407,-277,170,377,97,49,109,198,-186,237,-52,-303,-32
115992,84,342,369,-367,-272,74,-321,451,0,-122,-97,-75,247,-77,-407,-155,204,-35,-248,-386,-232,165,374,102,62,131,203,-174,250,-57,-312,-67
115993,164,360,417,-379,-296,82,-323,432,2,-142,-90,-97,239,-92,-416,-301,175,-58,-274,-408,-231,156,316,73,39,119,249,-198,238,-64,-283,-7
115994,183,353,452,-414,-303,108,-300,400,-8,-135,-84,16,231,-99,-412,-266,157,-68,-286,-413,-261,123,256,62,40,110,261,-189,237,-74,-290,-39
115995,163,329,479,-415,-306,96,-360,386,-12,-145,-73,13,234,-99,-415,-94,90,-70,-279,-413,-268,67,283,72,32,92,167,-191,234,-92,-314,-104
115996,119,305,438,-391,-327,52,-352,414,-36,-157,-120,-46,229,-119,-460,11,127,-77,-297,-422,-305,28,277,71,10,71,157,-203,223,-78,-317,-131
115997,147,308,380,-313,-311,62,-284,492,-19,-158,-43,-75,230,-130,-476,73,205,-88,-312,-445,-335,75,245,48,-6,60,206,-196,198,-102,-329,-124
115998,162,327,378,-304,-285,86,-255,520,34,-140,-93,-36,275,-113,-454,156,160,-54,-315,-454,-303,132,304,57,4,73,214,-177,212,-116,-377,-128
115999,108,332,403,-338,-295,92,-229,471,3,-141,-139,-54,273,-121,-453,112,128,-32,-322,-456,-269,155,335,34,-11,61,255,-234,177,-130,-378,-100
116000,135,343,441,-367,-283,99,-210,453,-31,-125,-121,-23,253,-108,-442,64,190,-40,-305,-442,-260,168,391,36,-1,78,241,-207,220,-85,-321,-22
116001,151,353,486,-372,-296,84,-197,438,-31,-149,-128,-19,238,-94,-449,-7,230,-64,-301,-443,-256,227,342,43,20,100,278,-147,250,-45,-271,22
116002,156,380,430,-397,-300,74,-198,467,-27,-154,-103,31,225,-103,-417,-31,200,-96,-310,-421,-225,172,280,56,21,138,305,-129,268,-8,-267,8
116003,47,363,421,-390,-315,69,-293,450,-46,-150,-86,11,200,-111,-411,76,163,-106,-297,-400,-235,98,271,60,32,134,247,-146,242,-33,-286,-96
116004,42,353,457,-391,-317,69,-266,430,-45,-162,-78,-16,204,-108,-408,201,195,-92,-305,-387,-204,172,290,67,40,133,272,-178,218,-61,-292,-95
116005,139,351,486,-406,-317,74,-217,430,-22,-147,-83,-32,222,-84,-381,228,195,-91,-329,-377,-200,227,322,55,60,142,270,-185,244,-69,-309,-97
116006,172,334,493,-397,-300,74,-209,430,-38,-152,-121,-34,217,-99,-392,202,180,-91,-299,-375,-198,220,364,61,59,150,246,-186,231,-55,-277,-73
116007,132,317,379,-377,-303,83,-200,462,-27,-170,-103,-59,205,-92,-425,135,209,-110,-312,-392,-269,159,258,58,42,118,235,-217,219,-45,-278,-22
116008,148,365,308,-390,-292,93,-216,415,-9,-170,-118,3,216,-84,-436,121,246,-105,-314,-396,-274,153,209,65,59,119,236,-181,243,-45,-255,-4
116009,145,394,386,-337,-276,105,-217,445,-3,-154,-112,135,223,-94,-424,99,271,-69,-298,-383,-261,158,274,76,66,110,233,-145,267,-45,-282,-14
116010,142,393,452,-330,-287,77,-223,460,-5,-176,-128,33,235,-104,-436,75,251,-62,-286,-414,-264,149,322,71,47,105,205,-184,243,-42,-304,-23
116011,189,430,496,-336,-262,89,-193,493,18,-157,-118,-107,254,-103,-421,110,197,-64,-286,-421,-257,182,344,83,50,114,223,-204,271,-19,-254,-24
116012,193,411,513,-343,-264,100,-186,512,13,-148,-88,-34,255,-84,-417,12,193,-77,-277,-407,-255,211,297,73,63,118,247,-203,263,-26,-283,-26
116013,206,364,478,-341,-287,99,-187,519,3,-140,-86,15,259,-92,-424,-333,173,-74,-304,-394,-269,216,260,65,41,103,233,-234,239,-56,-285,-56
116014,188,335,475,-343,-276,126,-174,567,0,-142,-67,11,245,-111,-401,-458,138,-83,-293,-403,-245,216,273,51,18,112,242,-228,236,-52,-255,-26
116015,159,332,470,-353,-303,126,-174,411,-3,-150,-26,62,226,-118,-395,-296,182,-103,-306,-409,-229,175,254,51,-1,100,226,-231,245,-44,-246,-6
116016,165,362,432,-354,-294,110,-150,402,-9,-156,-14,52,211,-126,-374,-88,167,-104,-323,-405,-205,143,250,31,-3,118,265,-236,231,-53,-263,-13
116017,181,362,404,-345,-281,125,-162,450,-19,-147,-22,78,216,-138,-385,88,141,-110,-327,-403,-195,229,281,19,-2,146,312,-224,247,-9,-245,6
116018,184,382,400,-313,-263,146,-126,484,16,-125,-19,163,239,-108,-373,178,140,-80,-268,-378,-173,261,309,63,32,150,353,-191,291,19,-207,37
116019,171,394,429,-302,-232,158,-167,484,21,-126,-24,190,259,-89,-358,256,270,-34,-247,-374,-172,272,333,99,39,176,407,-189,312,41,-175,74
116020,136,381,360,-317,-265,158,-244,446,13,-150,-25,218,238,-101,-382,193,217,-71,-301,-400,-190,236,304,64,0,139,352,-207,289,23,-220,2
116021,153,427,379,-258,-257,176,-165,485,26,-140,-2,150,253,-102,-366,11,213,-68,-291,-402,-198,246,293,72,20,128,325,-219,278,27,-214,4
116022,145,444,394,-259,-244,171,-129,528,19,-146,-39,65,265,-97,-389,-76,174,-77,-275,-405,-216,256,272,50,20,140,302,-247,243,13,-194,6
116023,138,380,389,-288,-266,125,-128,569,5,-165,-83,-94,259,-127,-435,25,96,-100,-276,-434,-243,236,234,38,-8,112,261,-276,220,-23,-227,-28
116024,178,399,438,-283,-265,145,-54,554,36,-134,-44,-219,275,-106,-410,146,137,-76,-263,-423,-230,205,267,45,32,137,301,-274,266,12,-187,13
116025,205,411,488,-302,-258,157,-47,532,51,-140,-30,-129,321,-82,-381,243,138,-40,-205,-380,-174,218,365,83,70,196,371,-269,306,63,-138,57
116026,211,406,530,-318,-258,126,-67,520,19,-149,-57,-97,290,-91,-397,248,118,-62,-219,-382,-197,222,369,80,77,167,368,-286,308,54,-124,47
116027,192,443,559,-346,-272,147,-79,441,-11,-140,-2,-37,242,-116,-392,158,179,-110,-261,-413,-228,195,289,59,47,136,334,-263,274,4,-174,-15
116028,187,489,529,-336,-235,156,-113,450,6,-137,-12,-1,240,-98,-397,154,156,-118,-276,-390,-224,181,238,41,15,120,301,-280,208,-61,-306,-80
