,Fp1,Fp2,F7,F3,Fz,F4,F8,FC5,FC1,FC2,FC6,T7,C3,Cz,C4,T8,TP9,CP5,CP1,CP2,CP6,TP10,P7,P3,Pz,P4,P8,PO9,O1,Oz,O2,PO10
9363,48,4,198,37,-146,190,178,246,13,-193,-168,41,304,-148,-182,-186,-92,-95,-149,-267,-100,58,-79,66,33,41,-94,-86,79,74,-15,-93
9364,-21,17,186,59,-139,197,158,295,31,-173,-126,111,333,-127,-211,57,-42,-48,-116,-268,-139,54,-17,100,56,31,-102,25,119,93,5,-121
9365,-78,18,213,46,-143,179,123,276,13,-191,-185,168,336,-144,-230,5,-8,-35,-101,-271,-157,76,-24,112,74,24,-121,8,125,103,5,-193
9366,-52,19,258,6,-153,216,133,231,1,-167,-115,105,312,-157,-169,-73,-1,-74,-117,-268,-143,64,-67,85,46,33,-110,-115,78,86,-40,-212
9367,-28,8,237,1,-154,232,111,204,16,-160,-29,106,317,-145,-127,-68,55,-55,-101,-241,-63,115,-9,109,52,70,-47,-44,105,122,20,-129
9368,-35,-97,222,4,-159,256,91,190,14,-146,7,150,314,-150,-145,-30,2,-56,-122,-244,-31,140,26,103,32,56,-17,3,121,109,4,-139
9369,-8,-204,223,9,-165,282,40,219,7,-175,-112,211,305,-174,-178,-43,-111,-67,-153,-285,-87,65,-25,58,18,38,-55,-130,93,76,-24,-182
9370,3,-120,204,23,-157,249,66,253,27,-193,-195,280,328,-173,-226,-135,-54,-36,-144,-306,-132,30,9,68,13,23,-73,-248,90,66,-38,-207
9371,-9,-76,181,59,-149,240,74,277,36,-177,-117,246,336,-158,-216,-168,-30,-26,-154,-286,-107,67,21,78,4,42,-10,-132,91,85,-12,-296
9372,-24,-99,196,43,-156,297,58,287,27,-169,-76,117,308,-162,-194,-115,-50,-65,-172,-301,-78,50,-24,44,-24,41,62,-117,50,59,-52,-446
9373,-35,-125,218,57,-159,300,47,297,18,-156,-125,65,323,-173,-203,-135,-37,-91,-168,-301,-101,62,-51,20,-24,27,17,-139,58,50,-63,-259
9374,-31,-83,122,71,-128,246,14,292,24,-162,-161,44,326,-154,-203,-183,-48,-90,-165,-290,-93,104,-11,42,-1,47,58,-148,76,73,-24,-174
9375,-30,-62,120,44,-133,231,31,238,24,-170,-161,30,313,-143,-191,-135,-74,-84,-157,-285,-65,139,1,53,13,56,57,-164,39,65,-26,-144
9376,-71,-72,167,41,-152,200,36,218,2,-169,-127,31,312,-159,-201,-107,-69,-96,-166,-295,-97,104,-34,44,5,44,-43,-143,44,54,-34,-161
9377,-77,-92,131,22,-156,194,3,198,-6,-167,-62,10,296,-169,-176,-113,-38,-100,-175,-291,-82,98,-49,31,5,26,-31,-111,43,47,-61,-229
9378,-76,-57,147,23,-134,201,75,172,5,-167,-106,17,285,-169,-175,-154,-18,-94,-168,-278,-78,66,-39,36,11,36,-25,-94,35,43,-69,-164
9379,-75,-124,135,28,-138,218,44,184,-12,-157,-155,29,304,-152,-179,-130,-33,-100,-175,-281,-90,9,-41,29,-8,36,-71,-129,29,29,-81,-210
9380,-86,-182,101,14,-130,283,67,223,7,-132,-101,35,296,-159,-153,-150,-52,-107,-184,-272,-85,2,-36,36,-4,33,-51,-154,23,-1,-84,-251
9381,-71,-161,209,23,-139,295,-2,217,-10,-155,-122,50,278,-178,-165,-183,-69,-85,-203,-284,-104,9,-28,11,-26,15,-107,-152,40,-5,-110,-163
9382,-32,-35,234,9,-149,241,-5,189,-23,-163,-140,19,260,-179,-177,-186,-101,-91,-201,-285,-116,6,-32,15,-37,3,-126,-134,39,2,-108,-133
9383,-7,47,217,5,-119,200,24,186,-21,-161,-136,52,273,-169,-161,-160,-89,-85,-199,-276,-77,71,-17,25,-28,46,-88,-85,41,20,-97,-179
9384,2,75,281,29,-116,201,92,183,-11,-149,-98,75,284,-155,-145,-151,-66,-77,-187,-251,-48,78,-24,38,3,68,-39,-107,57,48,-44,-161
9385,0,48,286,29,-133,196,103,169,-6,-166,-93,90,283,-157,-135,-129,-46,-66,-174,-235,-40,79,-8,42,17,85,-2,-100,82,73,-8,-155
9386,-2,-4,260,8,-129,200,134,144,15,-172,-111,100,307,-143,-132,-124,-40,-50,-160,-221,-31,69,-8,62,30,109,-2,-99,79,101,8,-129
9387,0,4,267,22,-114,218,158,192,0,-158,-100,123,320,-114,-116,-106,18,-25,-148,-211,-21,119,14,83,47,140,12,-53,113,142,50,-69
9388,12,37,263,47,-120,223,158,206,8,-160,-102,127,294,-123,-103,-76,-4,-17,-126,-209,-14,157,40,102,68,150,41,-36,151,164,69,-44
9389,18,67,292,60,-111,185,162,233,15,-186,-103,152,328,-126,-119,-81,-10,-11,-131,-215,-15,160,75,119,63,139,36,-46,139,156,59,-60
9390,23,54,283,64,-124,212,110,256,21,-173,-112,211,342,-123,-122,-48,46,18,-108,-206,0,199,113,149,95,160,64,-6,185,184,79,-30
9391,26,-13,269,61,-121,267,84,234,21,-149,-96,202,343,-142,-109,-60,66,21,-109,-192,14,218,125,148,107,170,86,-17,182,198,89,-29
9392,25,-28,248,65,-115,242,75,239,15,-157,-85,145,330,-151,-92,-183,58,11,-124,-202,62,192,115,129,80,163,65,-46,156,174,81,-42
9393,-15,-23,221,68,-124,245,6,249,8,-153,-63,133,308,-161,-107,-236,57,-4,-152,-223,58,121,109,98,51,140,33,-64,146,143,33,-75
9394,-47,-60,173,84,-134,290,-42,225,15,-151,-49,98,310,-163,-123,-64,-4,-60,-160,-237,26,88,68,69,42,117,19,-83,95,104,-6,-98
9395,-38,-89,199,56,-147,250,-82,252,9,-146,-1,151,297,-175,-169,67,-54,-74,-161,-255,-65,83,35,59,20,79,1,-105,89,71,-26,-98
9396,-47,-147,204,77,-120,285,-69,307,36,-158,18,202,310,-162,-171,-70,-46,-34,-152,-260,-79,83,30,80,30,73,8,-79,122,98,-8,-120
9397,-27,-73,198,115,-114,250,-63,304,42,-164,17,211,339,-147,-140,-200,-16,-8,-128,-220,0,114,46,106,55,112,63,-55,144,127,28,-89
9398,-8,-54,224,105,-118,239,-9,260,39,-158,-77,158,323,-163,-147,-297,-1,-23,-126,-224,51,79,63,124,78,135,65,-79,151,123,19,-105
9399,-6,-94,246,100,-98,214,52,284,16,-162,-231,137,334,-168,-179,-95,-5,-9,-113,-230,47,52,83,119,81,128,98,-129,135,128,18,-138
9400,-56,-87,197,95,-117,190,10,277,7,-169,-94,109,319,-157,-149,91,65,4,-119,-244,23,81,124,130,88,141,116,-109,161,148,38,-181
9401,-71,-71,144,66,-125,196,83,250,8,-170,-49,45,320,-167,-149,32,90,14,-110,-235,1,153,151,157,96,137,115,-73,172,150,75,-174
9402,-62,-103,163,64,-116,192,79,232,-11,-153,-54,85,328,-167,-120,-75,29,36,-87,-218,30,87,191,170,119,145,71,-109,216,183,89,-129
9403,-3,-68,196,84,-132,209,54,256,5,-155,-187,150,369,-132,-146,-25,-19,77,-50,-186,57,97,227,206,168,199,147,-113,256,230,138,-156
9404,7,-75,97,44,-126,232,89,231,12,-166,-194,101,369,-125,-176,6,0,66,-63,-182,48,152,215,209,180,219,194,-84,237,234,129,-96
9405,-37,-52,69,12,-140,212,25,274,-3,-163,-186,95,360,-132,-200,-37,12,57,-58,-196,3,84,200,187,158,179,120,-79,223,233,109,-121
9406,-85,-51,5,52,-153,229,65,289,0,-150,-143,77,349,-132,-180,-127,-32,30,-74,-206,-9,77,148,165,150,148,95,4,233,182,73,-199
9407,-82,-73,23,98,-150,204,60,349,-2,-161,-164,74,366,-128,-175,-79,13,30,-57,-196,11,103,137,175,151,168,137,14,236,191,96,-109
9408,-81,-92,85,99,-148,211,-13,425,22,-158,-187,93,379,-114,-174,-27,-13,20,-65,-186,32,89,84,152,133,176,197,-133,194,198,120,-137
9409,-83,-83,157,83,-144,258,53,413,10,-161,-129,144,369,-122,-159,-34,-19,30,-73,-192,12,75,91,147,137,172,149,-111,189,194,91,-102
9410,-24,4,219,80,-133,235,40,298,4,-168,-146,280,379,-131,-180,-93,-8,65,-70,-197,-46,45,158,163,119,125,-68,-86,193,172,62,-41
9411,9,39,169,51,-145,213,64,248,11,-183,-153,238,369,-130,-181,-122,26,84,-66,-204,-26,146,157,186,143,132,-16,-118,193,177,79,18
9412,-16,-14,169,55,-134,244,88,268,13,-179,-105,108,364,-119,-158,-158,33,70,-62,-210,-8,119,142,182,133,136,32,-104,177,161,63,-142
9413,-16,-64,223,68,-154,197,50,226,4,-166,-134,58,355,-109,-157,-293,15,21,-67,-186,40,156,81,161,136,158,132,-53,167,144,67,-142
9414,2,-94,255,67,-155,286,36,238,4,-161,-166,76,361,-118,-145,-211,-42,19,-63,-174,38,196,56,156,132,166,93,12,164,165,87,-8
9415,3,-36,280,45,-170,294,51,218,-6,-146,-125,74,338,-122,-151,67,-66,5,-74,-197,2,207,8,150,136,152,48,18,152,162,75,83
9416,43,6,306,9,-155,322,98,166,-4,-140,-7,88,319,-123,-141,66,-13,6,-87,-186,-41,224,41,143,128,159,53,97,188,173,71,159
9417,68,33,315,1,-145,290,94,137,-16,-137,-6,115,343,-109,-112,5,70,7,-73,-169,24,288,76,150,161,203,136,117,215,233,121,256
9418,61,42,324,21,-143,221,66,176,10,-153,-81,161,373,-117,-129,10,61,26,-55,-166,37,244,92,159,151,183,84,-49,188,210,102,69
9419,-21,34,281,15,-170,197,61,202,-12,-166,-57,151,347,-125,-117,40,54,33,-75,-170,48,256,137,159,120,164,95,-114,192,186,100,62
9420,29,30,327,29,-148,251,40,260,10,-151,-32,235,394,-89,-102,3,80,104,-45,-155,73,294,230,210,166,192,114,-61,247,240,145,65
9421,51,-42,292,31,-149,255,-5,239,15,-130,6,234,405,-97,-89,-64,51,76,-37,-157,69,233,194,221,156,199,91,8,243,242,141,-14
9422,-35,-90,146,-34,-174,208,-32,160,7,-154,20,128,352,-109,-83,-47,16,17,-49,-138,71,184,102,198,133,203,128,-3,224,236,120,-144
9423,-81,-94,51,-48,-196,212,-5,133,0,-143,-6,47,344,-76,-88,-5,-35,-2,-43,-124,104,112,42,183,175,234,161,4,217,234,137,-47
9424,-94,-114,33,-34,-201,202,48,162,2,-156,-70,74,353,-74,-99,27,-43,18,-43,-147,87,77,45,172,169,200,100,-2,206,200,115,-14
9425,-73,-117,70,-7,-186,185,123,193,-8,-183,-154,98,344,-100,-147,4,-14,27,-59,-169,35,145,43,168,130,175,112,45,210,206,103,44
9426,-36,-77,175,11,-186,124,102,246,2,-202,-181,135,365,-116,-195,-34,13,36,-50,-201,17,197,55,178,109,166,125,82,215,184,87,-59
9427,-2,-6,309,51,-188,69,70,298,0,-230,-249,172,367,-145,-213,-137,23,24,-82,-221,-42,171,80,166,86,115,43,-53,182,127,14,-160
9428,-19,-37,341,58,-168,120,69,267,17,-198,-231,212,378,-114,-179,-85,10,58,-70,-200,-14,164,148,193,106,127,37,-115,204,151,54,-74
9429,3,-34,340,51,-161,209,61,268,16,-159,-154,249,387,-104,-156,-42,28,57,-62,-198,-12,139,123,178,106,141,41,-96,210,162,76,21
9430,8,-49,291,39,-167,187,75,258,7,-178,-148,224,353,-131,-179,-66,73,39,-77,-223,-25,147,136,185,101,122,43,-91,214,208,113,88
9431,-18,-153,233,20,-163,213,16,243,0,-173,-161,181,352,-101,-167,-96,65,59,-47,-192,-11,170,187,223,127,137,114,137,300,238,151,87
9432,-70,-179,211,-27,-187,210,-53,208,-18,-170,-144,210,341,-122,-160,-142,5,25,-70,-189,-39,36,111,186,120,132,57,0,249,210,119,-59
9433,-64,-154,262,-8,-190,185,-60,230,-11,-169,-66,245,336,-132,-170,-117,0,17,-97,-203,-27,62,30,160,91,102,29,-155,149,173,52,-111
9434,4,-132,349,10,-178,162,22,245,-4,-188,-84,237,353,-129,-172,-88,43,11,-119,-217,-31,130,36,123,58,107,40,-157,148,126,22,-159
9435,1,-160,323,34,-178,175,-10,248,16,-174,-139,197,348,-122,-168,-65,68,23,-106,-213,-15,198,71,141,77,109,78,7,182,151,39,-261
9436,-39,-94,232,12,-195,157,19,255,9,-183,-158,157,343,-120,-176,-58,33,12,-92,-197,1,234,57,131,69,137,160,46,177,183,80,-217
9437,-79,-120,220,4,-206,196,34,281,-6,-181,-91,204,347,-131,-148,-5,23,5,-102,-195,22,161,19,114,81,146,196,-56,181,221,127,-3
9438,-62,-155,275,26,-195,207,56,284,-11,-185,-89,236,343,-132,-144,-61,19,37,-101,-201,10,130,91,144,83,126,129,-54,209,206,123,59
9439,-69,-187,281,28,-187,190,41,275,-3,-170,-73,173,356,-108,-120,-267,-62,46,-78,-182,61,82,129,179,96,146,136,-29,263,265,168,61
9440,-111,-229,256,9,-196,188,54,258,0,-167,-45,134,355,-99,-98,-79,13,48,-59,-146,127,118,138,166,111,204,322,71,285,272,173,-212
9441,-143,-271,253,1,-205,182,29,259,-9,-164,7,147,314,-114,-88,116,67,13,-105,-160,143,147,95,127,73,186,478,56,182,124,20,-438
9442,-102,-261,331,42,-185,154,-2,278,19,-183,-125,244,358,-116,-162,-68,107,37,-95,-204,3,22,139,143,44,85,106,-10,193,112,22,-89
9443,-111,-257,345,30,-165,199,-33,283,15,-163,-113,261,369,-97,-150,-36,106,52,-74,-194,-2,145,214,165,59,93,-61,133,298,227,154,237
9444,-127,-246,326,35,-183,181,-43,284,12,-180,-79,270,355,-109,-178,41,97,42,-96,-206,-50,135,205,168,55,95,3,241,291,250,143,35
9445,-74,-223,332,48,-165,181,-58,293,14,-172,-112,272,374,-107,-198,-52,81,37,-110,-215,-70,129,154,149,59,102,93,241,262,241,130,-221
9446,-39,-185,397,82,-156,172,9,326,27,-174,-74,299,370,-120,-153,-47,71,0,-140,-233,-39,181,4,79,6,38,-12,-20,80,49,-71,-292
9447,-92,-154,282,94,-173,168,-12,309,14,-181,-43,220,326,-141,-157,-129,-28,-50,-152,-250,-64,74,-20,44,-15,16,-78,-67,95,23,-97,-315
9448,-145,-140,92,79,-176,190,53,292,4,-177,19,164,335,-123,-132,-65,63,-37,-147,-222,-15,123,56,43,-9,50,-56,-29,106,50,-39,-14
9449,-120,-118,140,58,-172,217,68,338,21,-174,55,208,329,-131,-159,70,182,7,-156,-223,-18,155,147,88,-6,22,-71,-105,112,44,-51,-80
9450,-99,-64,257,72,-156,186,51,381,16,-195,-140,314,362,-156,-227,30,223,61,-130,-251,-73,201,216,114,12,26,-34,-179,128,50,-47,-49
9451,-104,-105,274,51,-176,194,15,353,3,-217,-180,339,373,-156,-244,-87,171,63,-122,-271,-99,181,259,120,0,2,-90,-93,147,46,-49,-99
9452,-112,-202,274,31,-173,252,-50,275,7,-197,-95,288,314,-137,-224,-106,92,2,-150,-269,-91,138,129,74,-33,-4,-125,-187,69,5,-91,-197
9453,-127,-286,310,7,-163,321,-36,174,-37,-157,-13,129,278,-148,-177,-130,-12,-64,-167,-260,-59,198,-58,11,-19,44,28,-187,38,40,-54,-181
9454,-87,-199,279,11,-157,241,-33,175,-27,-163,-15,57,259,-131,-177,-104,-18,-95,-172,-238,-47,158,-77,7,-7,55,89,-167,26,73,-24,-108
9455,-61,-134,192,26,-168,169,4,325,-8,-170,-85,136,298,-122,-192,-148,55,-50,-152,-243,-61,113,-13,57,10,47,1,-34,95,120,12,25
9456,-84,-184,223,2,-194,130,18,442,-5,-200,-159,169,304,-149,-203,-159,-34,-46,-144,-253,-54,184,-19,65,23,52,23,74,102,134,47,49
9457,-153,-134,212,29,-190,96,42,401,-18,-210,-181,132,301,-142,-204,-113,13,-59,-132,-216,-34,233,-20,71,47,90,69,12,108,166,73,82
9458,-214,-124,219,10,-186,167,86,249,-24,-185,-92,58,268,-130,-187,-138,59,-79,-141,-230,-47,209,-37,59,28,69,-11,-19,74,89,-10,-65
9459,-150,-143,275,31,-168,257,128,191,0,-166,-102,94,277,-111,-174,-137,77,-68,-139,-238,-61,128,-45,55,33,49,-110,5,75,46,-53,-223
9460,-102,-134,322,36,-163,253,55,192,-14,-166,-113,106,291,-124,-176,-109,2,-79,-140,-224,-60,134,-106,32,19,44,-106,-64,39,47,-63,-183
9461,-100,-164,347,21,-170,222,53,136,-24,-176,-58,82,253,-156,-173,-144,-73,-106,-170,-258,-73,136,-137,-12,-8,12,-98,-113,-3,11,-103,-224
9462,-108,-159,333,33,-164,178,55,190,-5,-155,-25,133,284,-121,-159,-89,-18,-94,-125,-236,-41,94,-118,25,18,48,-55,-46,39,40,-59,-183
9463,-81,-108,278,39,-156,170,72,212,18,-175,-151,141,302,-113,-198,-19,37,-53,-110,-231,-54,126,-46,66,33,62,18,23,93,65,-37,-333
9464,-70,-107,296,42,-181,142,116,196,21,-215,-237,128,331,-130,-227,-50,35,-35,-99,-227,-57,143,-25,80,47,66,83,16,101,90,-9,-264
9465,-69,-122,386,67,-154,135,66,250,32,-198,-136,184,382,-117,-194,-89,56,8,-91,-209,-37,96,18,108,55,75,-22,18,128,107,6,-26
9466,-35,-147,424,80,-150,178,34,296,36,-176,-103,207,388,-116,-180,-36,84,19,-102,-222,-48,120,55,110,63,59,-81,-6,142,123,24,108
9467,-79,-221,381,38,-182,217,-25,265,18,-195,-52,212,376,-118,-191,-158,72,23,-99,-233,-83,128,98,101,48,42,-94,30,170,102,21,5
9468,-111,-247,375,65,-169,210,-59,268,33,-183,-112,289,377,-101,-174,-304,76,35,-87,-224,-52,126,92,113,46,50,-114,-10,170,98,1,-110
9469,-96,-255,361,74,-151,228,-25,276,37,-173,-145,278,361,-104,-172,-316,143,27,-95,-223,-36,81,100,116,60,49,-128,-1,144,102,24,-156
9470,-99,-253,369,76,-173,187,7,315,30,-196,-135,280,364,-119,-187,-106,132,15,-88,-248,-79,92,119,112,62,49,-100,52,176,127,49,-119
9471,-59,-166,398,91,-156,158,12,329,29,-185,-129,304,382,-124,-208,-25,94,27,-88,-254,-121,110,118,91,49,36,-71,-3,156,129,27,-63
9472,-24,-146,423,110,-151,124,1,331,41,-185,-132,327,394,-115,-208,-331,156,71,-71,-228,-63,108,179,119,80,69,-27,52,191,173,68,3
9473,-68,-171,340,103,-189,139,41,341,25,-188,-121,241,384,-107,-194,-267,229,68,-75,-194,2,104,214,139,101,94,19,-4,208,195,93,-70
9474,-148,-162,283,141,-208,133,-7,361,23,-204,-151,193,381,-123,-186,0,180,32,-90,-206,-4,136,200,112,82,83,107,-166,154,122,13,-396
9475,-174,-123,274,145,-183,177,-21,446,52,-202,-60,251,415,-115,-173,70,208,86,-64,-210,-35,117,346,162,85,92,120,-312,197,125,20,-326
9476,-107,-204,237,96,-167,181,-5,451,47,-199,-71,276,429,-130,-179,-8,218,157,-45,-216,-45,77,451,201,98,70,-7,-266,229,143,42,-257
9477,-101,-161,265,93,-200,162,48,414,39,-211,-178,261,441,-145,-225,-43,173,129,-51,-219,-51,77,397,208,90,77,-13,-144,258,178,73,-148
9478,-89,-125,318,104,-181,148,72,401,29,-206,-129,231,422,-122,-198,-37,163,72,-52,-198,-49,59,242,167,98,81,-40,-25,254,225,117,-3
9479,-30,-135,412,90,-166,195,60,399,38,-188,-92,242,421,-116,-159,-32,148,41,-64,-207,-33,99,126,133,100,88,9,0,209,231,115,0
9480,-49,-164,423,54,-179,184,35,317,2,-187,-89,212,372,-136,-183,-92,14,-3,-102,-256,-86,80,26,90,50,66,-55,-42,130,162,66,-93
9481,-26,-167,379,53,-155,208,45,283,13,-183,-35,174,355,-147,-164,-72,40,0,-104,-252,-75,160,20,89,33,56,-69,-103,109,129,44,-97
9482,-70,-159,284,32,-175,144,11,302,10,-200,-128,154,351,-145,-193,-144,46,-8,-108,-262,-106,155,16,89,50,49,-85,2,156,159,84,-41
9483,-89,-151,242,45,-183,121,13,347,27,-212,-173,229,398,-129,-216,-158,30,25,-84,-256,-106,118,69,134,71,52,-59,160,248,248,182,-23
9484,-121,-168,282,69,-163,121,36,405,51,-198,-147,299,410,-116,-213,-177,43,46,-63,-230,-71,145,92,161,93,78,11,274,307,332,232,92
9485,-126,-122,312,81,-153,119,82,387,40,-210,-153,303,401,-130,-203,-183,50,53,-59,-226,-62,156,107,163,109,92,41,224,279,292,193,47
9486,-66,-115,290,47,-156,148,123,318,27,-200,-138,267,368,-122,-195,-140,19,20,-72,-228,-34,157,83,154,98,108,116,19,210,244,151,14
9487,-51,-120,384,61,-172,131,102,334,19,-193,-124,341,383,-113,-207,-135,49,41,-78,-227,-42,146,83,140,94,97,73,-27,221,271,177,26
9488,-60,-140,400,76,-204,114,62,285,-1,-215,-134,241,356,-136,-209,-123,61,20,-108,-245,-43,140,78,118,77,85,26,-90,198,251,142,58
9489,-89,-168,367,71,-190,131,32,332,13,-204,-168,296,359,-128,-215,-118,27,16,-105,-240,-63,93,90,118,63,67,-24,-180,169,229,111,33
9490,-131,-214,352,52,-186,178,-17,370,11,-193,-148,212,349,-140,-207,-160,79,-6,-134,-270,-105,50,104,67,27,31,-87,-156,110,130,27,-120
9491,-129,-278,346,70,-185,240,-26,340,11,-170,-117,134,328,-154,-209,-86,108,-21,-153,-265,-88,66,79,57,36,45,-52,-26,99,128,39,-52
9492,-119,-343,319,55,-181,277,10,296,12,-175,-92,164,321,-155,-206,-64,113,-13,-142,-265,-54,42,105,99,50,69,0,-13,187,223,129,17
9493,-115,-341,332,41,-191,306,-29,281,4,-182,-80,162,332,-162,-208,-163,89,-18,-153,-275,-58,2,82,85,9,63,53,-18,167,191,104,-141
9494,-125,-351,334,57,-172,280,-50,275,14,-181,-54,151,336,-145,-183,-115,26,-24,-146,-247,2,0,41,74,5,103,195,-58,140,174,69,-210
9495,-194,-365,322,30,-176,195,-103,296,-4,-175,-40,143,327,-147,-164,-161,67,-12,-150,-239,33,-72,56,64,-4,70,158,-21,113,103,-28,-382
9496,-170,-250,359,52,-168,152,-38,325,31,-191,-88,181,353,-161,-197,-232,106,7,-143,-273,-21,-13,50,69,-23,21,-23,-15,69,41,-82,-273
9497,-117,-202,373,74,-173,193,41,312,27,-212,-140,214,337,-178,-266,-143,72,12,-158,-314,-118,43,69,56,-54,-20,-151,-13,67,-36,-156,-480
9498,-61,-215,348,41,-184,170,0,335,13,-209,-127,258,344,-158,-289,1,114,29,-175,-317,-159,174,125,46,-56,-29,-71,-397,37,-20,-127,-243
9499,-38,-151,330,50,-169,143,-14,395,26,-205,-108,278,380,-143,-274,-90,242,96,-138,-294,-186,177,286,126,-17,-28,-160,-147,113,67,-37,34
9500,-68,-120,277,41,-182,142,64,373,26,-191,-9,252,351,-150,-220,-137,136,85,-138,-271,-113,178,241,130,-5,22,-75,-4,172,102,-16,54
9501,-70,-78,278,61,-180,135,66,363,-7,-183,-38,254,345,-153,-232,-101,69,59,-132,-270,-84,192,196,89,-8,47,-21,-47,150,111,5,65
9502,-52,-12,298,53,-178,136,123,341,7,-196,-94,242,319,-160,-234,-96,83,7,-155,-285,-99,131,101,50,-11,31,-49,41,121,91,-15,-2
9503,-25,-39,352,1,-175,123,127,324,0,-214,-206,239,310,-182,-247,-158,73,-32,-177,-291,-116,95,5,30,-15,24,-50,11,104,113,-3,-77
9504,-32,-63,352,10,-162,154,88,321,-12,-195,-158,282,320,-167,-228,-140,34,-3,-167,-266,-57,143,-5,53,1,67,89,19,104,128,31,-232
9505,-39,-74,377,55,-137,173,113,351,25,-185,-192,363,349,-139,-205,-51,43,19,-152,-248,1,228,8,64,13,96,223,-48,95,114,20,-107
9506,-47,-89,382,40,-150,163,108,343,13,-197,-144,385,342,-152,-213,-43,90,30,-169,-250,-14,213,73,68,11,54,113,-38,120,109,6,-13
9507,-26,-82,354,16,-161,203,119,317,2,-177,-95,277,330,-139,-173,1,80,24,-147,-248,21,196,83,83,35,82,122,-59,167,149,54,-82
9508,-58,-130,281,35,-156,229,95,352,-5,-165,-79,197,324,-151,-174,48,115,9,-159,-258,41,77,81,78,20,95,156,-26,159,167,57,-36
9509,-73,-133,271,37,-172,247,61,370,-26,-146,-41,138,302,-173,-172,106,94,-36,-177,-258,16,53,31,36,-21,68,88,-3,95,125,17,-1
9510,-25,-152,292,33,-163,301,50,354,-20,-138,-58,175,306,-175,-196,64,109,-39,-179,-279,-21,54,42,15,-41,42,2,-23,81,105,14,18
9511,-27,-146,345,67,-182,331,68,376,-20,-140,-46,211,303,-175,-188,-3,124,-12,-176,-277,-29,131,47,43,-35,34,-47,-2,112,103,12,28
9512,-64,-110,384,55,-187,281,83,336,-32,-143,-17,206,301,-170,-164,-136,130,-10,-174,-282,-14,206,64,43,-26,46,-22,-2,120,112,21,12
