,Fp1,Fp2,F7,F3,Fz,F4,F8,FC5,FC1,FC2,FC6,T7,C3,Cz,C4,T8,TP9,CP5,CP1,CP2,CP6,TP10,P7,P3,Pz,P4,P8,PO9,O1,Oz,O2,PO10
70975,94,-38,258,84,22,286,-27,441,193,140,234,-238,254,247,152,175,-308,-2,205,165,-120,18,-43,174,199,229,168,-34,72,-208,-62,-6
70976,50,-76,235,84,9,256,-66,422,186,134,204,-240,258,246,143,152,-333,0,227,158,-117,-12,-10,214,233,266,198,95,175,-78,32,123
70977,52,-86,227,93,8,256,-76,410,203,152,201,-238,264,270,162,156,-347,14,241,179,-126,-1,7,247,249,266,191,96,171,-86,21,139
70978,71,-72,245,89,19,273,-91,404,197,156,209,-246,281,267,152,136,-404,2,250,165,-145,-92,-20,249,251,257,178,50,150,-119,-27,49
70979,71,-73,247,90,21,271,-108,420,202,140,187,-252,296,258,141,128,-418,28,264,173,-137,-150,-19,255,252,269,169,91,190,-98,0,65
70980,81,-57,249,99,33,284,-79,428,235,145,210,-237,345,267,162,144,-412,26,275,174,-123,-73,-16,249,265,277,213,93,152,-148,-29,30
70981,70,-106,226,80,8,246,-108,413,216,145,183,-259,331,268,165,140,-425,42,278,191,-104,-42,19,284,295,325,269,173,250,-3,113,187
70982,94,-69,237,98,1,251,-100,421,231,166,201,-250,349,288,177,134,-445,56,268,182,-97,-39,7,275,291,311,245,126,227,-28,72,163
70983,112,-42,270,125,0,246,-88,434,245,137,195,-227,366,278,143,131,-426,39,279,174,-134,-82,-2,258,254,262,208,66,205,-82,-1,-4
70984,91,-55,259,113,0,233,-110,424,228,128,168,-222,383,276,145,139,-421,68,298,176,-102,-96,45,304,285,314,270,176,310,34,125,271
70985,94,-56,234,117,17,233,-102,429,241,141,182,-212,433,296,156,156,-400,107,316,210,-82,-84,90,340,322,348,341,255,385,48,194,545
70986,88,-54,254,137,3,221,-93,463,260,135,182,-188,454,295,175,158,-392,139,337,216,-68,-102,141,383,349,369,374,358,445,134,242,589
70987,100,-53,285,150,5,216,-84,488,257,116,155,-164,457,251,143,137,-332,148,321,163,-134,-99,122,365,320,289,232,272,377,35,68,66
70988,113,-49,323,175,24,231,-91,525,258,116,145,-118,481,243,122,110,-274,170,316,149,-162,-102,172,368,299,235,123,312,368,11,-23,-387
70989,143,-43,359,183,28,249,-81,548,260,123,148,-87,491,244,108,100,-290,166,302,136,-150,-78,161,354,288,250,137,294,371,12,-35,-318
70990,157,-28,365,183,28,246,-58,520,255,111,157,-96,462,241,125,156,-302,170,303,136,-143,-3,157,343,298,285,197,237,319,-29,-13,-169
70991,182,-13,380,196,45,274,-27,557,260,142,207,-92,494,257,156,181,-271,207,332,155,-104,0,204,410,349,333,253,400,445,99,132,15
70992,174,-13,382,191,42,291,-3,593,263,135,221,-62,510,247,146,178,-211,219,342,159,-79,-39,209,436,362,327,256,501,509,163,187,56
70993,136,-25,374,180,16,282,22,547,262,124,230,-94,489,236,140,187,-211,213,341,152,-97,23,183,415,350,329,292,429,468,127,184,114
70994,108,-50,359,176,24,265,-47,536,254,126,209,-104,478,224,118,161,-205,167,316,145,-114,44,144,366,327,307,303,244,368,67,145,171
70995,104,-50,324,160,24,255,-102,546,235,108,168,-95,481,211,96,126,-232,161,274,91,-144,24,127,347,283,276,264,248,371,79,156,217
70996,102,-59,322,153,8,242,-99,535,233,123,151,-92,446,209,76,98,-271,171,273,83,-156,-32,134,360,267,255,261,404,442,137,188,221
70997,106,-74,307,166,21,259,-105,549,253,137,182,-109,457,214,88,104,-291,162,281,90,-142,-21,132,351,277,264,260,366,463,192,209,244
70998,104,-79,295,149,19,282,-87,529,239,140,197,-111,435,201,99,132,-314,140,247,76,-117,-7,106,332,261,283,304,296,434,170,235,350
70999,101,-85,316,165,46,293,-64,541,241,136,207,-81,439,196,100,165,-277,154,226,77,-143,25,104,333,255,245,299,326,383,72,143,257
71000,120,-56,348,184,61,309,-49,564,240,142,201,-78,440,204,116,185,-254,170,235,60,-162,56,110,331,240,239,244,405,406,64,87,87
71001,145,-20,360,174,62,311,-45,551,232,146,205,-94,411,209,117,139,-277,136,235,73,-122,13,102,308,241,271,274,364,403,92,161,219
71002,167,-24,364,182,73,320,-29,534,231,162,222,-106,402,199,105,114,-270,109,197,52,-143,30,66,287,225,229,252,244,328,36,66,54
71003,135,-37,346,149,59,314,-21,520,217,149,220,-127,374,193,90,146,-269,89,171,49,-155,37,52,252,215,201,246,148,276,-16,10,38
71004,122,-52,321,117,48,300,-64,496,205,132,191,-127,323,181,80,109,-262,51,158,34,-166,-51,60,230,198,174,211,208,271,-68,-45,128
71005,131,-36,317,115,63,317,-37,490,200,150,230,-134,312,181,92,179,-300,23,151,52,-143,41,30,203,174,202,266,140,220,-81,4,270
71006,129,-41,285,115,57,322,-27,454,184,164,228,-179,282,173,108,234,-307,1,130,48,-114,82,-14,156,151,199,286,85,163,-117,4,284
71007,120,-52,262,135,59,303,-31,454,162,150,218,-162,289,183,123,210,-293,35,132,45,-98,72,30,210,183,209,289,199,237,-6,59,264
71008,141,-40,288,123,51,287,-32,467,179,141,214,-167,281,159,109,179,-298,13,127,55,-109,36,52,204,175,197,233,239,291,5,41,111
71009,150,-17,332,158,66,305,-29,488,202,146,241,-122,312,177,117,170,-287,49,161,69,-99,0,95,229,204,211,238,326,367,71,103,53
71010,142,-21,312,130,56,315,-27,480,175,126,257,-122,296,165,117,154,-269,43,119,44,-107,-6,93,216,185,211,269,292,337,53,110,103
71011,174,-9,347,134,71,319,-6,506,172,143,246,-98,306,151,121,189,-235,63,128,52,-89,9,115,220,175,238,313,275,311,33,89,181
71012,192,-2,373,182,77,322,4,521,189,163,236,-62,300,159,126,200,-199,73,135,55,-89,18,159,226,157,212,257,311,296,-17,38,127
71013,164,-23,380,155,65,318,-14,514,177,161,217,-59,299,166,112,204,-219,94,146,49,-87,28,161,245,165,228,278,346,344,60,112,247
71014,180,3,380,138,62,325,8,501,178,133,242,-61,276,144,109,213,-233,89,129,39,-91,42,130,221,130,182,271,248,277,-6,37,231
71015,200,-7,404,141,66,314,27,503,184,137,245,-37,273,145,136,234,-226,87,104,54,-70,89,142,216,108,176,290,255,244,-64,-3,314
71016,190,-15,406,149,71,322,36,513,177,155,243,-13,292,144,155,246,-216,125,122,46,-56,90,176,233,122,196,290,329,279,-70,-5,239
71017,192,4,410,151,84,330,44,519,191,170,258,-12,320,166,155,268,-172,170,154,52,-50,99,249,282,164,213,274,492,362,-16,-5,87
71018,145,-37,373,133,52,307,21,518,185,159,258,-7,328,189,163,271,-145,179,172,97,-29,94,301,323,193,250,315,621,471,100,94,192
71019,131,-63,348,122,37,296,10,518,179,144,253,-10,329,195,170,273,-154,184,191,114,-13,102,284,324,196,276,375,576,450,145,173,429
71020,119,-91,355,111,41,297,19,503,179,141,242,-31,325,187,148,267,-174,151,144,104,-22,95,212,269,159,250,345,303,308,16,83,354
71021,125,-88,376,118,51,294,-1,522,185,147,231,-15,320,174,163,282,-155,139,151,87,-26,88,207,252,146,212,289,149,223,-84,-17,57
71022,132,-88,364,107,33,302,-29,520,177,153,233,-15,325,177,161,302,-135,135,153,81,-19,126,175,238,141,221,313,157,169,-128,-52,69
71023,129,-70,358,98,34,327,34,510,183,169,281,-33,346,192,183,334,-137,169,171,105,16,182,179,255,173,255,359,187,225,-80,10,189
71024,119,-72,322,85,41,303,53,494,174,168,268,-42,342,202,187,322,-166,188,199,124,53,128,203,288,201,303,398,262,291,9,123,337
71025,108,-92,319,86,36,275,13,507,167,154,271,-44,351,200,170,314,-140,186,208,132,60,99,196,315,238,339,412,326,338,60,176,346
71026,120,-88,339,95,13,269,-10,530,173,142,265,-16,356,191,153,299,-151,207,212,129,28,104,244,349,257,323,368,387,399,77,166,266
71027,131,-71,342,107,31,270,10,546,180,146,254,4,381,194,166,306,-125,242,254,148,45,100,306,381,278,366,403,430,474,147,235,385
71028,162,-52,372,119,59,300,27,579,195,145,273,45,422,221,182,326,-82,292,294,184,77,161,337,427,308,398,476,441,544,264,348,535
71029,227,-6,416,147,74,315,65,606,197,141,287,81,418,205,151,360,-69,302,274,142,55,191,335,398,274,358,423,453,499,149,197,278
71030,223,19,434,159,74,335,73,609,200,129,299,79,394,171,144,383,-68,291,251,116,28,196,365,415,275,341,388,564,556,155,160,75
71031,231,16,460,183,78,337,86,635,214,140,316,85,408,190,142,395,-72,289,255,117,12,235,357,415,286,336,384,557,550,177,180,85
71032,222,29,446,175,71,325,100,605,212,151,308,70,410,203,138,391,-135,300,269,129,48,233,347,428,310,372,424,578,608,243,253,252
71033,216,19,456,174,73,330,89,611,201,148,301,98,412,190,151,390,-125,323,290,153,62,206,403,490,340,380,428,677,699,329,289,248
71034,202,15,438,165,58,319,46,600,201,152,295,77,417,191,169,359,-61,302,291,173,62,191,419,497,343,382,397,671,686,326,265,224
71035,191,6,383,149,62,314,51,594,222,159,310,38,425,214,185,371,-83,285,301,182,71,221,355,456,358,400,439,514,597,246,242,286
71036,137,-72,304,148,63,292,19,546,216,158,318,25,445,243,217,425,-110,302,350,220,102,280,374,513,417,449,502,609,647,318,357,460
71037,43,-158,273,109,35,277,-33,543,220,168,326,46,446,248,230,455,-91,344,388,259,135,277,440,586,478,499,521,795,763,417,454,521
71038,-5,-217,287,102,14,242,-49,557,211,148,312,40,463,240,237,476,-90,316,373,267,128,270,392,543,455,483,514,685,697,368,417,549
71039,50,-141,337,135,41,289,31,576,220,148,354,24,444,219,228,501,-142,262,329,237,108,276,284,467,402,443,482,371,509,201,308,446
71040,251,40,483,203,88,364,164,631,224,155,376,30,427,203,206,437,-152,222,265,169,44,125,199,383,333,354,349,193,388,93,171,144
71041,347,174,538,226,84,379,187,619,208,138,362,-17,395,170,154,403,-202,174,212,95,-12,84,136,339,273,289,288,195,347,71,143,59
71042,314,154,491,201,88,387,143,603,220,151,343,-43,420,173,158,415,-251,195,240,120,23,118,150,373,290,335,348,288,440,150,227,256
71043,250,83,447,203,94,363,137,593,214,141,373,-33,437,187,186,410,-232,200,256,139,29,148,162,392,307,333,343,356,440,120,173,171
71044,249,89,435,190,75,369,151,593,212,149,399,-23,442,191,188,403,-215,185,245,120,18,128,132,332,286,306,308,254,345,0,53,36
71045,304,123,492,205,72,386,200,608,212,152,414,-21,443,171,188,390,-227,176,228,112,12,143,71,286,227,262,292,110,201,-157,-80,50
71046,319,154,505,206,87,386,208,601,222,144,386,-11,441,182,162,390,-218,188,239,111,-21,98,81,304,233,255,280,120,190,-145,-54,86
71047,315,138,478,184,80,402,194,607,221,155,414,-6,425,183,177,368,-215,193,232,99,-4,96,90,292,231,261,271,106,208,-101,-27,42
71048,290,115,446,198,98,400,205,593,219,171,433,-40,416,172,189,408,-252,186,224,116,14,97,84,295,243,275,281,148,238,-84,-5,123
71049,252,99,424,181,80,383,168,576,214,159,390,-50,406,155,170,391,-277,174,224,94,-6,74,102,304,224,269,287,253,257,-53,23,202
71050,310,139,468,215,110,419,167,600,228,184,406,-14,399,172,194,394,-257,177,222,111,8,89,121,323,229,253,275,290,302,-13,31,169
71051,370,206,525,233,134,443,133,610,217,169,410,-16,382,151,187,398,-276,135,182,84,-11,125,57,259,196,215,279,86,195,-96,-65,150
71052,360,204,501,226,121,430,163,612,200,159,410,-50,362,138,174,402,-290,117,165,89,0,129,46,240,186,224,295,102,166,-126,-45,206
71053,340,195,485,219,122,444,172,573,190,174,403,-66,357,136,174,398,-239,124,165,89,-20,108,71,251,186,219,259,230,197,-113,-29,134
71054,320,174,473,215,108,434,151,569,185,177,404,-81,343,129,175,388,-294,98,163,68,-21,61,-6,206,163,219,255,83,100,-175,-63,74
71055,335,190,461,210,123,425,173,573,184,176,420,-91,328,143,190,405,-346,83,163,86,-2,79,-75,183,160,206,266,-91,12,-238,-81,199
71056,333,214,468,206,130,446,184,557,177,182,417,-94,317,135,181,401,-342,55,142,64,-18,98,-69,168,125,191,232,-105,-27,-261,-123,164
71057,339,221,475,213,124,453,195,554,196,184,417,-100,297,132,161,381,-338,60,119,52,-22,89,-75,150,94,168,181,-49,-18,-287,-172,-40
71058,280,188,424,202,137,465,180,553,190,180,418,-93,290,144,188,412,-375,73,136,69,5,86,-48,186,132,211,237,46,51,-233,-93,64
71059,292,179,435,205,141,489,173,572,200,190,438,-96,294,140,218,433,-374,77,127,90,44,103,-15,181,158,259,302,53,112,-173,-21,200
71060,344,184,456,222,147,479,204,573,189,197,458,-80,288,114,222,427,-333,71,107,84,52,118,4,176,153,258,305,87,134,-142,-12,145
71061,341,203,484,224,157,476,214,577,184,190,454,-74,264,119,220,437,-308,69,102,82,31,80,13,181,145,261,290,109,140,-151,-22,158
71062,355,218,520,241,167,495,215,613,188,191,464,-37,287,128,225,456,-270,94,111,101,55,102,46,210,154,262,303,158,154,-165,-62,85
71063,368,228,533,267,162,505,246,631,178,196,486,-35,290,112,240,484,-283,96,111,110,81,129,54,204,158,290,311,164,156,-158,-46,46
71064,347,223,512,245,133,466,231,613,196,187,473,-63,291,118,230,474,-289,67,119,127,100,120,44,215,166,312,329,210,210,-86,17,87
71065,387,241,521,277,154,481,262,630,218,209,483,-37,315,142,274,486,-259,83,155,162,137,138,64,239,211,353,382,284,289,-12,107,184
71066,356,258,491,259,143,474,255,596,198,187,520,-37,310,151,290,515,-285,87,154,166,155,185,85,272,237,400,421,305,312,26,143,282
71067,346,236,486,269,145,462,232,602,221,182,504,-20,318,158,280,509,-281,101,156,158,143,186,86,283,237,397,444,258,296,5,143,334
71068,320,212,504,281,144,437,200,604,217,191,449,-29,332,154,270,500,-280,119,187,183,161,224,99,299,265,433,501,308,393,117,253,416
71069,312,211,496,267,143,439,197,608,214,192,444,-35,329,170,275,477,-285,104,180,187,153,275,69,294,284,441,501,231,373,96,264,415
71070,318,201,484,264,135,445,201,614,225,185,458,-29,327,152,260,479,-278,104,159,171,135,258,51,276,256,409,485,159,289,32,212,326
71071,315,178,469,243,124,420,171,585,203,171,418,-57,316,133,243,465,-279,66,150,155,141,255,12,255,254,404,478,42,224,-14,192,360
71072,328,208,490,268,146,442,237,602,200,178,431,-69,334,140,258,492,-284,74,156,176,162,344,37,290,278,438,530,95,289,52,241,475
71073,335,214,519,267,143,447,242,602,202,177,447,-56,362,158,268,512,-268,109,184,192,182,310,103,361,330,474,563,252,442,182,343,564
71074,313,197,490,235,118,419,215,594,184,173,442,-44,359,160,246,514,-221,138,189,181,182,338,132,389,341,467,553,334,499,185,315,489
71075,279,172,456,229,118,407,197,592,185,176,432,-46,342,141,260,489,-154,135,208,183,161,318,157,376,327,446,518,346,468,120,230,354
71076,336,219,486,273,155,454,238,636,230,219,466,-1,381,180,306,527,-96,176,256,232,205,330,211,428,390,507,576,349,492,158,316,466
71077,348,218,494,267,163,461,237,635,230,189,465,22,407,163,291,515,-114,193,246,203,202,315,215,423,381,478,568,308,485,133,260,475
71078,334,190,498,261,146,447,221,617,227,185,451,32,392,165,264,519,-170,204,236,205,202,274,261,453,391,489,569,402,579,268,370,508
71079,354,207,535,275,151,466,214,626,212,190,448,58,382,151,244,503,-142,212,234,186,184,227,271,438,376,493,530,357,577,294,388,439
71080,359,177,522,254,150,461,199,603,194,175,447,20,380,143,241,487,-166,184,230,189,190,204,226,402,360,492,545,382,551,248,383,554
71081,345,135,512,242,133,438,178,617,187,186,418,43,361,151,235,525,-168,213,234,160,181,227,247,430,367,471,536,455,585,231,349,488
71082,330,144,530,248,150,465,252,611,200,196,458,84,387,166,259,591,-159,256,255,169,180,294,287,448,372,458,520,478,596,244,281,301
71083,368,198,562,258,158,495,323,642,244,211,484,85,393,181,272,625,-107,270,264,166,159,290,307,435,363,418,455,444,528,151,136,126
71084,338,172,554,248,134,461,212,627,208,188,428,81,383,162,246,559,-76,267,241,144,127,250,298,416,331,393,446,411,529,141,122,136
71085,329,178,569,255,129,427,191,634,206,183,434,86,389,153,241,527,-97,259,240,151,133,255,287,419,333,399,483,411,540,182,177,245
71086,332,155,566,250,117,417,199,640,224,182,408,76,379,148,223,495,-137,242,234,151,123,302,262,419,339,410,507,416,556,216,258,349
71087,317,127,518,249,126,415,174,628,193,184,397,72,385,157,231,441,-121,236,256,165,120,362,270,441,341,399,518,460,599,256,296,448
71088,349,169,573,289,147,433,179,661,224,204,428,92,401,175,235,468,-84,285,269,156,107,344,303,460,341,387,481,509,607,260,262,325
71089,405,212,630,313,148,453,211,715,235,210,446,108,426,190,232,494,-105,302,289,151,78,225,312,466,333,371,426,529,595,240,217,192
71090,379,177,590,280,122,424,204,710,209,169,418,110,402,160,218,448,-156,296,271,135,60,89,288,468,322,356,413,529,613,294,240,270
71091,365,168,583,291,133,421,196,698,221,167,430,89,393,160,195,428,-163,270,256,129,49,160,266,436,315,334,397,471,533,167,146,274
71092,350,139,572,293,125,434,167,695,220,178,414,85,396,146,200,432,-157,250,247,125,51,198,246,394,283,345,439,415,421,104,160,412
71093,361,131,570,292,115,438,179,695,233,187,448,65,418,167,211,451,-153,274,276,158,87,215,212,409,316,372,501,429,469,219,295,610
71094,331,97,542,262,111,427,167,663,212,184,458,14,400,186,211,436,-215,235,249,134,77,205,143,373,291,354,459,304,383,144,242,579
71095,301,70,506,246,100,420,142,640,193,172,393,-10,359,128,164,391,-239,177,199,86,-10,79,65,286,211,251,273,156,225,-67,-1,147
71096,297,62,481,244,107,424,152,624,180,179,406,-4,369,143,159,370,-244,155,188,86,-42,7,69,271,194,214,190,201,200,-120,-89,-133
71097,267,70,420,232,108,418,131,614,202,184,425,-16,391,167,180,365,-296,147,216,102,-4,35,132,292,243,262,268,315,300,11,73,116
71098,254,96,410,250,133,416,128,592,201,185,402,-56,400,185,183,347,-355,169,227,99,2,41,141,318,242,307,337,383,349,71,145,334
71099,237,84,394,219,117,412,126,594,191,167,367,-96,390,158,168,343,-389,138,207,87,0,32,96,281,234,285,337,378,303,57,124,298
71100,263,108,426,246,116,422,132,609,210,166,385,-90,414,152,154,358,-357,119,200,82,-26,8,71,260,210,246,237,273,220,-35,13,65
71101,250,70,430,231,111,403,105,580,212,160,380,-127,405,140,155,348,-384,85,171,72,-42,0,17,227,186,231,228,50,175,-66,34,67
71102,237,69,410,237,112,403,108,594,224,181,377,-127,418,155,160,345,-410,79,187,77,-23,23,-18,221,201,250,295,-40,157,-40,75,253
71103,261,81,429,242,114,417,126,578,230,187,397,-113,405,162,155,312,-425,60,184,66,-25,37,-66,182,172,247,277,-121,71,-126,16,232
71104,252,58,409,220,111,406,124,544,211,162,380,-137,380,137,153,298,-444,28,165,32,-49,25,-130,148,136,218,226,-174,19,-203,-43,94
71105,249,48,436,212,119,380,101,545,206,151,370,-159,363,124,104,250,-416,-6,132,-10,-111,-52,-154,93,85,114,78,-121,-28,-322,-223,-307
71106,236,39,398,222,128,375,72,546,241,158,355,-190,375,143,96,241,-475,1,136,16,-111,-47,-159,116,106,140,97,-110,31,-246,-148,-246
71107,197,13,354,218,113,364,67,525,214,154,344,-219,366,146,109,243,-547,0,128,40,-74,-47,-196,115,116,186,193,-210,3,-210,-35,9
71108,180,-25,323,198,97,343,40,517,203,144,336,-238,353,135,103,231,-597,-27,118,24,-57,-50,-222,108,118,212,237,-204,-8,-185,0,152
71109,156,-20,316,186,91,336,45,497,206,134,312,-247,349,123,97,233,-590,-29,116,23,-75,-53,-179,125,117,220,233,-66,83,-129,19,82
71110,190,-15,356,203,107,340,37,512,212,126,292,-226,375,123,102,214,-534,4,129,24,-104,-59,-141,134,120,179,170,30,99,-184,-90,-146
71111,179,-25,367,210,122,310,-14,528,228,142,277,-206,382,134,100,226,-499,22,136,34,-114,-24,-115,138,126,173,163,17,127,-192,-137,-263
71112,175,-52,372,204,87,288,-86,519,225,124,252,-212,358,144,100,216,-478,-6,125,30,-99,-1,-139,124,122,174,181,-94,71,-206,-101,-159
71113,179,-60,389,194,93,300,-46,513,214,119,267,-225,352,141,96,222,-486,-32,114,26,-108,32,-182,102,89,181,195,-204,-10,-266,-97,-54
71114,172,-43,391,195,94,313,-25,520,217,136,276,-217,354,129,114,265,-507,0,114,17,-95,15,-162,143,119,195,217,-65,117,-139,0,29
71115,194,-9,391,208,101,323,19,529,223,148,304,-201,354,139,136,296,-458,10,145,37,-66,63,-129,161,132,212,233,52,184,-92,17,85
71116,193,-15,394,214,98,330,11,545,218,139,305,-211,324,156,120,262,-394,31,138,31,-73,13,-111,188,141,200,246,64,154,-145,11,161
71117,184,-37,381,208,108,337,7,539,208,156,301,-217,333,173,133,272,-426,34,168,69,-23,-44,-103,225,195,283,336,-23,202,-4,195,378
71118,159,-45,359,184,97,300,-25,525,198,144,266,-211,345,171,127,226,-432,46,192,99,-22,-62,-35,246,238,305,374,32,294,79,272,457
71119,151,-51,350,190,84,291,-42,513,183,130,230,-192,346,166,127,180,-409,65,207,103,-31,-48,35,282,267,312,347,177,376,142,292,484
71120,169,-42,363,179,95,315,-7,506,209,129,261,-158,333,177,122,204,-379,75,205,91,-42,-29,25,289,240,297,289,143,308,35,195,436
71121,185,-24,384,182,77,314,2,516,194,127,264,-116,316,159,96,213,-337,73,176,38,-73,-50,28,260,196,227,201,97,216,-174,-53,41
71122,201,-15,380,189,93,326,14,534,192,142,275,-81,341,169,128,236,-307,96,185,83,-69,-11,81,282,212,233,192,110,262,-111,-54,-62
71123,192,1,395,214,123,347,29,547,199,162,298,-79,339,179,142,244,-318,126,220,107,-19,69,98,314,257,294,288,105,305,-26,91,265
71124,173,-20,379,170,97,329,-2,528,184,144,261,-85,344,166,104,203,-337,90,214,92,-39,27,65,308,261,285,291,116,347,40,156,322
