,Fp1,Fp2,F7,F3,Fz,F4,F8,FC5,FC1,FC2,FC6,T7,C3,Cz,C4,T8,TP9,CP5,CP1,CP2,CP6,TP10,P7,P3,Pz,P4,P8,PO9,O1,Oz,O2,PO10
118005,289,862,1051,-80,288,362,-359,-23,262,212,250,178,643,153,169,138,198,432,230,-13,-106,269,316,245,343,271,146,-5,318,165,106,64
118006,77,818,1010,32,276,409,-487,220,273,212,210,225,640,159,164,92,257,387,214,-5,-97,287,356,250,342,242,109,-84,253,117,59,28
118007,164,670,1001,105,296,600,-551,242,304,230,242,238,646,171,171,-7,365,389,237,-7,-124,392,465,260,347,229,68,-21,276,119,25,-33
118008,219,571,881,112,295,612,-724,13,278,226,316,266,612,161,201,111,394,387,211,9,-28,176,357,246,330,261,139,-29,271,110,20,-126
118009,171,645,800,207,315,711,-734,-11,289,218,318,397,624,167,226,242,471,342,225,21,46,136,241,206,322,305,242,-100,245,93,13,-200
118010,257,721,916,272,343,501,-616,314,327,222,325,371,661,171,230,323,434,367,241,26,51,130,317,212,326,298,244,-65,250,92,40,-174
118011,297,682,1017,213,323,453,-623,304,307,230,444,192,651,157,257,233,406,317,208,30,68,145,281,200,324,289,221,-78,245,96,20,-140
118012,229,566,993,77,336,552,-634,342,318,229,396,256,675,155,248,313,335,330,215,31,78,269,250,197,315,315,256,-56,260,106,24,-156
118013,213,615,828,278,365,458,-475,265,333,230,370,422,722,176,253,418,402,393,244,32,67,352,244,230,327,318,252,-69,259,117,57,-40
118014,329,578,986,121,350,690,-473,183,311,236,425,405,721,184,282,214,409,368,246,38,43,333,214,237,334,302,190,-60,256,113,44,66
118015,582,659,1135,29,305,612,-551,148,305,230,287,374,698,183,291,137,398,395,248,73,51,313,280,249,375,339,138,6,308,182,79,119
118016,618,628,1180,-57,302,564,-548,193,288,232,345,375,663,181,308,98,332,405,249,75,29,191,316,254,363,342,92,72,324,184,73,146
118017,504,811,1178,-60,303,396,-541,229,281,226,394,627,653,174,297,92,328,466,271,77,14,256,366,289,359,339,92,35,344,213,113,194
118018,433,857,1097,35,303,291,-505,273,284,203,326,704,670,179,260,85,342,502,275,82,-2,258,462,299,363,340,121,-109,327,185,105,145
118019,474,876,1040,42,295,248,-437,231,305,196,276,605,673,182,256,74,343,472,268,87,1,239,434,307,371,370,121,-94,329,165,113,105
118020,373,893,981,75,293,223,-409,241,328,201,254,556,691,212,249,82,265,455,295,89,3,219,389,302,384,362,115,-101,326,193,110,96
118021,261,840,945,130,289,239,-454,220,303,173,225,479,657,198,225,132,181,415,280,93,-23,158,341,275,377,358,108,-174,301,178,118,79
118022,282,709,954,87,272,249,-539,173,285,164,196,452,627,190,214,155,229,402,269,91,-10,169,341,286,386,377,124,-197,318,189,135,70
118023,444,587,918,65,271,393,-633,203,293,195,201,493,650,208,239,112,264,446,277,104,9,192,397,325,410,409,172,-99,372,220,190,11
118024,356,624,896,48,309,454,-613,267,330,223,264,453,687,247,298,122,295,481,324,151,62,269,415,349,451,452,261,-22,398,260,237,46
118025,177,653,943,42,300,471,-581,225,314,210,256,369,654,246,265,87,297,418,316,161,55,280,358,327,440,456,271,-51,388,256,206,78
118026,247,687,919,130,292,418,-563,194,330,203,266,369,630,241,277,92,312,393,293,143,59,253,300,318,431,448,257,-13,389,237,218,34
118027,308,718,942,119,304,438,-683,-7,333,233,262,447,627,236,298,157,360,435,311,154,82,242,337,334,468,480,274,34,414,291,264,51
118028,325,689,998,48,288,632,-860,172,322,269,313,239,628,228,301,276,252,387,297,146,92,244,326,305,439,449,267,13,412,287,260,68
118029,303,550,971,64,277,647,-881,243,315,267,335,224,657,238,305,307,228,376,307,158,85,313,340,317,440,436,214,29,414,277,253,42
118030,342,625,881,-4,268,426,-688,148,293,220,289,421,640,228,278,167,274,411,298,133,69,195,370,324,443,429,248,41,422,268,265,114
118031,413,618,864,-20,254,393,-536,133,289,205,284,479,629,218,245,20,282,430,297,131,51,61,416,334,422,407,269,0,409,264,273,189
118032,423,719,913,41,253,255,-444,226,313,179,197,366,667,238,181,-42,286,443,309,96,-5,124,433,351,420,404,230,31,441,289,273,193
118033,317,708,935,143,253,222,-417,160,314,174,187,293,695,241,184,-9,274,434,314,88,-16,144,383,340,417,388,233,69,479,326,263,192
118034,426,778,997,54,271,249,-395,177,332,219,207,310,655,251,210,51,323,395,331,112,5,133,435,377,435,390,229,92,501,349,269,173
118035,467,799,971,19,296,334,-415,210,318,232,241,353,616,230,211,107,365,348,303,116,0,155,467,361,435,391,214,94,481,335,269,78
118036,347,678,899,76,297,569,-531,232,314,240,257,233,590,209,221,75,316,364,269,101,-14,160,429,319,410,349,189,48,452,297,223,91
118037,371,570,827,47,292,425,-561,225,295,226,233,-106,593,213,205,5,275,307,241,73,-59,195,336,280,378,324,178,29,428,263,198,89
118038,280,449,884,23,270,556,-572,142,280,231,231,-488,557,185,194,-8,258,225,228,43,-100,178,263,236,347,290,145,-18,395,232,151,7
118039,210,587,872,16,270,414,-547,-282,243,226,241,-195,515,192,204,149,375,241,225,54,-52,194,260,241,344,314,166,1,401,274,150,20
118040,72,691,711,118,292,302,-509,-142,272,241,220,-100,553,222,206,314,298,208,230,65,-47,230,229,227,356,309,195,-10,370,257,140,64
118041,-116,688,692,-3,264,391,-495,-37,253,242,255,-237,542,213,221,98,130,223,222,66,-67,255,235,219,354,303,201,-93,343,221,142,66
118042,-165,671,661,17,258,317,-491,-80,263,238,276,-107,539,212,221,-39,119,197,230,84,-50,235,271,236,354,300,219,-150,319,197,116,99
118043,-6,729,659,126,269,317,-540,4,269,240,335,106,566,225,236,-97,47,226,251,67,-74,141,277,250,352,292,185,-82,325,197,122,29
118044,291,791,793,-36,260,321,-669,5,270,237,301,225,563,236,242,-29,54,290,247,77,-67,96,301,255,377,311,199,10,354,212,130,17
118045,450,803,851,-193,236,451,-777,-75,234,241,263,289,519,220,249,51,36,253,237,76,-56,105,285,236,352,299,164,-47,346,185,105,10
118046,420,733,711,-178,252,526,-747,-300,217,252,245,450,490,225,260,105,59,281,267,72,-61,136,329,262,355,299,128,-81,338,180,120,61
118047,437,627,689,-232,287,588,-882,-291,217,293,262,410,513,235,257,186,90,307,281,106,-31,130,351,296,379,343,154,-91,363,205,155,171
118048,339,635,859,-144,278,444,-843,-69,223,270,267,200,547,216,244,112,71,273,264,95,-52,180,332,304,376,325,131,-53,377,191,142,188
118049,256,490,939,-153,267,603,-569,-19,202,279,355,111,519,213,281,-114,150,242,270,100,-62,159,283,274,380,306,132,-49,367,188,127,124
118050,285,587,937,-94,305,485,-425,59,257,302,335,128,566,229,305,-24,151,304,289,146,17,88,345,311,415,395,248,29,405,232,173,98
118051,221,683,820,-47,302,371,-441,65,274,265,301,157,579,222,282,27,143,308,285,137,22,209,396,318,415,406,288,82,422,246,164,103
118052,101,674,723,69,267,315,-551,57,275,233,281,231,606,231,261,91,72,339,286,140,26,298,416,337,418,432,336,27,438,276,193,152
118053,182,588,750,58,292,308,-650,69,293,237,255,321,607,238,264,108,103,370,276,147,61,261,447,360,434,432,331,13,498,303,229,132
118054,314,672,793,53,293,279,-622,58,304,245,248,344,610,250,265,132,279,383,307,149,82,292,509,383,449,446,341,128,517,315,260,223
118055,250,701,893,-1,287,262,-504,84,279,236,251,343,614,241,266,147,310,433,310,153,99,308,518,389,458,467,366,148,500,334,292,330
118056,274,674,950,-20,270,310,-488,142,296,233,276,355,624,266,284,136,189,448,328,184,104,300,516,409,475,471,347,139,523,357,306,314
118057,298,625,879,-50,253,328,-521,182,300,242,293,350,650,281,294,220,202,484,370,196,104,275,576,434,514,497,378,161,575,396,328,282
118058,258,566,841,-47,252,298,-537,179,307,234,270,333,670,288,289,244,341,477,367,213,97,284,559,428,531,507,347,175,574,417,346,323
118059,213,511,753,-60,249,255,-650,172,302,224,236,321,658,290,298,161,350,438,363,214,93,291,468,417,538,515,331,152,553,404,324,327
118060,116,445,692,-48,218,215,-705,129,293,216,212,299,674,293,281,111,270,455,387,224,107,248,499,451,558,530,354,143,564,400,318,307
118061,218,507,910,-98,216,275,-650,153,295,226,185,349,681,285,285,123,296,497,371,231,123,261,573,454,540,512,339,18,533,358,294,245
118062,297,530,1023,-61,234,423,-635,202,281,237,216,294,674,256,295,100,307,511,360,197,115,302,547,433,503,473,344,-54,504,319,232,135
118063,341,620,1060,-27,240,353,-643,245,267,235,289,158,672,243,303,158,305,484,320,157,93,314,489,385,462,439,335,38,465,262,182,70
118064,337,637,1156,81,288,463,-538,342,314,271,365,322,730,263,338,363,338,504,331,184,135,448,464,392,453,460,379,83,475,267,193,95
118065,259,635,1148,129,261,525,-457,361,316,249,339,487,719,244,309,305,358,540,313,177,134,434,422,377,455,458,378,95,460,272,184,120
118066,211,626,1104,187,273,484,-519,429,339,228,323,386,771,242,315,122,413,591,332,164,111,368,446,404,470,464,350,166,506,308,239,113
118067,138,572,963,162,263,368,-569,401,341,243,285,88,776,281,318,59,451,546,354,195,119,300,440,423,489,489,362,191,531,346,272,57
118068,71,487,770,61,235,271,-571,202,316,238,326,-161,689,275,317,103,434,460,363,211,126,254,421,411,492,494,332,148,528,351,268,119
118069,33,483,694,12,221,261,-507,24,282,241,354,101,691,268,345,215,367,510,348,234,133,285,456,422,510,505,354,151,532,352,257,189
118070,125,640,848,52,225,297,-420,188,302,248,406,442,750,249,363,284,376,582,354,216,151,290,498,425,483,466,348,187,537,351,255,218
118071,174,641,871,-97,239,360,-398,282,304,266,440,657,766,264,373,327,388,615,360,226,150,345,577,448,490,474,340,190,557,329,264,115
118072,144,530,799,-32,236,339,-454,268,293,257,399,663,753,270,342,238,404,605,354,202,104,316,639,448,486,458,344,98,542,322,261,84
118073,69,423,811,17,226,307,-508,306,306,250,283,723,734,253,325,155,479,571,349,203,115,146,644,455,493,441,330,99,534,341,250,194
118074,111,456,932,-7,241,326,-510,326,305,247,285,767,721,267,312,16,534,564,338,200,95,210,679,449,478,447,299,134,556,368,277,235
118075,106,524,979,22,260,456,-430,255,323,264,331,731,728,261,326,48,481,569,330,199,89,204,684,452,464,437,320,177,549,357,297,283
118076,3,529,901,48,237,289,-488,247,322,223,287,647,714,240,296,30,424,546,339,180,49,204,603,429,448,398,304,154,486,297,241,160
118077,55,428,803,7,217,262,-607,205,299,205,228,546,723,265,276,32,382,530,330,140,40,294,547,410,433,406,282,142,473,269,239,243
118078,129,448,837,1,216,270,-597,179,279,209,232,520,694,248,263,62,363,497,294,117,31,282,499,365,409,388,251,121,430,251,208,277
118079,118,483,811,-31,227,284,-544,192,279,201,245,455,669,211,248,47,325,459,270,96,-9,263,495,339,373,339,202,34,384,215,169,260
118080,46,438,778,-16,215,272,-584,159,274,209,226,395,644,226,262,49,365,422,256,94,-1,297,465,322,375,351,225,21,392,224,171,281
118081,6,430,787,-38,213,271,-605,114,266,210,221,243,604,208,258,46,334,387,232,93,2,288,390,280,366,358,268,-23,387,227,166,279
118082,40,429,794,4,230,296,-608,260,290,222,226,107,651,196,241,72,218,397,246,97,10,302,418,304,373,366,277,-109,406,247,177,262
118083,35,437,784,70,243,309,-631,201,314,213,281,293,688,195,260,113,166,442,257,108,24,292,536,348,373,362,289,-28,446,244,176,181
118084,71,458,758,6,273,340,-595,-161,315,226,312,604,665,213,278,146,222,490,272,113,43,298,637,374,383,373,326,72,467,271,183,118
118085,70,414,688,40,241,419,-565,-67,290,234,292,585,601,159,232,114,340,405,218,67,14,316,547,312,335,331,337,140,471,256,168,27
118086,94,384,607,51,241,482,-520,78,297,219,285,366,610,165,218,132,485,395,210,56,-2,331,552,308,323,318,303,135,449,258,152,56
118087,-41,421,644,-79,254,612,-612,116,278,228,277,158,613,161,193,210,398,379,194,29,-58,299,601,296,309,269,254,116,445,240,103,120
118088,-77,376,555,-10,254,604,-828,138,265,248,299,117,597,139,203,193,355,327,171,19,-53,272,535,239,275,266,192,78,417,216,117,189
118089,-193,239,519,72,240,564,-827,65,250,247,266,275,561,144,231,221,421,269,162,34,-33,288,383,210,265,274,183,150,422,227,120,220
118090,-284,348,712,38,260,561,-709,53,263,273,337,395,554,167,260,150,409,255,197,44,-33,313,312,247,308,279,201,160,446,244,127,246
118091,-110,287,851,-69,227,463,-577,52,238,254,357,225,544,168,242,107,339,265,183,46,-43,347,356,269,320,280,216,135,445,235,137,215
118092,-108,331,830,-111,228,430,-430,23,215,250,370,87,545,187,260,132,335,294,196,62,-26,328,430,292,337,320,245,178,476,285,192,59
118093,-21,492,691,-95,241,415,-386,18,241,263,379,123,580,216,278,149,331,360,209,85,4,301,465,309,360,345,243,215,478,262,194,87
118094,43,480,478,26,247,438,-421,3,274,263,361,182,608,204,263,150,364,376,219,85,-9,290,376,282,365,325,222,185,432,239,177,168
118095,-137,442,488,184,234,379,-520,-68,277,241,345,47,591,174,260,114,279,368,186,63,-37,226,283,236,320,304,182,94,376,208,117,199
118096,-91,322,523,110,233,437,-630,-20,249,229,326,-373,543,153,213,66,301,256,144,38,-60,199,207,181,280,269,152,65,339,164,98,187
118097,-22,328,544,52,244,414,-675,58,243,230,350,-460,546,166,252,183,331,232,158,47,-30,220,272,200,288,296,159,-6,355,208,140,138
118098,-213,386,558,72,226,342,-769,-12,245,201,262,-53,542,175,245,360,268,300,181,60,-12,312,401,259,317,330,227,-28,382,236,187,125
118099,-107,425,651,-29,217,360,-937,23,244,210,228,140,569,171,230,376,196,350,197,77,23,205,433,269,333,346,281,-35,384,237,213,120
118100,130,484,716,-134,225,414,-971,-106,244,248,321,311,585,177,264,186,226,384,193,81,33,302,446,283,350,371,297,84,388,241,201,163
118101,155,478,667,-206,223,450,-772,-115,238,237,321,440,564,189,258,111,294,358,194,81,28,347,438,255,350,364,331,80,402,258,223,265
118102,71,416,746,-184,203,421,-683,72,233,214,348,437,577,177,254,166,263,329,196,89,15,426,455,259,336,357,297,55,408,255,227,317
118103,132,549,882,-185,219,288,-578,27,258,203,296,533,605,216,262,232,293,411,248,136,74,576,569,342,400,443,370,91,456,317,305,400
118104,158,561,959,-134,221,290,-477,55,269,217,286,564,625,218,288,221,265,436,253,149,117,441,585,351,418,462,413,33,441,303,291,326
118105,110,451,897,-137,225,298,-558,85,266,211,282,515,622,217,280,101,289,417,255,143,74,343,518,336,420,437,349,88,445,268,247,187
118106,17,432,849,-107,227,271,-518,76,266,194,267,411,618,221,263,158,277,377,243,131,65,229,441,302,399,421,336,93,407,242,265,104
118107,5,473,871,-50,219,196,-445,95,301,189,215,378,634,233,254,306,301,399,256,150,87,245,456,305,395,435,341,120,374,231,282,176
118108,4,443,832,-75,204,223,-450,110,269,189,276,358,628,212,244,50,303,376,235,137,34,261,431,264,377,403,276,94,351,208,217,217
118109,-12,435,846,-101,182,254,-478,155,275,184,242,365,619,220,255,42,265,357,224,151,47,325,363,248,385,409,284,43,351,207,213,180
118110,17,431,831,-92,176,259,-514,162,278,194,259,331,614,220,259,63,173,337,229,155,38,336,320,237,383,398,282,-30,312,177,215,142
118111,-1,372,755,-95,195,384,-530,171,285,214,304,314,626,248,287,75,225,335,231,170,53,326,327,239,388,416,279,-113,320,197,227,198
118112,-54,340,639,-77,185,422,-597,181,287,216,276,327,627,239,307,77,311,353,241,156,29,335,345,237,394,423,277,-136,334,213,224,215
118113,20,265,614,-55,183,315,-643,204,281,199,222,366,646,230,270,126,333,354,242,136,29,324,378,240,391,399,233,-73,305,164,190,129
118114,-28,110,630,14,218,630,-657,217,311,246,288,345,673,261,308,203,331,378,257,173,71,322,443,235,402,426,257,-37,327,200,219,140
118115,-124,203,483,129,218,456,-738,187,325,238,219,390,690,257,324,207,325,397,276,173,92,314,485,248,399,429,300,-76,342,227,229,153
118116,-157,265,346,243,199,366,-938,208,321,221,182,534,670,246,279,255,428,357,248,150,91,363,375,228,404,417,379,-52,312,207,201,-20
118117,-172,364,574,172,224,275,-921,315,300,207,195,399,635,237,296,325,366,362,245,162,138,438,297,231,391,451,429,-14,332,226,226,-155
118118,-130,330,678,66,215,417,-639,174,294,233,257,273,615,218,332,162,233,389,261,179,172,362,279,271,429,497,480,35,402,297,277,-91
118119,-57,336,741,60,210,485,-551,213,286,234,296,238,663,213,306,33,204,428,282,181,144,195,309,284,444,499,447,52,426,331,284,118
118120,-33,389,718,67,220,429,-538,312,309,247,346,368,716,236,328,54,302,496,301,191,132,188,408,339,462,497,380,23,452,322,314,227
118121,-6,316,794,37,196,444,-583,276,304,236,319,326,713,225,334,138,376,544,321,176,134,254,527,380,469,485,331,-32,458,328,296,252
118122,1,399,976,-54,222,215,-686,-7,294,205,251,331,732,229,340,186,533,578,363,200,163,365,595,436,511,519,374,54,536,425,400,415
118123,-42,386,963,-101,221,331,-695,-73,316,240,347,382,728,216,370,194,517,547,341,220,149,343,520,429,529,533,370,141,551,447,429,415
118124,-462,374,809,144,214,287,-692,222,332,197,319,167,746,207,341,161,435,532,338,188,121,319,481,400,491,500,299,150,540,401,380,337
118125,-537,442,696,185,224,239,-613,381,343,184,310,94,787,225,323,147,392,538,341,182,120,319,460,386,512,501,329,206,560,418,417,388
118126,-105,431,682,198,228,254,-521,296,311,209,316,196,776,233,346,205,269,593,322,196,117,337,489,415,511,497,360,223,574,432,408,331
118127,51,454,770,170,204,247,-584,221,307,223,310,267,779,242,323,287,292,627,326,190,100,352,501,416,478,498,376,198,569,411,392,164
118128,172,376,821,-10,215,283,-749,169,303,229,320,230,721,242,321,226,394,552,313,188,73,345,487,403,453,490,375,180,508,365,391,198
118129,179,262,756,-153,183,398,-711,105,244,245,379,156,636,222,311,99,447,454,267,154,3,375,531,354,424,451,289,158,506,346,320,253
118130,146,269,637,-85,173,486,-579,163,232,239,342,321,637,209,310,85,415,420,255,131,-17,230,503,319,405,393,258,146,494,313,286,202
118131,117,331,763,-51,198,363,-513,275,283,233,253,466,673,236,311,58,407,480,274,146,-4,225,522,354,413,402,285,170,504,323,283,266
118132,151,236,884,-83,196,294,-500,234,282,223,255,465,658,248,279,46,375,491,285,132,-12,238,520,354,409,397,240,183,500,336,271,254
118133,184,393,906,-175,186,268,-574,193,281,233,302,534,679,263,300,106,412,509,314,154,30,263,567,375,449,430,275,194,551,355,314,275
118134,59,437,767,-178,185,300,-848,132,270,251,347,514,676,275,328,150,400,513,325,190,80,343,566,379,484,459,310,131,543,385,326,289
118135,-14,371,534,-164,187,384,-787,138,270,266,356,517,630,259,326,153,360,451,315,200,103,370,560,361,464,460,329,95,527,360,310,283
118136,-72,395,613,-125,199,508,-594,110,243,287,350,634,617,261,353,167,419,428,303,193,107,359,593,370,465,479,368,132,549,402,350,282
118137,2,422,752,-131,206,650,-515,89,223,290,356,582,579,256,363,182,452,391,280,195,86,374,578,363,447,461,383,56,532,396,363,275
118138,154,393,757,-124,209,469,-472,125,248,281,325,416,579,246,335,164,406,392,275,187,69,319,608,359,429,443,354,-26,496,340,335,194
118139,52,398,798,-142,199,398,-497,109,241,244,295,245,585,218,313,148,277,380,249,162,57,262,577,327,409,424,341,11,488,313,296,202
118140,65,476,794,-174,204,319,-504,107,244,247,330,279,585,216,344,195,295,400,260,179,89,284,545,327,420,445,371,138,519,348,336,243
118141,39,463,725,-75,182,274,-543,140,248,234,282,246,621,204,362,233,338,385,268,171,107,335,482,324,409,450,347,180,507,376,323,264
118142,20,479,709,-129,186,313,-600,-57,250,227,282,262,605,203,363,320,439,356,245,175,124,467,415,321,417,480,367,219,547,392,359,334
118143,-76,483,695,-36,215,299,-708,-147,284,247,292,222,627,187,377,471,478,386,252,210,173,401,487,386,447,505,442,214,583,432,384,352
118144,-93,385,783,68,231,375,-678,70,308,258,339,252,650,179,403,206,464,407,274,205,161,363,547,398,472,498,479,119,575,427,381,260
118145,46,338,859,-49,246,518,-638,-118,288,286,384,347,656,171,411,52,429,473,309,203,151,377,551,410,483,502,486,166,576,427,380,220
118146,76,435,867,-57,239,422,-571,-57,259,274,377,283,689,152,403,138,383,447,300,208,125,324,513,397,468,502,416,218,553,423,368,211
118147,154,506,906,-103,252,416,-463,127,259,284,372,238,689,179,419,288,359,404,296,224,165,328,477,394,483,541,438,231,544,436,370,197
118148,158,530,832,-57,263,405,-409,172,265,283,334,244,675,181,411,345,308,356,292,222,184,384,419,362,492,543,486,209,509,401,361,135
118149,80,338,692,-115,223,512,-417,106,244,288,415,324,618,151,418,52,265,345,259,212,129,335,401,324,451,491,403,82,450,330,275,75
118150,-61,307,555,-82,220,491,-542,3,257,270,351,235,602,163,386,38,167,353,256,178,81,248,392,303,440,447,292,-18,381,287,211,113
118151,-200,307,534,-10,217,384,-693,-13,244,255,366,68,604,155,349,84,203,286,235,165,56,210,237,240,417,412,203,-72,327,227,169,156
118152,-240,329,500,-67,198,363,-806,-82,223,247,421,153,574,170,342,112,188,254,224,180,48,247,191,253,408,418,180,-90,319,212,184,105
118153,-138,418,497,-88,177,267,-686,-29,235,230,327,139,599,200,325,78,64,315,237,164,46,245,232,279,423,415,161,-87,333,227,189,138
