,Fp1,Fp2,F7,F3,Fz,F4,F8,FC5,FC1,FC2,FC6,T7,C3,Cz,C4,T8,TP9,CP5,CP1,CP2,CP6,TP10,P7,P3,Pz,P4,P8,PO9,O1,Oz,O2,PO10
65882,733,693,584,308,167,439,654,580,359,-14,512,916,351,-49,34,425,590,310,-203,106,84,383,491,203,82,373,434,191,517,519,449,491
65883,703,574,528,306,157,485,677,609,342,2,580,935,346,-45,90,506,620,349,-184,129,124,481,569,225,128,417,505,138,550,567,469,506
65884,640,451,482,338,153,457,659,621,333,-26,571,939,362,-69,58,384,650,370,-167,107,105,508,623,245,125,437,557,86,593,603,455,505
65885,621,568,469,350,158,428,703,635,363,-31,536,892,369,-65,52,344,729,412,-156,115,94,434,756,289,135,434,576,-22,646,583,474,367
65886,654,731,411,381,167,425,723,675,384,0,528,832,392,-20,88,461,690,408,-137,158,172,414,808,293,160,477,640,4,674,625,517,353
65887,682,820,293,367,155,424,653,743,368,-19,450,767,377,-40,56,477,638,396,-150,147,143,376,751,284,142,445,522,156,635,608,496,420
65888,702,779,355,357,171,381,643,726,354,-24,405,730,362,-40,23,373,567,354,-162,117,74,436,661,279,128,410,408,261,638,615,508,494
65889,649,602,457,345,165,391,594,645,341,-32,417,753,345,-47,7,280,570,333,-176,101,45,458,586,269,130,415,425,356,646,628,502,493
65890,661,581,470,280,162,369,590,504,330,-42,400,790,315,-57,1,341,589,307,-194,112,43,456,475,236,127,414,428,426,611,622,496,497
65891,665,665,465,274,168,388,611,543,358,-42,439,832,352,-49,11,351,617,324,-185,106,58,411,453,251,132,412,427,459,595,595,492,437
65892,678,690,545,310,178,424,671,569,352,-26,493,897,378,-55,47,348,687,395,-156,132,96,501,564,298,168,438,475,585,665,657,559,504
65893,710,746,538,302,184,429,749,540,338,-38,512,875,354,-55,41,385,702,366,-171,120,99,545,551,273,138,434,491,503,608,624,504,492
65894,710,772,492,266,153,416,763,532,330,-44,472,791,349,-51,36,382,671,325,-179,120,120,614,476,253,126,445,535,373,547,597,477,545
65895,707,720,471,270,156,424,663,531,328,-61,454,769,346,-71,28,411,633,318,-180,106,112,582,496,253,120,443,531,526,597,638,480,569
65896,699,702,416,266,165,413,627,571,325,-54,413,806,378,-51,39,433,681,357,-167,119,109,488,579,284,151,444,535,596,679,668,534,495
65897,676,723,391,279,151,425,634,561,308,-46,390,798,335,-54,18,426,605,316,-185,105,125,400,497,264,146,409,550,432,624,630,538,380
65898,642,702,393,283,146,432,633,551,306,-30,412,806,310,-55,26,400,620,305,-198,117,126,281,476,262,148,409,540,351,610,652,528,392
65899,673,721,412,267,158,398,675,545,320,-44,432,802,316,-47,45,439,618,305,-169,132,126,340,500,257,139,417,512,355,597,637,517,377
65900,671,660,413,247,174,463,652,523,315,-14,441,795,336,-36,58,435,558,306,-188,144,131,483,508,222,144,420,480,240,580,636,521,382
65901,627,631,399,263,156,457,600,512,319,-13,441,860,338,-37,61,451,491,320,-187,152,134,566,575,252,129,438,575,308,640,641,512,254
65902,652,679,371,239,126,405,575,532,309,-19,444,939,333,-38,53,455,492,331,-171,139,155,498,601,234,128,443,664,146,600,605,510,244
65903,677,694,356,244,143,338,572,586,320,-14,448,943,364,-40,40,419,461,339,-178,118,111,467,557,212,115,408,562,-6,561,609,495,358
65904,605,657,310,271,126,294,554,553,307,-73,419,784,338,-73,1,394,577,276,-229,94,65,474,490,184,81,394,462,139,522,590,484,466
65905,599,672,233,259,151,330,631,520,322,-74,409,596,306,-40,12,378,662,226,-215,119,88,404,492,205,93,423,485,204,558,632,526,430
65906,607,664,204,256,133,343,631,514,325,-47,432,461,273,-28,30,435,644,213,-210,139,159,321,449,198,85,441,640,223,559,630,533,240
65907,602,548,317,271,126,346,616,538,300,-71,429,677,276,-55,35,461,599,224,-247,119,190,461,476,197,82,446,766,292,535,595,478,206
65908,617,563,365,273,167,355,592,567,305,-68,437,799,295,-51,31,499,665,264,-235,98,129,395,599,218,77,420,602,175,557,596,507,294
65909,597,657,366,261,150,353,579,552,308,-74,429,805,316,-91,6,474,636,269,-245,79,45,300,628,200,58,357,384,-148,503,546,434,329
65910,573,624,344,264,144,402,617,507,324,-30,517,724,334,-49,16,447,588,256,-223,86,49,326,605,198,74,360,367,77,538,572,449,461
65911,566,594,318,254,136,372,642,518,319,-55,426,722,311,-67,-14,347,563,249,-237,73,19,362,554,213,74,357,440,284,586,598,479,427
65912,579,586,328,251,129,435,607,563,305,-53,397,747,297,-71,-23,352,591,251,-237,74,26,360,493,186,60,355,457,216,557,558,430,345
65913,619,575,364,245,138,384,551,587,322,-65,430,737,320,-78,-6,371,589,226,-229,65,40,422,450,158,49,358,441,247,529,540,428,313
65914,647,614,379,241,141,365,539,448,313,-58,392,619,298,-43,-8,353,524,201,-234,85,60,547,382,149,62,376,484,326,508,562,444,215
65915,623,607,353,222,128,414,515,449,306,-51,374,538,274,-59,-7,312,481,167,-252,85,74,547,313,120,71,390,553,334,466,550,435,147
65916,563,480,350,243,128,410,498,528,309,-42,338,667,282,-63,-36,258,424,173,-244,57,9,387,295,118,46,344,365,291,467,541,424,422
65917,573,448,355,239,120,411,485,510,295,-51,326,783,276,-61,-53,270,372,177,-246,65,17,410,265,97,34,342,393,260,449,500,401,291
65918,611,547,345,233,138,375,486,436,301,-58,355,772,287,-58,-53,223,497,220,-246,57,-4,442,325,114,34,335,395,263,484,544,431,495
65919,600,621,356,230,144,390,473,443,299,-48,327,730,295,-88,-78,72,596,244,-272,44,-98,405,431,151,29,287,298,182,513,558,446,559
65920,579,606,347,230,119,354,439,440,313,-44,319,636,274,-73,-69,186,593,244,-259,51,-60,334,502,173,29,303,321,143,532,542,440,424
65921,520,596,313,223,127,354,463,454,331,-42,343,576,281,-69,-40,264,632,259,-227,68,-18,265,573,198,57,344,376,130,575,573,466,425
65922,539,544,255,220,113,358,488,473,320,-60,381,660,305,-76,-38,253,560,300,-230,49,-52,280,598,207,49,329,350,118,578,552,441,401
65923,529,494,248,225,111,388,410,487,327,-38,393,719,318,-54,-34,243,428,336,-213,50,-59,266,678,243,51,310,319,111,603,545,453,374
65924,538,488,279,235,112,395,380,484,328,-12,387,705,336,-58,-38,237,383,332,-197,51,-48,157,720,286,62,316,329,357,658,517,402,313
65925,437,460,271,228,108,350,384,496,315,-46,343,619,315,-68,-22,271,372,264,-208,68,-9,222,566,233,62,356,465,149,619,596,508,297
65926,315,417,250,218,122,342,359,465,307,-61,333,559,282,-70,-42,255,430,204,-232,53,-2,312,407,202,41,338,458,244,586,610,492,329
65927,407,418,228,194,123,359,369,421,298,-48,323,597,276,-71,-42,252,446,203,-247,31,-47,195,350,191,23,300,283,311,578,569,415,319
65928,424,459,219,165,101,359,373,342,276,-74,314,567,223,-115,-63,265,379,169,-284,20,-63,198,307,140,2,275,269,166,507,507,403,260
65929,529,540,257,195,130,376,396,375,285,-34,347,577,251,-75,-17,269,336,210,-238,63,21,286,351,156,38,327,413,241,542,530,395,56
65930,594,575,302,183,120,368,377,408,282,-36,366,599,272,-55,47,356,435,221,-215,103,97,302,363,175,84,407,556,211,579,594,468,248
65931,590,569,292,176,131,338,434,441,298,-42,391,620,282,-44,65,406,449,222,-223,115,123,416,350,172,95,405,571,47,511,557,453,220
65932,591,559,269,175,129,321,522,452,302,-31,444,688,304,-44,75,341,471,266,-197,134,141,450,410,218,96,453,658,205,569,604,498,40
65933,588,531,205,154,111,288,520,489,268,-49,416,736,308,-65,45,297,427,270,-219,102,89,392,381,195,68,409,550,182,514,551,435,130
65934,610,488,252,171,116,339,544,507,297,-22,410,763,325,-43,55,340,587,310,-198,131,108,389,438,231,86,416,527,328,581,592,498,388
65935,599,501,282,224,128,265,557,579,326,-50,352,723,347,-37,26,344,656,326,-177,132,52,353,512,257,99,387,320,515,684,667,562,595
65936,566,443,260,218,114,264,501,587,319,-69,356,715,342,-49,12,341,638,336,-182,100,46,376,550,271,93,389,300,515,709,682,603,601
65937,568,456,309,204,119,322,501,598,336,-47,331,809,372,-50,10,308,517,359,-175,78,43,357,579,243,67,359,358,181,656,615,519,579
65938,545,534,367,216,114,311,420,491,322,-77,318,792,338,-61,-12,253,535,358,-184,54,21,394,679,245,42,318,361,127,578,518,404,502
65939,555,479,366,266,104,411,402,444,321,-57,381,695,316,-87,-10,297,473,284,-223,55,41,382,487,154,14,310,347,-32,468,463,354,413
65940,612,526,386,281,115,380,458,515,329,-52,430,781,350,-61,9,386,511,271,-223,74,81,357,354,130,25,342,398,-39,444,494,389,445
65941,596,541,368,257,114,360,434,542,318,-53,452,673,332,-58,15,369,551,262,-230,61,61,385,337,148,52,355,414,306,480,543,408,442
65942,602,526,356,267,130,385,499,602,352,-36,439,600,331,-31,42,313,482,246,-207,95,37,379,283,179,67,363,414,389,539,562,424,430
65943,550,505,315,275,126,376,551,594,354,-41,380,642,335,-49,50,334,451,245,-194,101,74,470,308,185,61,366,483,406,514,535,428,436
65944,491,468,275,270,110,312,486,501,348,-58,366,666,345,-37,15,290,570,264,-177,114,78,480,361,195,100,409,543,444,562,594,483,405
65945,478,464,251,255,88,292,418,439,325,-72,327,681,316,-36,-17,205,574,261,-185,93,43,320,364,182,90,384,501,355,540,592,468,454
65946,431,434,219,213,78,351,419,403,308,-59,340,540,276,-48,14,375,474,206,-210,102,76,137,361,166,78,373,444,239,489,527,409,352
65947,482,483,282,215,96,349,405,436,336,-55,398,535,294,-38,39,426,548,211,-195,120,121,228,375,158,81,387,489,130,448,430,320,197
65948,544,461,317,193,108,376,415,454,329,-64,447,602,284,-46,25,400,523,204,-218,111,106,341,344,113,44,368,477,48,370,363,265,152
65949,574,430,320,191,96,350,447,464,313,-61,406,649,298,-37,22,390,400,216,-223,105,104,313,341,134,48,369,502,17,374,386,293,128
65950,610,553,367,224,111,290,499,515,324,-54,368,786,326,-23,38,421,367,241,-192,132,128,405,369,158,71,400,555,57,423,449,351,157
65951,651,595,369,224,118,269,555,540,329,-55,402,814,339,-9,65,438,471,264,-190,164,177,478,448,196,93,438,701,258,496,477,348,72
65952,653,559,345,209,97,278,539,515,346,-62,342,741,326,-7,59,346,536,262,-193,145,114,424,415,206,87,414,538,211,474,479,360,445
65953,639,509,350,223,100,288,492,508,350,-60,327,730,341,-6,38,243,478,269,-181,124,53,446,388,200,66,377,329,9,451,470,341,520
65954,588,434,299,204,98,269,459,500,350,-60,346,790,331,-23,27,231,458,298,-186,136,42,395,483,206,81,380,280,-200,470,506,374,497
65955,572,444,226,193,86,300,426,482,350,-69,376,766,336,-19,24,260,536,319,-150,149,47,359,606,233,110,410,349,-233,481,529,431,495
65956,524,454,155,175,65,302,379,455,298,-76,374,613,323,-12,25,275,425,302,-154,141,51,334,688,262,101,402,423,-154,513,497,391,387
65957,465,407,185,183,49,297,406,483,336,-78,358,637,349,-11,27,285,428,383,-129,133,52,208,893,328,113,374,460,-105,540,395,312,54
65958,451,440,182,185,71,341,485,497,318,-62,389,562,335,0,24,335,384,312,-156,130,88,153,646,248,81,371,516,-140,417,369,275,-137
65959,555,527,194,213,88,306,433,510,331,-91,337,409,315,3,-1,296,320,229,-159,113,60,295,440,191,60,372,411,-93,406,446,295,222
65960,589,534,151,237,79,280,427,547,334,-104,292,541,316,-13,-37,188,285,205,-161,84,0,288,294,172,56,327,294,-15,410,453,336,304
65961,555,544,141,233,80,263,442,510,315,-87,326,508,280,-24,-39,211,243,132,-197,72,24,290,95,103,56,337,344,211,395,465,372,349
65962,590,589,232,248,97,298,473,467,319,-62,352,433,268,-6,-9,316,259,97,-187,100,54,399,19,95,50,348,369,397,394,458,360,306
65963,579,573,213,207,86,272,480,456,332,-89,319,433,274,-14,-27,302,274,109,-200,70,6,184,12,70,22,312,279,356,362,399,325,195
65964,513,478,193,179,58,275,409,438,295,-109,303,454,243,-21,-31,257,304,93,-219,84,8,251,57,66,17,311,361,346,388,425,327,243
65965,484,381,154,183,71,291,404,415,301,-73,325,462,246,-17,8,299,318,89,-206,90,7,384,83,104,29,328,344,374,406,448,341,380
65966,491,341,126,230,83,315,408,504,313,-79,336,588,272,-5,3,257,318,148,-207,90,0,393,161,126,21,345,282,326,448,471,422,412
65967,486,393,170,220,81,333,403,456,313,-80,338,678,264,-23,-28,226,289,181,-216,99,-22,372,200,137,28,318,236,281,424,436,363,338
65968,496,459,131,231,103,347,379,411,311,-79,349,625,271,-17,-18,246,321,187,-186,108,-17,376,212,140,59,330,275,343,410,429,343,382
65969,503,456,88,201,77,338,328,386,289,-67,360,573,271,-15,-12,160,370,206,-176,113,-22,319,270,182,79,342,297,314,467,494,352,480
65970,511,491,127,170,64,360,325,338,297,-55,455,485,256,-15,20,303,312,156,-175,121,23,380,219,159,82,364,365,82,433,482,381,456
65971,499,501,103,162,76,427,332,345,289,-48,529,466,238,-20,31,330,308,139,-210,106,23,352,157,135,65,350,364,59,379,437,348,268
65972,469,461,105,134,78,436,398,361,290,-65,389,506,247,-22,-14,227,370,196,-208,100,6,313,260,160,75,352,360,171,417,482,365,309
65973,507,510,150,189,71,364,465,389,304,-74,296,573,285,-21,-19,246,442,233,-177,118,26,309,340,203,95,382,373,172,465,542,436,322
65974,522,555,182,171,76,264,566,411,306,-68,388,620,289,-9,24,376,445,240,-175,139,96,214,357,202,104,426,555,100,445,483,367,198
65975,520,534,214,182,104,253,579,401,296,-58,389,669,302,-12,11,443,539,282,-172,134,121,226,472,219,102,409,627,-47,449,455,329,135
65976,520,413,221,188,113,312,564,395,298,-51,365,630,308,0,-12,362,400,253,-176,98,62,113,507,223,101,363,424,-67,483,469,357,60
65977,462,389,124,179,79,273,515,362,281,-87,333,549,287,-27,-23,378,374,195,-203,86,82,310,426,196,84,357,468,-26,484,464,307,182
65978,440,435,109,180,101,337,498,407,295,-67,367,490,276,-20,-36,332,430,207,-200,62,46,420,384,187,68,313,322,132,485,456,347,428
65979,464,451,116,178,84,311,462,437,284,-77,325,470,264,-22,-63,215,306,178,-227,21,-7,443,337,161,39,279,285,48,452,436,347,328
65980,482,470,106,171,76,291,395,440,282,-73,321,548,253,-40,-62,156,297,177,-232,37,-40,393,357,156,37,287,317,105,466,438,325,223
65981,507,417,136,177,75,377,332,466,285,-44,387,638,301,-18,-28,183,416,227,-207,60,-34,366,392,213,55,301,241,172,507,473,345,357
65982,512,354,115,152,68,364,320,428,282,-51,397,653,285,-25,-9,221,416,239,-209,64,-21,333,390,216,61,286,225,102,492,469,351,417
65983,496,423,92,163,71,287,380,434,296,-54,394,660,291,-7,-5,274,416,242,-179,90,19,376,446,224,69,314,274,53,497,465,329,388
65984,472,483,88,160,69,280,414,430,299,-60,424,644,315,12,22,239,434,265,-154,109,17,437,523,263,83,332,282,44,516,492,344,359
65985,492,509,101,165,91,297,505,431,305,-60,421,638,310,2,26,210,333,268,-148,128,18,409,526,258,86,363,304,55,518,506,398,375
65986,483,466,125,151,60,274,527,396,299,-69,417,653,294,-6,22,372,290,224,-153,136,50,299,428,243,82,367,326,72,479,488,388,325
65987,527,370,141,169,78,298,525,393,288,-66,421,575,284,-10,0,318,317,194,-170,124,31,197,351,221,92,340,310,180,468,449,354,232
65988,439,407,3,176,97,335,519,440,298,-61,358,480,293,8,4,214,398,160,-164,136,20,207,271,202,109,350,333,275,487,484,354,253
65989,299,450,-95,165,71,307,479,449,297,-62,346,442,287,9,-3,215,396,162,-154,140,22,238,316,222,120,361,361,336,522,534,391,207
65990,405,489,50,179,61,310,442,456,301,-56,352,319,267,8,0,282,373,151,-152,142,90,241,302,213,135,400,498,187,483,502,368,-116
65991,494,533,116,166,66,320,455,342,285,-57,399,466,248,-17,11,346,372,164,-159,154,120,384,260,199,136,402,547,96,481,521,353,224
65992,505,549,120,128,67,337,437,314,253,-67,418,472,242,-28,0,342,353,147,-176,133,73,318,259,190,112,356,377,40,466,524,382,315
65993,483,553,136,122,62,347,457,296,264,-52,425,445,242,-43,0,298,319,146,-193,115,67,220,289,151,99,354,376,17,442,465,349,255
65994,501,546,152,124,61,333,488,284,274,-65,352,467,228,-41,-3,311,309,138,-206,101,74,215,280,141,83,345,453,144,410,443,329,142
65995,517,549,149,162,60,359,494,315,280,-51,312,530,230,-35,-24,295,344,159,-211,91,52,241,309,145,61,328,493,192,386,391,264,46
65996,497,477,113,133,56,355,440,375,258,-85,284,550,241,-64,-57,221,355,163,-243,59,-27,299,316,147,39,270,376,245,397,380,247,210
65997,436,430,87,123,66,291,415,383,256,-98,266,460,235,-62,-91,194,319,117,-235,25,-78,265,244,134,28,255,219,256,413,411,267,332
65998,438,395,56,115,79,290,397,337,270,-76,271,492,232,-63,-70,132,303,103,-221,39,-62,266,242,131,43,262,218,156,399,417,258,348
65999,411,311,65,118,83,300,379,294,290,-52,279,516,239,-27,-51,169,347,164,-200,62,-16,265,325,146,64,281,289,45,432,425,289,324
66000,385,345,66,137,66,341,347,299,286,-78,248,450,239,-43,-58,205,366,175,-235,35,-35,284,396,140,9,257,309,240,452,365,238,221
66001,400,475,45,161,69,407,395,282,300,-62,374,506,221,-68,-44,228,339,131,-245,35,-58,328,310,111,-4,238,288,128,404,363,264,243
66002,444,459,49,161,78,386,499,302,295,-41,402,559,209,-56,-53,207,173,107,-262,30,-66,248,150,35,-35,230,215,-67,300,368,247,240
66003,483,438,27,153,112,346,548,343,299,-62,390,559,226,-54,-40,172,184,105,-267,40,-52,228,126,45,-16,240,224,-75,303,355,281,241
66004,457,395,9,146,82,292,483,364,287,-81,310,568,215,-68,-51,211,232,136,-265,20,-31,205,189,66,-39,241,260,-36,323,367,236,205
66005,458,426,34,177,77,269,491,391,308,-85,320,628,248,-35,-16,295,245,158,-241,48,37,297,203,79,-14,271,346,205,365,399,245,198
66006,526,486,121,192,98,274,512,403,317,-67,341,671,259,-32,-7,284,290,193,-220,56,40,237,364,112,-6,283,378,341,431,395,294,168
66007,524,517,142,177,93,303,529,374,293,-55,379,581,216,-52,10,404,254,158,-260,70,100,192,307,65,-18,288,446,-249,349,351,218,76
66008,499,539,159,169,107,325,493,390,281,-44,423,525,238,-30,47,418,374,191,-239,91,126,263,376,83,8,306,493,-368,334,359,246,-11
66009,516,561,139,181,117,318,451,377,303,-20,455,478,257,-12,64,269,317,153,-224,96,109,315,348,102,44,326,485,-183,330,391,282,14
66010,526,544,97,181,110,289,469,388,309,-16,456,469,255,-30,43,417,288,110,-231,116,110,312,260,111,62,331,410,-76,392,452,359,299
66011,516,433,115,184,114,360,462,429,329,-22,466,522,291,-22,48,408,357,148,-216,105,51,254,318,149,63,343,262,25,450,498,359,464
66012,517,353,124,130,100,377,409,431,316,-31,410,591,295,-43,-14,300,314,177,-223,57,28,351,349,162,41,308,250,-56,436,485,363,405
66013,511,338,172,204,92,306,342,484,322,-51,335,677,316,-46,-59,231,374,199,-219,25,-11,352,434,166,36,296,291,-207,437,444,299,341
66014,504,367,193,244,105,364,402,500,349,-38,406,753,365,-28,-40,231,425,247,-193,67,-7,381,468,181,42,316,312,-129,413,426,276,382
66015,471,332,121,223,91,377,461,458,319,-49,414,662,311,-77,-94,226,378,165,-239,25,-23,370,347,112,21,293,301,159,430,414,334,346
66016,493,387,94,222,118,347,482,467,310,-43,408,652,265,-90,-104,260,327,127,-267,-15,-46,291,281,71,7,259,299,244,423,423,369,293
66017,533,510,102,227,131,302,487,450,301,-47,356,477,264,-82,-110,255,349,112,-274,-15,-57,163,227,76,-12,264,333,305,430,468,383,267
66018,579,568,152,235,129,334,508,397,320,-61,362,424,273,-70,-82,295,267,77,-264,22,7,290,131,52,4,304,462,160,398,455,318,158
66019,562,523,132,199,113,315,474,312,307,-40,371,400,259,-59,-45,322,392,82,-254,45,52,377,194,85,22,342,570,186,421,453,377,193
66020,556,517,153,211,124,350,506,400,338,-39,367,435,304,-49,-51,293,489,170,-209,53,17,450,327,161,57,348,445,249,502,544,434,456
66021,519,465,148,234,134,374,521,458,342,-35,409,534,350,-50,-15,268,529,240,-207,96,47,452,434,208,95,364,439,246,586,623,465,576
66022,511,353,144,254,124,323,505,496,339,-24,386,597,356,-67,-32,214,510,284,-216,75,23,323,548,231,86,339,378,249,577,557,458,295
66023,523,397,158,275,103,292,533,534,346,-38,322,634,348,-61,-17,264,499,252,-209,88,21,403,493,189,74,333,407,60,458,456,340,48
66024,542,506,183,249,112,287,486,503,337,-25,332,605,342,-61,6,246,430,230,-203,106,42,365,421,176,85,355,409,-33,470,497,372,200
66025,544,514,161,241,114,343,442,480,336,-25,391,589,326,-53,9,257,355,219,-204,106,57,417,398,179,97,374,398,70,506,541,431,329
66026,558,553,186,246,107,323,465,483,335,-53,368,654,341,-54,21,293,420,229,-196,111,58,422,402,193,87,386,377,250,535,565,439,335
66027,576,607,141,230,119,348,533,459,326,-41,427,628,321,-47,52,371,444,231,-211,125,122,391,375,193,125,415,502,307,541,603,511,141
66028,585,595,124,224,119,374,567,446,305,-7,468,569,285,-57,80,477,404,179,-226,151,190,345,265,167,132,463,685,227,529,603,478,256
66029,588,582,214,261,134,341,578,462,315,0,434,635,322,-39,93,451,495,256,-171,169,156,395,388,206,163,466,523,244,575,626,485,390
66030,564,537,253,243,112,336,531,468,319,-26,399,660,307,-54,37,394,500,262,-209,153,117,398,430,187,153,431,474,160,519,525,398,146
66031,574,525,264,256,131,332,483,496,332,-26,408,673,318,-54,45,351,489,269,-201,131,93,398,457,195,132,401,351,98,507,546,439,445
