,Fp1,Fp2,F7,F3,Fz,F4,F8,FC5,FC1,FC2,FC6,T7,C3,Cz,C4,T8,TP9,CP5,CP1,CP2,CP6,TP10,P7,P3,Pz,P4,P8,PO9,O1,Oz,O2,PO10
47978,363,357,99,369,288,-25,202,-138,-60,-16,-134,557,373,57,211,155,708,253,253,30,372,33,346,152,345,648,929,19,-140,-180,73,-21
47979,405,497,89,373,276,-10,229,-121,-57,10,-103,639,384,59,239,60,664,290,259,42,354,35,404,186,366,635,842,17,-97,-150,105,-36
47980,475,514,73,341,282,-22,266,-140,-43,-3,-51,552,413,60,240,-4,691,349,274,50,350,6,493,209,380,633,817,15,-58,-52,280,211
47981,518,560,104,324,302,-83,289,-97,-31,-5,-88,387,412,62,233,51,812,354,297,42,383,-56,483,231,395,631,885,180,-18,-1,356,470
47982,505,554,109,308,315,-41,301,-56,-17,8,-37,376,402,50,248,141,744,306,254,38,335,-131,359,163,336,552,773,98,-212,-326,-129,-93
47983,439,520,195,372,320,-25,271,-11,-11,11,12,359,419,64,241,169,666,295,250,46,335,-42,332,122,318,550,734,-104,-258,-387,-221,-386
47984,451,581,241,404,346,-164,258,-11,-6,-1,-37,382,435,66,210,171,650,333,267,39,302,27,439,157,337,552,676,-60,-210,-315,-109,-296
47985,450,600,242,409,311,-149,352,-47,-28,-36,-97,419,457,46,176,67,398,321,247,-33,211,64,388,123,302,509,569,-342,-353,-401,-172,-294
47986,427,520,180,402,298,-21,363,-91,-18,-29,-100,568,433,59,164,-68,558,335,273,-11,247,128,429,140,318,531,663,-288,-352,-369,-110,-191
47987,439,476,36,396,300,-66,422,-131,-17,-27,-113,633,403,68,202,-228,796,281,262,17,250,163,431,138,323,551,712,-127,-269,-305,-75,-127
47988,426,403,-58,401,284,-134,395,-131,0,-44,-172,466,433,66,172,-72,788,301,247,-4,229,33,358,132,318,525,687,-103,-261,-296,-45,-110
47989,381,293,-100,358,275,-136,283,-174,6,-41,-173,346,477,66,171,83,708,415,263,5,292,28,257,141,316,559,745,-56,-215,-204,49,19
47990,311,304,-88,353,280,-118,275,-173,-2,-53,-170,354,476,70,198,171,666,317,258,10,314,56,304,117,332,593,814,-133,-195,-173,147,64
47991,321,424,70,389,307,-97,285,-144,2,-42,-87,452,453,76,218,217,726,289,262,46,350,14,464,162,365,606,822,-76,-139,-168,157,41
47992,378,468,222,355,324,-101,334,-118,-15,-37,-115,561,366,78,192,230,753,282,273,19,316,73,510,170,349,552,684,5,-132,-276,-57,-86
47993,384,522,277,341,304,-107,370,-121,-22,-25,-98,589,355,88,196,223,791,253,248,7,324,237,434,150,353,575,698,109,-103,-195,52,83
47994,443,593,224,345,304,-127,401,-151,-7,-35,-69,497,374,65,203,205,764,250,227,29,298,193,373,110,358,576,712,104,-134,-196,58,87
47995,526,626,259,384,303,-116,393,-150,-30,-26,-27,499,375,70,211,194,599,265,241,24,312,151,360,96,339,564,742,-153,-268,-337,-73,-114
47996,534,605,271,360,318,-123,413,-147,-14,-17,1,511,387,83,244,218,578,297,264,63,337,153,404,135,358,575,773,-178,-254,-280,-17,-56
47997,496,603,262,394,320,-133,410,-110,-7,-31,-14,479,415,77,228,274,614,324,270,45,366,136,362,137,351,611,845,-177,-233,-228,62,144
47998,422,545,169,412,299,-179,371,-96,-19,-24,-66,464,405,80,249,274,562,288,275,72,394,200,286,117,389,635,1001,-110,-193,-186,133,214
47999,418,523,135,387,293,-120,370,-65,-7,-18,-89,529,427,86,240,279,483,278,266,98,397,166,316,121,382,608,917,-148,-217,-248,5,-185
48000,445,490,156,359,304,-14,408,-111,-26,0,-47,494,408,98,270,319,753,244,267,98,401,149,355,128,362,618,872,-206,-270,-300,-51,-172
48001,468,458,190,397,297,4,374,-95,-19,-17,-59,482,398,105,224,505,808,242,280,70,381,205,264,116,366,640,856,-282,-271,-269,-44,-18
48002,493,479,240,402,258,-61,366,-62,-19,-48,-83,491,415,108,246,431,755,255,264,85,366,139,278,139,378,643,863,-220,-224,-207,83,56
48003,508,485,211,418,287,-27,387,-19,10,-5,-74,491,447,100,283,281,792,270,265,101,342,85,331,172,391,629,847,-125,-201,-192,119,72
48004,450,480,154,486,310,-67,351,41,24,-11,-18,554,459,104,262,129,822,287,289,100,344,61,399,185,391,628,752,-90,-184,-164,119,49
48005,358,513,108,515,286,-153,396,44,21,-1,7,527,456,104,255,44,758,338,271,106,352,73,467,189,407,618,679,-109,-121,-102,217,126
48006,320,536,134,482,289,-150,380,-23,17,6,56,640,435,102,303,141,554,387,243,98,398,95,396,176,416,637,756,-35,-80,-64,255,216
48007,350,506,145,414,283,-110,431,-212,-27,-6,51,908,368,99,312,192,816,341,260,91,395,81,406,190,403,642,784,236,-13,-19,251,204
48008,391,464,122,394,273,-82,392,-184,-33,-10,-11,760,397,99,295,254,987,324,257,105,428,1,425,231,436,674,864,315,55,80,396,331
48009,473,501,221,357,270,-49,407,-138,-26,-1,-20,614,421,84,295,259,746,355,264,105,459,-48,399,228,404,644,862,137,-29,-43,251,204
48010,485,483,261,292,273,-1,355,-163,-19,-15,-14,459,411,86,299,77,691,392,256,89,430,92,450,239,402,622,834,104,-34,-36,223,176
48011,449,470,244,323,292,25,366,-137,-10,-10,-56,390,459,98,259,155,922,421,243,46,358,5,553,246,384,557,708,246,-55,-122,71,-177
48012,446,465,283,343,298,-36,361,-77,-19,-28,-67,401,451,80,231,257,910,413,255,32,301,10,483,216,340,537,668,45,-105,-202,-16,-256
48013,498,474,314,337,298,-92,345,-56,-3,-15,-40,495,438,74,243,279,847,365,261,45,309,119,444,168,347,573,767,-160,-163,-191,55,-92
48014,530,485,345,331,315,-66,394,-64,-15,-6,13,675,443,83,284,303,868,370,265,38,366,92,491,134,335,596,801,-274,-297,-267,23,-99
48015,525,546,305,379,306,-75,354,-101,-21,0,6,791,420,88,282,249,862,368,262,70,357,65,531,167,362,607,802,-103,-200,-208,96,-42
48016,470,483,282,420,300,-81,251,-93,-19,-12,-43,760,433,85,245,210,804,430,280,84,360,62,582,198,380,624,825,57,-110,-134,148,74
48017,432,440,228,400,290,-46,387,-67,-5,-1,27,564,473,83,277,148,668,560,274,88,361,70,480,171,353,618,870,-214,-194,-189,114,33
48018,402,486,250,354,293,-100,482,-106,-22,-11,56,434,439,83,267,93,631,386,259,66,339,44,497,172,340,591,833,-416,-246,-248,65,-8
48019,457,539,290,383,292,-98,478,-93,-24,-4,40,473,440,92,259,128,814,308,255,45,325,34,478,135,311,559,784,-197,-239,-272,-6,2
48020,462,543,284,391,268,-77,476,-141,-38,-8,5,517,419,76,264,271,823,339,248,77,384,61,331,114,328,616,984,-94,-270,-257,35,136
48021,403,531,241,382,268,-39,478,-167,-57,-28,-50,521,394,68,268,278,746,331,246,98,401,144,323,129,340,653,1023,-105,-191,-157,192,300
48022,438,516,187,398,258,-16,446,-161,-44,-11,-39,639,415,75,262,320,731,366,249,77,384,152,413,144,347,589,913,-122,-166,-159,160,189
48023,454,541,158,408,282,3,431,-133,-24,4,5,607,445,101,278,314,750,374,240,75,391,65,463,172,335,562,813,-134,-213,-187,116,84
48024,400,514,99,409,278,-63,428,-111,-14,-8,34,543,458,87,284,305,741,370,234,58,383,63,463,150,327,555,766,-149,-286,-251,25,-66
48025,396,499,131,421,266,-80,431,-87,-12,-1,54,522,473,98,269,276,837,360,259,61,376,63,449,158,348,559,756,-45,-237,-229,26,-121
48026,360,503,214,452,258,-68,490,-5,-5,4,21,527,454,113,304,270,898,370,284,103,391,132,470,180,401,626,767,153,-127,-123,156,118
48027,367,516,256,482,273,-87,476,23,-35,-16,29,438,353,85,282,227,857,304,243,73,352,210,285,113,358,537,670,-111,-231,-287,-23,-46
48028,437,504,332,453,277,-87,459,-71,-32,-17,60,426,360,69,242,193,771,262,229,52,315,184,190,109,329,517,711,-264,-218,-275,7,-31
48029,482,506,412,469,287,-32,459,-76,-21,-12,52,542,398,67,246,236,790,319,238,67,329,182,295,148,350,559,766,-67,-164,-203,63,40
48030,466,537,356,453,302,-51,474,-61,-21,-6,48,571,370,70,262,274,880,309,241,62,351,192,329,141,346,585,751,5,-156,-188,117,62
48031,467,526,374,437,297,-35,524,-55,-44,-29,-4,597,376,46,216,219,763,300,247,33,348,167,320,144,322,562,714,-33,-195,-184,68,26
48032,537,543,341,449,320,-89,539,8,-4,-28,8,637,438,69,238,202,696,366,264,55,372,202,404,157,350,558,793,-68,-195,-193,56,26
48033,452,465,259,432,288,-47,550,30,11,-2,31,723,472,81,251,178,563,398,260,29,376,196,548,160,344,552,841,-47,-166,-188,67,21
48034,419,445,236,403,297,-27,519,-45,1,-7,-3,798,420,80,257,138,589,433,264,12,366,136,544,158,323,559,825,-26,-182,-216,41,-42
48035,497,518,307,421,308,-63,487,2,5,-3,92,623,435,63,286,-19,832,401,255,22,355,-19,470,155,322,545,770,-43,-197,-230,5,-65
48036,515,548,357,391,293,-33,471,-15,-1,-21,101,501,445,83,286,-71,890,360,253,13,349,-44,460,191,322,564,763,4,-134,-150,82,34
48037,490,522,323,363,288,-6,493,-114,-35,-26,85,487,380,52,248,123,893,332,225,2,338,75,356,171,301,534,784,96,-134,-138,127,67
48038,527,541,317,345,265,25,551,-144,-35,-25,113,506,340,46,253,324,866,305,219,17,371,28,324,168,310,507,804,34,-138,-194,93,34
48039,491,584,346,340,273,-110,548,-105,-22,-43,22,581,413,69,225,519,834,373,269,19,366,11,416,203,349,535,761,92,-101,-147,140,69
48040,420,594,331,363,265,-218,523,-80,-26,-57,-8,647,430,97,194,675,731,402,298,66,356,137,414,231,377,595,910,25,-67,-35,286,348
48041,374,539,366,359,283,-256,541,-83,-32,-67,0,681,437,111,228,534,698,424,304,98,396,210,525,244,408,675,1080,80,20,73,385,531
48042,432,495,433,395,298,-236,522,-25,-6,-49,-42,706,442,111,212,472,813,452,298,63,364,131,552,226,401,619,986,26,-20,-54,189,86
48043,465,399,437,411,284,-199,504,-12,9,-31,16,635,452,101,234,395,971,452,275,52,343,124,483,198,322,528,744,-48,-164,-290,-119,-326
48044,500,365,389,418,280,-173,524,-10,13,-30,70,626,456,100,262,218,906,446,279,29,352,144,316,208,326,548,729,-34,-209,-314,-50,-119
48045,362,388,285,422,275,-159,447,15,9,-57,66,626,433,96,234,155,788,480,264,36,357,159,134,171,325,579,807,-60,-180,-199,157,206
48046,242,446,160,462,288,-155,445,55,31,-61,75,670,402,86,232,210,886,289,271,48,313,196,227,165,317,565,770,23,-144,-129,207,287
48047,225,476,79,530,292,-186,520,39,39,-63,61,581,416,83,222,203,884,298,251,10,317,64,242,142,310,561,706,153,-120,-100,175,227
48048,230,479,184,516,280,-138,490,13,20,-65,72,529,422,61,186,181,833,367,213,16,323,-88,216,121,287,571,708,217,-150,-165,68,-54
48049,348,465,303,484,293,-121,451,16,37,-51,119,607,442,54,196,160,717,362,202,-2,285,-133,191,112,262,515,653,68,-217,-317,-126,-519
48050,424,498,378,444,287,-128,420,-24,28,-51,53,516,443,61,179,121,730,312,218,-18,272,41,147,93,255,510,719,-163,-255,-337,-133,-201
48051,458,532,389,429,272,-143,373,-42,9,-85,-7,421,444,51,145,57,834,345,218,-27,242,87,249,149,270,513,659,-112,-234,-261,51,26
48052,517,594,410,416,261,-166,411,-73,-7,-86,-29,477,449,61,165,138,795,387,225,2,280,55,274,171,295,547,695,-325,-264,-241,93,67
48053,556,596,395,437,305,-179,472,15,20,-70,-15,543,440,76,165,226,768,424,230,-5,270,124,240,145,284,532,632,-375,-338,-306,9,-46
48054,523,517,304,415,302,-206,457,24,0,-73,-52,568,385,55,152,238,732,380,191,-19,270,126,183,98,239,482,595,-238,-365,-370,-169,-353
48055,409,490,262,415,267,-223,415,-47,6,-100,-47,537,414,42,116,210,648,387,185,-42,236,31,198,84,214,450,595,-172,-376,-475,-283,-476
48056,427,533,294,418,271,-219,475,-98,8,-65,21,694,392,57,181,200,634,421,179,-24,283,42,267,125,254,512,682,-36,-294,-321,-89,-174
48057,501,558,372,384,303,-251,507,-52,17,-53,67,755,413,64,201,159,720,421,210,-7,305,175,327,161,287,523,684,93,-177,-208,70,22
48058,510,527,397,375,290,-238,482,-24,-1,-66,102,628,410,45,170,143,829,373,202,5,287,203,255,149,255,507,699,55,-205,-224,96,47
48059,550,536,377,336,285,-152,487,-66,-29,-59,126,636,395,42,208,178,762,293,203,16,322,207,56,87,234,519,709,-202,-276,-302,111,62
48060,507,528,409,347,278,-136,505,-123,-12,-51,128,617,393,49,217,91,700,288,210,7,315,204,56,64,252,509,698,-204,-276,-288,42,76
48061,445,511,446,407,272,-129,494,-171,-25,-59,136,586,385,39,206,47,698,273,188,-18,302,81,84,42,212,470,629,-201,-337,-405,-158,-176
48062,457,488,404,389,275,-56,510,-135,-15,-45,137,575,405,40,208,252,643,272,182,-9,329,-38,64,65,223,503,706,-182,-325,-373,-130,-145
48063,488,470,415,355,278,-10,534,-132,12,-4,176,616,428,68,266,349,579,293,222,33,397,-13,103,122,270,582,913,-89,-265,-345,-109,-106
48064,465,480,400,339,282,-119,508,-128,7,-30,126,643,417,58,231,326,524,311,212,25,395,44,154,81,239,568,902,-239,-350,-416,-167,-228
48065,474,423,386,340,297,-212,459,-82,0,-57,48,577,386,36,179,304,616,293,181,-17,330,-73,106,40,194,500,742,-324,-446,-481,-211,-327
48066,449,331,323,378,315,-191,378,-82,6,-43,44,526,383,45,192,287,732,243,190,-26,298,-111,108,73,208,464,620,-262,-410,-407,-105,-114
48067,390,307,271,371,293,-127,356,-86,17,-49,29,528,404,31,172,125,672,270,183,-45,220,-66,127,44,182,433,527,-336,-419,-418,-120,-109
48068,307,294,234,389,252,-76,303,-83,8,-75,23,504,405,23,147,-102,660,397,188,-69,181,12,-5,32,161,412,582,-339,-458,-450,-119,-101
48069,183,333,234,461,259,-81,336,-101,-21,-59,33,444,356,26,145,-81,761,166,178,-46,214,71,108,45,198,459,677,-271,-418,-372,-46,-25
48070,139,289,196,475,277,-88,389,-90,5,-51,69,382,357,35,176,-17,689,130,179,-22,240,105,133,60,220,493,725,-179,-375,-339,-35,16
48071,199,372,182,460,274,-216,406,-80,20,-65,50,346,396,63,175,99,663,227,210,-17,220,94,114,82,226,465,676,-92,-336,-344,-93,-70
48072,299,378,253,406,244,-273,363,-118,11,-50,-1,351,404,60,153,80,729,262,227,-13,213,44,176,103,234,435,603,-53,-249,-311,-55,-118
48073,384,358,248,326,232,-277,321,-159,0,-44,-23,386,413,69,142,50,759,297,243,9,225,24,193,133,255,442,640,-116,-239,-289,31,-32
48074,448,342,295,318,246,-300,330,-163,1,-34,0,424,408,92,164,57,738,293,260,29,257,23,218,141,282,461,708,-80,-258,-242,44,46
48075,444,266,280,265,241,-299,299,-229,-11,-38,5,498,373,67,161,45,737,303,272,37,264,50,325,153,282,503,757,43,-206,-189,103,201
48076,420,317,320,305,234,-275,313,-179,9,-29,18,513,398,102,191,2,714,356,301,46,236,-107,360,176,306,493,687,4,-137,-135,140,146
48077,390,362,302,295,212,-264,283,-202,1,-50,32,432,437,94,191,36,535,384,311,16,263,-255,349,141,307,526,701,47,-116,-138,167,96
48078,383,405,261,281,224,-292,296,-190,-16,-73,0,419,406,72,140,136,427,320,299,12,290,-111,258,109,299,534,792,-33,-169,-211,56,-1
48079,345,500,235,311,226,-288,315,-121,-21,-73,-66,420,393,59,88,102,575,312,237,-7,205,-11,206,60,229,424,671,-191,-314,-412,-303,-496
48080,309,560,305,362,224,-236,272,-119,-24,-71,-15,349,376,70,136,59,751,270,231,12,187,9,214,47,230,434,630,-346,-363,-422,-296,-509
48081,319,544,303,356,218,-242,238,-111,-36,-67,-41,329,355,70,134,177,766,246,242,6,201,-55,167,54,232,443,623,-435,-393,-385,-165,-242
48082,213,451,303,309,201,-193,301,-121,-42,-74,-18,377,351,61,140,54,654,256,257,20,194,-110,182,80,231,489,618,-437,-368,-340,-91,-131
48083,268,383,325,271,225,-203,319,-121,-15,-50,-61,489,366,83,164,-105,682,285,271,38,233,-119,246,108,271,538,603,-314,-303,-260,-76,-92
48084,372,427,334,278,233,-285,329,-150,-36,-65,-84,530,341,56,139,-158,773,235,233,-2,180,-158,217,46,232,440,484,-212,-393,-464,-340,-408
48085,412,472,291,275,236,-237,358,-187,-31,-56,-2,609,346,65,170,-8,624,282,231,17,241,-156,239,61,244,508,582,-88,-318,-372,-240,-301
48086,420,469,261,291,233,-192,350,-200,-28,-44,-2,780,325,70,164,83,582,324,247,40,289,-101,294,92,246,572,748,-148,-295,-297,-77,-152
48087,448,477,185,329,250,-195,339,-152,-9,-48,5,726,354,84,164,78,610,332,255,50,284,86,373,107,269,559,826,-179,-289,-266,-3,47
48088,449,414,143,334,229,-178,328,-127,-12,-78,-15,504,384,53,140,135,651,338,234,35,275,69,431,97,243,533,842,-215,-325,-248,78,253
48089,387,348,147,356,253,-169,383,-93,-17,-71,-17,425,365,53,163,167,706,387,230,33,278,-138,525,98,210,485,697,-372,-378,-367,-121,-48
48090,329,323,216,343,250,-155,348,-107,-16,-56,-20,447,379,41,176,208,727,308,236,28,310,-96,455,87,235,504,711,-440,-342,-324,-119,-261
48091,284,309,241,330,233,-164,315,-114,-12,-66,-34,408,381,32,150,145,806,245,210,-8,244,-88,354,48,231,455,662,-265,-314,-318,-157,-296
48092,303,344,247,365,237,-201,325,-122,-4,-84,-40,377,412,44,147,60,804,228,208,-37,199,-36,215,26,191,424,608,-234,-379,-419,-258,-385
48093,343,376,261,349,245,-223,304,-93,6,-76,-64,413,426,49,162,37,799,228,246,-6,246,28,234,72,216,454,698,-177,-325,-329,-96,-139
48094,325,407,210,346,261,-212,307,-103,6,-66,-47,471,390,76,153,74,784,288,250,15,241,68,378,149,258,475,664,-116,-226,-230,27,-20
48095,242,395,212,333,231,-182,324,-97,-22,-66,-15,462,304,69,172,34,721,393,249,1,198,-7,354,142,246,469,604,-142,-217,-221,2,-55
48096,229,425,294,338,239,-173,320,-130,-20,-50,25,466,365,60,208,51,782,372,246,5,205,5,343,140,236,458,546,-121,-250,-302,-135,-196
48097,288,386,341,343,241,-120,325,-149,-39,-33,16,479,310,60,185,101,857,175,231,-22,209,9,425,128,214,441,571,35,-250,-328,-188,-263
48098,323,291,266,320,212,-154,330,-136,-58,-60,59,412,313,40,166,91,789,198,231,-19,256,-165,355,109,188,445,637,-47,-258,-317,-178,-330
48099,397,295,234,305,221,-167,377,-79,-27,-50,96,405,345,61,170,81,727,254,223,-19,263,-181,346,107,179,439,604,-122,-261,-352,-213,-322
48100,411,348,267,299,233,-169,412,-104,-33,-32,111,425,322,62,187,86,639,250,205,-25,207,-36,304,95,168,416,568,-143,-297,-372,-215,-234
48101,429,407,299,296,234,-245,338,-136,-58,-58,112,499,304,27,152,69,625,215,188,-46,219,-16,320,55,148,379,571,-210,-360,-439,-206,-219
48102,468,539,341,310,245,-216,393,-90,-56,-62,103,542,282,18,148,147,645,210,189,-30,230,-48,285,40,145,393,599,-252,-381,-424,-181,-198
48103,473,549,391,328,250,-112,456,-108,-48,-23,138,522,257,38,175,174,710,193,151,-33,240,-10,257,24,135,433,623,-325,-408,-408,-165,-152
48104,448,547,273,335,236,-133,434,-131,-64,-38,124,421,279,26,154,116,844,175,152,-19,227,9,303,-15,126,407,540,-249,-336,-361,-146,-134
48105,431,579,155,345,267,-150,428,-95,-31,-31,54,328,305,42,174,86,840,210,190,-14,199,75,313,11,151,401,528,-130,-291,-314,-155,-133
48106,494,554,181,322,290,-159,408,-57,2,-19,60,361,329,62,183,69,721,237,207,-31,193,100,318,56,176,404,631,-31,-224,-284,-128,-125
48107,505,407,294,317,268,-202,403,-66,-13,-45,73,419,312,39,141,16,684,238,222,-51,214,91,348,76,170,379,613,38,-191,-260,-88,-146
48108,390,325,324,328,255,-170,383,-148,-30,-59,32,487,296,23,139,-56,594,207,190,-48,193,28,297,74,172,386,628,-43,-209,-231,-34,-47
48109,348,412,322,325,265,-125,391,-176,-50,-50,44,529,277,34,143,-75,674,198,194,-56,164,13,272,78,168,384,641,-141,-191,-240,0,33
48110,376,521,373,320,248,-186,407,-119,-49,-57,67,471,302,38,134,-29,823,231,214,-38,191,60,324,83,177,409,668,-53,-182,-219,46,103
48111,393,571,401,337,245,-217,409,-95,-33,-66,107,413,332,14,148,104,749,226,167,-57,211,-8,243,54,145,366,691,-195,-278,-344,-135,-178
48112,398,605,408,356,237,-241,405,-85,-19,-73,125,366,342,25,155,235,711,237,181,-58,251,-121,222,54,153,354,732,-172,-303,-372,-174,-236
48113,373,589,390,360,272,-275,396,-73,-14,-65,43,348,346,37,146,317,654,227,165,-63,263,-172,187,-5,129,366,640,-277,-362,-368,-139,-154
48114,317,496,291,375,268,-284,396,-67,-3,-62,15,470,329,29,161,402,647,236,171,-72,300,-278,257,-1,135,387,605,-332,-399,-366,-117,-101
48115,282,447,158,357,246,-257,387,-102,-8,-87,38,588,323,17,112,313,687,268,151,-82,262,-152,335,8,115,356,526,-494,-459,-467,-267,-170
48116,284,468,181,399,272,-159,311,-61,0,-73,-6,469,342,33,83,129,641,203,146,-78,163,0,328,3,105,310,455,-485,-503,-516,-312,-284
48117,262,429,258,365,248,-129,211,-40,-9,-88,-112,470,334,5,28,87,597,168,127,-83,155,25,300,-34,84,329,507,-361,-515,-506,-268,-259
48118,172,371,269,317,250,-158,301,-74,-18,-100,-27,510,336,-14,24,25,584,174,99,-98,157,27,264,-60,70,332,503,-386,-540,-524,-240,-213
48119,278,324,255,341,247,-156,347,-96,-23,-63,16,560,324,4,60,188,538,170,101,-90,169,41,222,-66,61,365,542,-357,-503,-488,-237,-196
48120,410,403,287,295,244,-181,356,-83,-19,-85,-15,471,297,0,89,248,524,155,94,-67,156,88,124,-69,82,374,620,-300,-444,-433,-152,-148
48121,415,485,321,294,248,-150,355,-53,-16,-72,30,407,303,4,119,146,718,143,106,-59,179,32,156,-40,97,359,614,-249,-410,-417,-83,-106
48122,367,502,278,301,242,-180,320,-69,-32,-73,35,409,334,3,128,37,727,159,127,-62,193,-10,199,-5,96,385,626,-150,-377,-380,-107,-74
48123,372,450,211,299,233,-170,338,-156,-4,-69,0,407,394,15,138,20,767,218,192,-45,194,41,300,11,136,404,624,-63,-351,-362,-116,-65
48124,395,378,182,312,224,-180,343,-137,-13,-38,9,443,422,27,118,69,660,224,185,-59,168,54,247,8,144,409,546,-125,-326,-333,-123,-114
48125,453,455,270,353,249,-157,375,-99,-17,-26,24,524,377,34,163,107,506,198,172,-41,177,-2,209,-17,131,408,470,-232,-367,-377,-205,-280
48126,459,498,325,364,265,-126,390,36,-15,-34,59,502,329,40,172,114,648,224,168,-10,217,64,204,-13,139,402,556,-189,-369,-394,-175,-232
48127,468,487,290,362,261,-144,403,53,-18,-44,45,429,343,42,176,135,741,292,156,-38,239,74,98,-33,125,414,616,-168,-428,-447,-151,-192
