,Fp1,Fp2,F7,F3,Fz,F4,F8,FC5,FC1,FC2,FC6,T7,C3,Cz,C4,T8,TP9,CP5,CP1,CP2,CP6,TP10,P7,P3,Pz,P4,P8,PO9,O1,Oz,O2,PO10
85052,-108,18,79,46,-140,-78,148,294,-74,-41,255,113,204,-19,219,138,186,-2,17,-12,-398,186,608,128,206,78,270,347,463,247,78,33
85053,-114,-9,62,31,-139,-145,145,256,-73,-46,191,88,186,-24,194,61,175,-28,10,-28,-398,200,570,86,153,60,277,255,398,220,73,103
85054,-125,-62,33,21,-132,-88,145,250,-80,-56,167,60,175,-31,194,83,194,-39,6,-54,-431,149,606,103,159,33,281,419,477,262,74,119
85055,-129,-40,23,-3,-137,-63,122,213,-83,-66,168,23,144,-51,182,78,116,-88,-49,-77,-480,152,528,36,102,-30,200,301,339,128,-28,42
85056,-129,-37,16,-2,-143,-80,55,205,-94,-87,143,8,97,-46,147,94,57,-134,-86,-97,-499,144,454,-25,55,-61,189,123,227,54,-82,49
85057,-118,-37,31,7,-123,-85,49,221,-94,-71,135,15,100,-33,154,142,89,-124,-60,-93,-517,92,463,-9,60,-48,188,150,245,69,-81,6
85058,-97,16,27,26,-116,-89,66,220,-88,-72,150,13,111,-33,189,185,76,-121,-74,-98,-496,51,458,-25,52,-41,168,112,218,18,-134,-84
85059,-65,45,57,32,-135,-83,70,239,-76,-86,181,19,117,-27,155,217,47,-134,-85,-99,-499,104,472,-32,51,-43,187,140,235,55,-118,-15
85060,-80,22,75,35,-127,-98,40,268,-64,-88,175,26,136,-20,142,203,79,-118,-61,-92,-486,137,480,-11,83,-19,219,172,290,123,-28,53
85061,-122,11,45,25,-138,-97,63,247,-78,-103,177,5,115,-30,169,230,54,-120,-55,-67,-454,100,467,-6,79,-1,238,198,330,174,10,90
85062,-111,27,57,46,-136,-84,108,261,-79,-106,187,12,135,-37,189,273,56,-114,-56,-69,-435,174,498,9,64,4,237,258,364,183,-15,18
85063,-53,61,91,68,-111,-60,163,277,-55,-80,211,60,161,-46,223,310,107,-95,-41,-59,-392,236,512,25,107,44,287,290,407,227,14,63
85064,-55,69,94,85,-105,-65,181,270,-64,-89,223,49,143,-73,221,301,103,-111,-55,-51,-385,254,478,14,113,49,298,261,358,199,-9,34
85065,-47,97,102,55,-90,-129,222,238,-62,-113,217,-5,131,-82,207,303,87,-141,-81,-71,-402,259,456,-12,75,-4,277,155,274,110,-78,-11
85066,-54,115,97,68,-75,-54,268,235,-76,-86,261,2,131,-71,224,307,85,-131,-84,-69,-393,253,449,-13,86,18,287,143,244,109,-45,16
85067,-87,97,73,50,-77,10,244,233,-78,-55,271,-26,115,-60,245,297,57,-125,-71,-61,-391,243,446,3,112,60,286,186,307,189,2,10
85068,-102,10,54,23,-97,-20,184,218,-87,-59,241,-62,88,-50,211,248,16,-155,-69,-65,-411,190,413,-14,114,12,268,171,291,191,0,-10
85069,-108,-21,58,27,-96,-25,131,227,-86,-80,205,-64,95,-38,179,199,11,-170,-73,-87,-448,141,429,-23,95,-8,253,187,284,178,-2,-20
85070,-134,-18,48,8,-106,-35,104,215,-84,-84,201,-76,105,-48,173,201,-41,-191,-78,-104,-479,135,398,-36,70,-20,232,115,225,121,-46,-7
85071,-118,12,46,19,-130,-45,95,237,-75,-96,198,-52,104,-36,155,133,-31,-171,-56,-101,-506,83,397,-10,84,-36,157,120,226,78,-81,-88
85072,-125,20,68,42,-124,-22,114,265,-87,-84,185,-21,120,-43,150,117,-7,-132,-75,-100,-472,67,412,-7,90,-29,167,156,224,103,-70,-79
85073,-80,49,91,62,-93,-42,150,270,-91,-93,190,-35,141,-40,170,115,7,-145,-67,-85,-466,76,392,0,106,-17,183,157,208,108,-47,-68
85074,-21,96,121,93,-76,-63,140,298,-72,-104,201,-89,142,-37,173,99,-7,-151,-44,-74,-494,74,348,0,112,-25,157,131,204,85,-75,-69
85075,-29,52,105,82,-93,-74,116,305,-73,-85,193,-107,123,-33,150,121,-35,-159,-64,-98,-507,22,345,-4,96,-53,129,112,183,75,-106,-56
85076,-39,31,78,58,-93,-101,89,278,-89,-95,195,-93,119,-35,129,155,-49,-210,-81,-110,-517,32,341,-48,59,-57,128,58,157,37,-116,-64
85077,-71,65,70,73,-84,-132,102,262,-78,-89,194,-54,131,-33,129,188,-45,-179,-68,-83,-515,34,359,-35,74,-44,139,56,143,34,-87,-88
85078,-99,110,69,78,-75,-184,96,269,-67,-80,172,-35,132,-34,136,181,-19,-161,-81,-101,-504,56,354,-48,72,-53,137,55,109,29,-101,-81
85079,-91,64,51,66,-77,-95,72,243,-71,-86,131,-40,137,-29,132,110,19,-175,-76,-119,-532,82,341,-68,42,-85,108,63,100,-17,-181,-123
85080,-46,71,58,65,-78,-81,93,233,-93,-94,94,-26,136,-35,103,70,-15,-153,-86,-132,-547,66,327,-77,36,-86,110,60,118,-4,-163,-122
85081,-38,101,70,66,-71,-89,98,242,-78,-77,101,-15,150,-29,100,89,14,-156,-95,-114,-518,38,354,-71,44,-63,141,73,145,37,-115,-86
85082,-8,115,61,55,-82,-77,99,254,-58,-85,106,-13,133,-26,100,103,23,-185,-109,-116,-540,75,340,-90,47,-59,130,70,145,25,-97,-57
85083,1,141,67,42,-80,-90,103,236,-69,-100,114,-25,111,-33,79,62,-31,-209,-108,-149,-578,23,348,-91,31,-99,103,104,156,21,-143,-102
85084,25,146,83,58,-56,-90,140,250,-84,-89,114,-23,121,-42,86,75,-40,-191,-108,-150,-550,24,340,-107,12,-107,92,55,123,0,-156,-113
85085,0,136,57,61,-47,-85,136,225,-92,-95,99,-16,112,-42,86,112,-18,-168,-106,-153,-549,53,352,-96,15,-110,107,71,133,-7,-152,-133
85086,-66,103,-25,2,-80,-108,102,158,-99,-110,82,-73,74,-74,82,122,-41,-199,-124,-163,-554,65,326,-116,-5,-109,112,87,150,7,-124,-90
85087,-33,104,3,8,-63,-79,134,164,-104,-88,118,-71,94,-42,111,146,-21,-200,-126,-144,-513,91,338,-109,-1,-77,145,113,147,62,-72,-30
85088,-23,132,48,40,-54,-67,132,188,-101,-77,135,-42,102,-27,117,120,-15,-196,-120,-130,-535,41,332,-109,0,-104,114,102,132,30,-138,-153
85089,-27,140,54,28,-69,-70,146,202,-90,-67,166,-21,107,-25,126,134,-16,-183,-113,-121,-507,93,324,-110,16,-87,121,84,142,38,-117,-86
85090,-46,146,57,6,-95,-58,127,188,-104,-76,151,-17,101,-19,132,137,-22,-194,-130,-134,-512,67,320,-109,4,-75,111,96,122,9,-133,-91
85091,-48,176,64,12,-92,-61,107,207,-93,-79,185,-40,110,-7,149,148,24,-225,-106,-131,-501,90,342,-111,21,-53,156,72,121,12,-97,-68
85092,-62,183,74,18,-92,-38,117,215,-107,-77,214,-39,101,-33,141,118,26,-200,-124,-131,-522,103,312,-122,10,-60,155,88,135,26,-87,-45
85093,-58,160,64,20,-107,-43,125,209,-113,-95,197,-35,107,-19,146,121,4,-171,-122,-133,-509,111,351,-100,17,-53,145,108,160,57,-84,-61
85094,-27,169,69,41,-91,-34,150,223,-91,-89,189,-33,125,-9,147,149,15,-166,-91,-112,-492,136,361,-78,52,-24,179,92,180,115,-63,-46
85095,-20,146,66,23,-104,-48,124,208,-79,-106,222,-45,132,-6,135,65,-18,-173,-79,-110,-505,28,363,-71,61,-36,130,130,173,72,-87,-91
85096,-12,167,41,24,-88,-115,127,203,-72,-118,198,-44,136,1,139,2,-34,-169,-77,-106,-518,21,376,-58,72,-28,141,205,213,101,-47,-77
85097,-8,188,64,77,-86,-189,120,232,-45,-106,153,-5,173,21,132,84,-26,-130,-27,-61,-466,80,426,-20,125,13,208,193,262,176,51,-2
85098,0,164,92,80,-97,-113,105,247,-54,-109,145,16,202,5,129,149,-3,-84,3,-35,-454,106,484,42,153,48,236,209,337,263,127,61
85099,10,149,118,88,-86,-90,130,288,-50,-99,177,45,210,21,168,243,20,-57,4,-10,-413,147,495,69,193,90,291,233,329,242,120,84
85100,12,171,160,112,-88,-68,173,318,-39,-100,201,54,216,11,177,299,89,-57,7,-4,-402,183,467,51,198,57,273,171,215,125,8,14
85101,5,166,146,100,-109,-66,176,310,-57,-94,193,57,221,7,156,285,121,-64,18,-10,-419,210,496,72,204,55,267,234,266,192,62,35
85102,31,193,148,120,-96,-48,189,337,-49,-83,204,70,225,18,173,287,101,-39,33,17,-407,208,507,84,215,102,299,269,298,231,79,56
85103,49,192,148,89,-97,-47,187,338,-51,-86,209,75,230,13,176,254,144,-16,54,6,-414,205,554,97,236,101,299,314,342,251,98,72
85104,34,179,146,99,-84,-45,176,309,-54,-98,208,45,202,-1,186,218,124,-41,37,-35,-410,187,509,64,202,97,279,278,287,210,86,65
85105,20,152,130,96,-95,-62,160,286,-64,-73,184,16,169,-10,157,192,51,-97,-37,-50,-471,145,420,-4,130,9,198,149,180,82,-34,-49
85106,23,136,131,90,-97,-55,124,276,-77,-80,157,3,136,-40,143,165,39,-137,-63,-97,-494,133,369,-54,93,-9,173,77,115,34,-71,-62
85107,-6,127,143,80,-109,-60,89,264,-77,-86,174,-12,127,-43,143,168,56,-153,-72,-95,-479,138,405,-52,91,14,208,165,173,114,1,9
85108,-20,132,108,60,-129,-114,96,249,-104,-109,164,-34,97,-56,142,194,22,-180,-111,-91,-489,169,393,-65,74,4,196,132,150,104,-26,-19
85109,-28,162,110,70,-114,-131,138,266,-81,-115,201,-36,136,-34,150,197,27,-158,-82,-68,-469,187,401,-37,98,8,218,167,187,120,-8,-26
85110,-28,139,112,59,-118,-92,145,283,-70,-98,193,-2,156,-21,165,168,69,-143,-68,-59,-442,102,435,-4,116,42,239,241,261,167,36,14
85111,-53,127,103,64,-130,-89,155,284,-49,-77,173,0,141,-7,160,127,59,-132,-54,-66,-463,112,414,-36,105,13,191,195,230,125,-5,-43
85112,-81,87,88,61,-145,-100,130,270,-65,-79,164,-32,147,7,140,118,70,-145,-55,-85,-481,153,439,-28,94,-23,154,272,243,93,-27,-95
85113,-88,75,59,55,-142,-91,151,267,-70,-79,188,-17,178,8,154,176,111,-131,-30,-64,-443,143,486,23,136,22,240,400,346,207,42,8
85114,-79,121,59,69,-126,-80,178,288,-46,-75,178,-43,171,-1,169,229,90,-164,-53,-64,-429,207,406,1,135,23,267,186,265,193,33,38
85115,-54,151,83,87,-119,-70,175,288,-29,-79,174,-21,184,-25,169,250,96,-154,-44,-50,-428,269,414,2,143,19,270,179,275,219,53,70
85116,-2,168,135,129,-101,-53,188,311,-23,-68,199,12,209,-37,164,280,124,-122,-28,-64,-392,319,459,7,150,51,313,249,322,238,91,139
85117,36,147,151,125,-89,-42,197,301,-50,-85,221,-4,191,-55,157,286,73,-148,-55,-77,-402,256,396,-21,118,32,295,91,215,150,40,73
85118,32,133,129,123,-102,-25,177,322,-36,-97,249,8,198,-25,184,297,117,-112,-22,-45,-377,219,448,19,158,62,291,217,296,226,88,52
85119,4,134,144,150,-104,-37,147,335,-1,-77,223,59,214,-10,184,266,156,-75,5,-43,-395,261,512,48,190,83,278,274,381,319,145,92
85120,-5,121,145,140,-115,-55,147,328,2,-86,187,39,199,-35,163,232,118,-103,-24,-56,-409,257,497,25,150,62,283,238,373,306,129,121
85121,-4,150,157,146,-98,-39,186,346,25,-82,177,18,216,-20,170,248,115,-102,-24,-63,-406,268,495,34,164,63,279,261,364,274,78,57
85122,-55,158,129,147,-96,-65,156,335,16,-92,135,0,204,-30,128,212,102,-130,-59,-91,-459,206,452,7,136,23,199,229,312,230,38,-76
85123,-53,138,93,136,-105,-77,148,308,-12,-106,137,-46,192,-29,116,179,85,-169,-49,-82,-463,209,428,4,126,49,228,239,328,294,85,7
85124,-64,100,61,122,-94,-83,152,281,-17,-111,148,-85,168,-28,123,169,9,-181,-69,-88,-456,176,396,-23,132,27,229,219,328,270,95,8
85125,-116,94,0,64,-122,-101,61,218,-36,-111,137,-119,123,-29,109,104,-26,-238,-96,-101,-479,162,366,-52,102,0,221,227,288,260,96,19
85126,-140,42,-30,14,-146,-126,26,166,-67,-121,147,-121,84,-44,81,95,-70,-300,-122,-128,-494,157,336,-95,60,1,216,193,276,266,93,49
85127,-132,43,-16,27,-134,-133,29,169,-51,-110,127,-89,95,-32,97,108,-86,-273,-117,-134,-497,121,338,-89,73,7,211,155,303,284,112,70
85128,-102,33,11,32,-129,-83,48,181,-43,-104,108,-53,98,-26,106,146,-20,-227,-107,-124,-497,95,363,-49,83,11,203,154,302,290,134,27
85129,-103,62,21,19,-127,-195,94,179,-54,-111,147,-76,104,-25,132,193,36,-219,-98,-99,-484,125,378,-32,101,22,208,191,306,273,112,-4
85130,-105,104,7,20,-127,-154,122,187,-73,-83,199,-103,126,-3,156,217,56,-189,-64,-51,-409,183,433,8,182,94,293,272,404,358,201,96
85131,-111,89,9,22,-131,-98,128,174,-68,-81,221,-60,156,10,165,195,109,-152,-30,-36,-376,221,505,61,219,122,329,392,493,427,246,98
85132,-127,77,0,16,-135,-114,107,168,-80,-89,199,-40,143,3,163,166,100,-155,-17,-34,-395,243,500,85,218,114,311,360,501,410,236,86
85133,-120,66,-13,24,-148,-129,86,187,-75,-93,183,-64,144,2,154,188,51,-171,-13,-28,-406,214,452,68,228,121,302,219,445,407,234,85
85134,-128,61,24,36,-131,-128,73,219,-60,-97,141,-76,143,-20,136,194,62,-161,-16,-29,-415,216,453,61,222,123,313,241,451,410,236,89
85135,-135,74,17,38,-119,-151,58,217,-66,-102,94,-80,118,-37,104,132,41,-214,-37,-76,-448,149,416,6,162,46,247,212,356,307,159,0
85136,-149,40,-5,25,-130,-150,38,192,-69,-118,65,-123,103,-37,80,125,5,-236,-83,-88,-498,119,371,-36,102,16,209,187,305,241,88,-62
85137,-155,13,-28,26,-128,-156,4,187,-70,-127,48,-144,103,-39,62,99,-36,-246,-88,-96,-508,117,362,-43,112,9,216,176,315,263,137,-46
85138,-169,-37,-39,34,-120,-139,3,185,-68,-114,57,-172,82,-29,76,88,-36,-286,-96,-109,-498,147,334,-56,118,6,246,139,308,255,163,17
85139,-144,-108,-38,24,-136,-115,-17,186,-63,-102,70,-189,75,-24,92,38,-38,-290,-87,-94,-492,173,315,-69,110,34,251,120,282,252,145,101
85140,-136,-90,-37,31,-136,-90,-15,183,-67,-81,96,-170,75,-2,88,29,-80,-277,-80,-105,-497,124,308,-68,107,12,216,107,222,181,86,5
85141,-136,-8,-19,38,-105,-105,27,188,-57,-69,114,-179,90,5,105,72,-59,-265,-59,-68,-481,146,312,-40,131,22,226,181,265,217,115,22
85142,-161,17,-33,15,-118,-112,11,148,-85,-76,112,-202,77,-6,107,56,-113,-268,-89,-94,-488,117,294,-75,111,-8,188,109,220,177,59,-10
85143,-149,53,-18,38,-117,-113,7,132,-85,-82,107,-219,64,-27,60,-12,-103,-292,-117,-147,-539,14,262,-107,50,-70,139,47,131,86,-31,-90
85144,-134,74,-17,61,-94,-114,-6,128,-75,-104,112,-249,67,-34,17,-76,-94,-304,-132,-185,-576,55,228,-134,14,-110,103,42,96,65,-54,-91
85145,-128,55,-59,35,-100,-130,-40,121,-100,-104,87,-280,43,-50,11,-71,-121,-327,-165,-214,-604,62,200,-143,-5,-140,91,56,102,67,-50,-87
85146,-95,81,-75,34,-85,-113,2,138,-91,-84,97,-286,43,-45,44,-17,-144,-340,-154,-194,-579,75,213,-153,7,-115,115,30,125,88,-35,-68
85147,-104,46,-40,57,-90,-107,-14,150,-86,-96,77,-235,45,-81,51,58,-140,-332,-147,-190,-579,51,248,-131,28,-93,152,95,182,149,7,-13
85148,-54,84,12,100,-81,-75,4,199,-74,-110,71,-149,63,-61,47,111,-91,-254,-139,-176,-575,97,296,-109,42,-88,149,130,170,122,-12,-76
85149,-42,112,13,118,-70,-82,19,204,-59,-97,77,-81,112,-35,69,157,-67,-202,-102,-134,-535,109,364,-57,80,-56,165,158,200,141,13,-36
85150,-57,104,21,86,-88,-109,23,205,-77,-107,70,-67,111,-25,64,163,-47,-194,-101,-127,-514,61,366,-55,89,-50,180,155,192,151,1,-22
85151,-47,118,50,86,-84,-109,36,226,-57,-105,74,-57,119,-26,72,123,-21,-187,-89,-129,-508,77,396,-37,104,-41,178,173,215,180,15,-60
85152,-15,136,88,97,-79,-106,57,237,-40,-92,84,-36,139,-13,82,130,-3,-172,-72,-129,-483,105,399,-22,109,-9,196,176,255,220,67,0
85153,-5,118,95,96,-91,-109,48,231,-54,-101,99,-51,126,-15,89,122,0,-173,-84,-102,-475,116,384,-25,95,-18,182,91,191,169,50,5
85154,-45,81,18,68,-113,-147,3,178,-79,-123,55,-106,94,-30,70,78,-24,-191,-103,-120,-513,38,392,-47,83,-61,142,100,172,111,-37,-94
85155,-32,98,49,101,-87,-124,-10,215,-67,-114,45,-80,102,-15,83,69,5,-181,-93,-125,-515,-4,399,-38,83,-59,110,129,186,86,-78,-177
85156,-46,94,67,112,-68,-145,9,236,-75,-101,69,-54,126,-17,80,66,52,-182,-85,-109,-507,-16,441,-12,75,-50,108,193,228,138,-49,-130
85157,-73,79,75,117,-65,-220,-10,223,-72,-116,27,-64,98,-24,60,56,20,-190,-122,-122,-531,-2,403,-41,53,-87,105,137,181,105,-62,-131
85158,-60,54,74,120,-64,-132,0,200,-66,-100,46,-53,112,-18,81,57,6,-166,-117,-122,-517,-5,364,-60,48,-76,111,94,171,87,-57,-123
85159,-72,26,66,125,-77,-129,-30,223,-53,-109,40,-33,134,-25,62,27,33,-163,-118,-149,-521,-63,383,-62,36,-99,85,135,189,69,-116,-169
85160,-74,6,51,74,-107,-156,-56,254,-63,-123,13,-48,125,-30,36,15,16,-181,-124,-160,-536,-48,360,-66,23,-109,60,87,157,62,-98,-131
85161,-88,-12,26,54,-123,-175,-88,244,-78,-145,-22,-90,111,-43,23,-27,7,-177,-138,-180,-579,-86,374,-61,15,-130,51,136,194,91,-92,-154
85162,-55,9,63,59,-118,-182,-92,264,-59,-136,-36,-61,127,-34,19,-8,48,-165,-126,-175,-573,-90,402,-54,17,-116,33,157,250,140,-50,-170
85163,-35,53,73,68,-113,-177,-68,273,-58,-127,-34,-13,140,-20,13,0,81,-138,-135,-187,-577,-44,405,-56,4,-121,34,156,249,147,-86,-185
85164,-28,77,73,80,-107,-205,-79,251,-61,-156,-34,-19,159,-40,-3,-44,85,-128,-114,-198,-631,-68,444,-16,16,-139,9,158,247,136,-103,-214
85165,13,116,108,74,-89,-256,-71,278,-46,-149,-4,18,179,-26,10,-15,105,-86,-66,-173,-605,-26,483,13,45,-131,19,177,260,159,-77,-210
85166,37,136,137,85,-89,-123,-50,310,-44,-139,66,64,206,-20,31,40,116,-64,-54,-153,-568,-33,493,33,73,-108,50,206,277,180,-41,-197
85167,36,115,131,101,-96,-111,-5,318,-55,-139,114,63,203,-22,52,50,103,-81,-52,-146,-552,-58,489,50,83,-82,66,224,303,193,-26,-174
85168,30,151,144,152,-90,-86,23,354,-40,-137,126,73,217,-14,79,86,135,-46,-11,-106,-516,-20,524,78,129,-28,98,264,344,220,33,-125
85169,56,157,159,151,-96,-73,63,361,-50,-118,128,87,221,-13,106,107,136,-58,-15,-71,-484,63,529,91,160,12,165,332,402,286,95,-60
85170,57,193,171,136,-79,-65,126,357,-34,-99,201,93,205,-1,165,181,142,-44,0,-41,-417,122,526,92,181,74,231,330,395,314,161,2
85171,28,201,178,114,-89,-49,158,345,-52,-85,236,86,183,13,206,245,139,-70,-16,-11,-350,196,504,88,208,93,297,322,390,304,194,57
85172,22,194,176,101,-113,-56,174,327,-72,-72,230,105,173,22,217,287,132,-62,-14,25,-313,246,518,75,208,126,351,343,383,306,186,100
85173,27,184,177,79,-115,-47,196,303,-88,-76,260,103,167,23,247,321,154,-57,-5,35,-279,252,519,82,225,146,392,265,371,300,205,121
85174,23,184,197,60,-112,-62,226,330,-93,-87,273,94,176,11,249,344,168,-40,-4,42,-269,301,534,110,235,166,407,293,414,376,286,196
85175,-17,209,173,60,-120,-66,246,328,-74,-74,286,108,161,19,241,358,170,-66,-4,25,-291,334,534,84,217,122,357,314,349,265,140,42
85176,-50,198,181,65,-112,-51,231,320,-61,-72,289,108,185,13,256,354,165,-83,2,13,-285,361,494,47,201,101,339,281,267,148,45,5
85177,-8,181,190,92,-106,-68,221,319,-74,-69,279,88,193,6,250,349,110,-83,-15,10,-311,359,470,38,176,95,369,264,276,194,81,89
85178,-1,145,171,74,-117,-66,193,331,-95,-74,265,87,167,-19,229,315,88,-107,-22,-10,-342,296,454,9,139,45,332,266,248,144,60,33
85179,-7,134,141,59,-112,-61,194,322,-74,-56,258,81,182,-1,232,297,117,-100,-32,-19,-333,278,469,16,128,48,327,299,247,148,45,27
85180,-24,156,134,39,-101,-78,189,309,-87,-39,252,59,164,0,211,273,84,-114,-61,-57,-365,268,428,-20,87,29,277,194,153,79,-71,-69
85181,-21,148,130,50,-111,-75,184,308,-86,-50,241,53,146,-14,172,242,82,-136,-77,-101,-396,221,376,-59,54,-39,208,53,57,-22,-179,-170
85182,-39,147,129,47,-124,-62,159,301,-105,-69,230,34,144,-35,144,191,94,-136,-87,-95,-440,188,364,-65,51,-65,167,92,72,-26,-203,-194
85183,-40,182,152,55,-110,-76,168,317,-82,-71,220,39,172,-29,147,189,109,-122,-83,-112,-455,183,373,-71,46,-84,169,117,113,-11,-192,-184
85184,-51,187,124,49,-100,-131,181,310,-80,-97,205,40,158,-15,147,169,103,-125,-89,-99,-451,140,397,-55,52,-83,149,98,104,-25,-207,-204
85185,-24,160,107,64,-108,-96,183,305,-91,-92,197,39,155,-10,126,115,87,-124,-87,-113,-484,159,397,-50,49,-79,131,73,110,-1,-199,-186
85186,7,184,161,92,-86,-57,198,338,-71,-86,205,81,184,-12,137,123,118,-82,-61,-105,-470,176,400,-31,90,-58,140,86,154,45,-145,-148
85187,9,199,167,85,-91,-75,205,342,-72,-115,188,92,177,-10,131,168,122,-67,-41,-78,-460,193,446,2,101,-67,159,138,196,67,-116,-119
85188,-4,202,140,69,-94,-86,219,331,-58,-124,174,81,205,2,132,158,143,-46,-26,-71,-456,176,504,41,132,-61,144,218,249,101,-122,-148
85189,13,233,190,87,-93,-83,224,342,-66,-111,189,111,229,15,127,165,176,-10,-5,-68,-462,170,520,94,152,-34,115,255,318,152,-96,-175
85190,28,263,213,109,-78,-70,217,360,-49,-89,190,133,233,23,121,210,170,-1,16,-53,-438,163,535,120,175,-1,138,229,326,169,-73,-150
85191,20,231,176,78,-114,-102,191,335,-70,-122,165,105,216,-21,86,179,145,-22,-6,-78,-458,116,495,108,165,-25,134,252,315,183,-73,-165
85192,4,234,191,89,-111,-92,185,355,-59,-120,164,124,227,-25,101,211,150,-7,12,-65,-431,157,513,113,179,-8,177,266,325,197,-49,-122
85193,-4,218,174,100,-108,-96,140,366,-69,-126,181,111,247,-12,115,240,144,-16,-5,-58,-422,205,520,111,190,9,204,278,353,225,29,-50
85194,13,213,185,102,-94,-89,125,352,-67,-110,153,72,228,-19,129,196,124,-41,-39,-75,-437,130,490,87,163,0,159,309,335,225,12,-126
85195,15,230,178,108,-76,-50,164,332,-64,-96,158,59,193,-39,116,205,85,-76,-69,-91,-445,140,463,50,119,-12,183,294,325,199,2,-132
85196,44,266,186,123,-60,-11,196,329,-64,-74,181,56,187,-48,137,208,91,-99,-89,-105,-450,157,495,34,99,-47,184,343,346,224,33,-64
85197,47,259,194,119,-52,-13,183,313,-85,-71,190,28,140,-59,131,153,42,-164,-123,-159,-499,57,433,-29,40,-94,118,213,249,124,-41,-151
85198,28,226,146,96,-73,-12,153,283,-84,-81,176,-15,120,-71,116,128,-2,-195,-160,-159,-506,128,369,-80,-12,-101,140,142,146,43,-61,-121
85199,26,228,134,100,-60,-21,157,272,-71,-49,163,-51,116,-50,113,82,-11,-191,-165,-154,-511,116,375,-76,0,-114,129,207,207,95,-27,-56
85200,-14,212,87,57,-85,-29,137,245,-80,-64,146,-62,92,-54,78,4,-40,-235,-193,-182,-540,44,323,-120,-56,-156,91,208,168,91,-56,-91
85201,-34,185,80,54,-97,-41,131,229,-95,-80,143,-84,64,-62,44,-9,-85,-277,-215,-216,-600,10,281,-190,-80,-202,69,167,132,38,-119,-115
