,Fp1,Fp2,F7,F3,Fz,F4,F8,FC5,FC1,FC2,FC6,T7,C3,Cz,C4,T8,TP9,CP5,CP1,CP2,CP6,TP10,P7,P3,Pz,P4,P8,PO9,O1,Oz,O2,PO10
9804,-465,-206,79,-69,-35,246,-749,219,-228,-1,72,275,134,64,204,-45,160,139,-58,-111,34,250,177,29,193,247,284,-161,207,21,99,-186
9805,-515,-230,109,-63,-45,261,-799,236,-205,-2,61,127,140,69,199,-75,74,149,-52,-122,36,235,204,24,214,274,323,-293,139,-18,144,72
9806,-556,-252,148,-48,-37,232,-819,253,-189,-12,65,-57,162,72,234,1,86,190,-49,-105,104,266,350,49,229,345,440,-279,185,88,278,430
9807,-607,-264,156,-63,-28,231,-829,240,-220,-28,39,4,159,61,172,90,69,214,-34,-139,19,268,413,60,224,264,383,-338,183,0,108,111
9808,-577,-254,225,-65,-45,235,-819,264,-213,-35,31,180,156,51,132,194,37,242,-48,-177,-65,253,380,70,201,192,255,-225,235,-27,-53,-204
9809,-519,-252,277,-43,-48,256,-820,265,-197,-19,62,61,152,71,177,337,162,136,-70,-154,-27,259,229,1,179,218,270,-54,168,-2,-2,-187
9810,-570,-233,276,-38,-31,279,-788,257,-232,3,98,17,130,44,210,350,149,77,-80,-149,-2,272,51,-17,181,222,255,-126,175,-18,6,-178
9811,-554,-213,229,-38,-16,308,-768,253,-221,17,123,95,116,55,225,236,152,64,-83,-138,56,300,-64,-34,176,231,351,-170,83,-57,11,-63
9812,-497,-224,133,-66,-37,297,-780,255,-228,17,146,225,145,64,228,124,184,120,-61,-133,55,305,136,-3,167,245,394,-217,101,-32,45,36
9813,-407,-210,189,-34,-23,314,-744,315,-193,24,167,273,195,75,237,135,170,202,-17,-117,46,349,330,74,212,270,359,-323,158,23,96,130
9814,-422,-208,203,-20,-38,280,-767,300,-205,21,123,284,175,61,236,223,136,175,-44,-131,87,410,184,36,207,289,509,-361,145,45,142,284
9815,-443,-174,249,-5,-36,306,-765,271,-183,25,143,187,159,75,250,327,151,93,-64,-118,106,453,-45,-23,199,261,610,-278,123,-14,51,78
9816,-403,-138,218,-15,-20,331,-684,249,-189,27,168,9,156,76,235,229,165,106,-73,-151,24,277,-78,-32,168,174,433,-206,88,-121,-119,-141
9817,-420,-152,-2,-62,-37,317,-666,115,-220,15,191,-58,103,49,215,261,118,96,-85,-152,63,268,-121,-54,141,187,488,-240,70,-105,-78,-155
9818,-476,-163,62,-45,-43,253,-662,136,-213,0,133,3,114,64,207,234,53,84,-90,-158,56,353,-72,-38,132,211,448,-253,101,-63,14,-20
9819,-493,-160,79,-42,-32,257,-649,143,-220,-8,105,77,145,76,214,115,108,115,-58,-169,-37,305,59,-10,142,166,132,-245,135,-41,3,215
9820,-453,-164,39,-65,-30,281,-654,103,-219,4,115,114,138,69,211,65,52,95,-62,-183,-23,290,36,-17,151,153,170,-305,87,-79,-29,63
9821,-479,-177,38,-82,-55,265,-685,112,-218,-17,119,89,101,56,184,198,2,38,-91,-194,-54,297,-105,-70,128,120,173,-349,20,-163,-121,-80
9822,-505,-296,21,-67,-45,279,-693,119,-221,-22,71,20,116,56,184,221,44,21,-66,-179,-64,306,-80,-47,151,141,166,-273,88,-101,-73,-20
9823,-522,-251,-83,-51,-13,282,-692,123,-232,5,74,-220,135,66,187,137,64,76,-47,-165,-49,319,94,-11,164,151,178,-342,90,-104,-78,-112
9824,-560,-209,-187,-72,-30,246,-746,141,-217,-14,60,-354,160,60,194,22,51,102,-58,-166,-29,262,174,3,174,175,179,-427,102,-27,9,102
9825,-559,-232,-293,-45,-39,259,-769,133,-200,-18,58,-174,164,82,196,3,7,34,-66,-162,-53,281,-151,-24,181,150,131,-292,93,-44,-12,50
9826,-530,-209,-218,-20,-32,236,-762,147,-177,-17,45,-116,176,72,148,-153,-43,27,-74,-186,-139,226,-206,-62,155,93,54,-280,44,-143,-142,-122
9827,-536,-250,-120,-78,-50,214,-815,88,-166,-36,-6,-145,170,53,115,-273,-15,70,-71,-211,-171,103,40,-22,133,101,8,-398,79,-119,-108,-157
9828,-542,-239,-105,-103,-62,236,-841,29,-174,-24,24,-67,160,37,115,-174,3,87,-62,-196,-158,-21,35,10,125,94,4,-437,111,-126,-138,-241
9829,-519,-232,-61,-138,-48,245,-867,37,-209,-14,85,-19,139,53,147,-101,-34,35,-79,-179,-108,62,-115,-48,154,111,50,-228,96,-140,-150,-208
9830,-494,-231,3,-135,-60,248,-883,77,-207,-31,19,26,142,72,151,-33,11,48,-60,-169,-64,124,-74,-40,192,160,121,-174,82,-94,-91,-120
9831,-522,-239,11,-135,-90,233,-848,95,-227,-44,-43,39,139,71,141,-4,29,78,-58,-157,-88,79,70,-18,213,186,131,-307,122,-65,-38,-108
9832,-616,-243,-15,-144,-101,251,-819,83,-217,-49,-36,-49,134,71,153,-8,-54,55,-54,-124,-72,75,125,-3,232,237,191,-365,143,-57,1,-76
9833,-775,-228,-27,-115,-86,257,-827,115,-217,-3,19,-187,159,110,200,99,-90,57,-46,-97,-30,72,-20,-13,244,253,184,-359,106,-107,-55,-375
9834,-758,-241,-37,-75,-77,251,-781,155,-199,6,45,-335,155,124,219,90,-67,41,-47,-112,-30,84,-103,-47,217,218,96,-267,132,-123,-127,-333
9835,-655,-286,-48,-53,-83,218,-784,136,-196,-23,15,-341,139,100,198,45,-84,40,-48,-130,-96,99,-54,-48,201,183,76,-263,130,-92,-71,-42
9836,-570,-317,11,-43,-82,199,-829,142,-190,-30,9,-118,156,99,180,23,21,100,-47,-148,-127,62,81,4,205,182,91,-331,145,-66,-48,-52
9837,-532,-337,16,-63,-79,203,-850,124,-179,-22,9,75,165,104,188,69,21,111,-44,-129,-92,65,239,27,228,231,154,-385,165,-17,25,182
9838,-579,-329,-91,-111,-76,145,-831,78,-213,-28,41,-31,131,88,199,138,-34,65,-52,-121,-39,115,134,5,251,290,298,-362,218,79,205,630
9839,-574,-339,-109,-80,-56,219,-883,113,-208,-6,59,-31,139,90,207,215,13,77,-47,-110,-30,165,-10,19,259,293,299,-138,239,109,191,462
9840,-580,-321,-93,-73,-66,250,-852,134,-205,-4,57,-15,167,73,199,148,37,122,-38,-119,-62,121,78,11,248,253,197,-72,239,99,120,-61
9841,-546,-278,-48,-47,-61,251,-826,135,-182,-23,43,103,186,80,185,-30,19,165,-34,-110,-34,132,195,60,257,281,252,-164,292,128,203,18
9842,-561,-261,-13,-19,-43,281,-804,184,-168,6,48,264,209,76,208,-195,68,190,-16,-115,-30,187,232,100,283,260,253,-140,284,86,125,-27
9843,-561,-248,23,-22,-52,300,-772,206,-176,5,84,378,200,69,212,-241,186,203,-2,-122,-44,169,292,106,260,247,221,-55,315,53,26,-136
9844,-552,-269,27,-36,-49,287,-811,177,-198,0,79,257,176,51,197,-179,202,163,-20,-132,-5,186,265,91,251,294,286,-125,321,146,180,60
9845,-533,-238,132,-19,-27,287,-790,218,-181,-20,59,201,169,28,138,-114,178,132,-36,-162,-67,230,214,40,212,214,193,-222,217,13,48,-208
9846,-486,-201,209,-7,-4,309,-728,258,-189,8,98,-53,179,48,149,81,194,174,-39,-155,-65,216,197,68,218,210,227,-235,266,13,25,-204
9847,-473,-208,-5,-50,-16,313,-687,175,-227,-4,138,-364,150,21,171,217,211,140,-96,-175,-20,248,107,-4,182,197,330,-83,200,-51,-35,-127
9848,-524,-238,34,-57,-37,293,-713,207,-236,-30,90,-91,137,-6,136,186,151,156,-113,-208,-37,208,169,-37,143,173,408,-146,138,-87,-54,-186
9849,-542,-243,43,-29,-41,300,-701,250,-206,3,144,189,163,39,184,250,97,193,-77,-167,33,230,262,29,185,233,520,-206,202,-23,66,98
9850,-530,-229,76,-3,-22,278,-684,284,-195,7,143,125,171,46,199,171,108,203,-74,-148,64,251,243,33,191,269,486,-184,222,1,136,253
9851,-549,-269,75,-36,-50,262,-692,239,-208,-16,74,79,125,33,159,81,183,149,-91,-187,-34,194,121,2,153,178,239,-61,201,-15,-20,-167
9852,-565,-355,20,-20,-59,287,-678,280,-201,-20,62,6,152,46,145,159,246,173,-76,-188,-96,259,135,30,163,157,194,6,273,9,29,-153
9853,-533,-311,-3,-36,-63,279,-664,297,-190,-17,69,15,181,65,156,138,234,197,-52,-178,-101,306,218,66,185,175,281,-8,318,78,151,165
9854,-512,-260,38,-95,-76,250,-692,195,-187,-16,93,174,153,75,175,-28,231,152,-67,-173,-68,264,145,47,167,181,268,42,332,99,175,227
9855,-493,-238,118,-92,-54,263,-699,179,-194,-3,82,172,149,75,161,-192,199,150,-65,-178,-73,273,158,37,147,152,239,-50,237,2,49,46
9856,-609,-245,128,-93,-58,248,-712,216,-211,-14,4,44,177,79,143,-147,222,199,-57,-206,-90,254,232,35,146,125,276,-41,185,-38,-38,-193
9857,-616,-221,194,-99,-42,254,-698,238,-195,-8,65,-62,160,86,154,-185,205,189,-56,-198,-49,307,170,0,115,135,407,-236,42,-124,-56,-135
9858,-590,-244,203,-91,-58,235,-709,194,-223,-29,32,-43,127,73,144,45,139,88,-91,-201,-41,335,24,-59,133,151,441,-303,15,-117,16,99
9859,-554,-239,107,-101,-61,258,-734,147,-210,-4,35,-66,139,74,194,210,220,82,-70,-164,-14,316,-1,-28,158,197,388,-158,124,28,197,563
9860,-593,-260,8,-126,-76,261,-771,133,-244,12,59,-101,125,70,203,352,210,69,-91,-176,-22,347,-33,-48,139,211,333,-256,29,-47,188,748
9861,-618,-279,14,-103,-54,250,-744,154,-250,-3,20,-18,106,41,134,220,91,72,-123,-239,-119,241,-30,-82,81,91,122,-269,-32,-224,-132,1
9862,-630,-282,37,-72,-45,257,-755,163,-233,-18,23,47,121,42,104,124,123,118,-126,-259,-139,200,105,-61,74,41,43,-234,13,-196,-195,-339
9863,-595,-279,25,-76,-43,250,-773,120,-220,-22,39,27,120,36,98,121,146,145,-135,-262,-132,118,282,-44,69,57,136,-437,-2,-201,-181,-291
9864,-526,-254,15,-91,-28,240,-794,84,-212,-21,19,34,95,30,101,153,74,135,-129,-285,-153,-23,154,-27,71,36,62,-440,29,-219,-213,-511
9865,-483,-256,-15,-87,-37,227,-779,79,-205,-27,23,38,73,19,87,-6,-2,57,-150,-283,-198,46,-53,-109,56,-7,-64,-28,-9,-234,-229,-494
9866,-459,-223,-48,-99,-25,260,-760,101,-202,-15,40,24,79,26,108,-139,83,41,-151,-281,-210,114,-49,-133,59,6,-56,-117,-50,-251,-214,-316
9867,-457,-229,-48,-108,-14,270,-758,114,-201,10,53,43,102,36,114,-164,37,45,-130,-284,-198,68,-54,-116,67,31,13,-329,-67,-243,-204,-281
9868,-547,-268,-63,-99,-44,248,-757,127,-214,-20,-10,112,95,3,86,-283,92,66,-138,-275,-188,19,85,-116,51,17,-6,-451,-88,-244,-172,-284
9869,-587,-297,-87,-86,-47,258,-742,159,-198,-31,-18,207,93,3,100,-146,22,62,-142,-289,-176,29,55,-128,50,27,-13,-411,-62,-218,-156,-280
9870,-559,-274,-76,-105,-36,258,-705,154,-214,-23,21,215,102,18,114,32,-72,3,-138,-274,-170,84,-159,-131,73,78,52,-431,-13,-157,-90,-158
9871,-555,-291,-96,-136,-64,228,-778,124,-214,-42,-20,227,110,19,126,30,-25,37,-116,-238,-166,132,-107,-94,93,108,194,-472,5,-111,12,32
9872,-574,-287,-112,-125,-57,227,-817,123,-203,-22,-26,26,153,54,146,44,18,117,-85,-210,-99,204,55,-74,118,142,317,-506,-12,-158,-35,63
9873,-587,-263,-39,-99,-40,251,-815,130,-188,0,26,-330,158,78,154,50,33,91,-58,-200,-94,162,-31,-35,139,146,206,-445,16,-226,-135,-211
9874,-600,-283,3,-89,-69,215,-826,146,-198,-13,9,-362,125,39,126,46,43,34,-77,-222,-145,25,-141,-62,121,107,59,-362,-27,-291,-257,-559
9875,-566,-252,-168,-108,-63,225,-796,148,-198,1,12,-109,154,80,148,60,87,85,-58,-193,-112,149,25,-19,164,120,147,-271,66,-144,-129,-216
9876,-522,-288,-53,-115,-59,216,-833,135,-189,-3,13,-66,172,92,160,85,158,158,-26,-166,-91,149,204,49,194,175,130,-261,169,-26,7,32
9877,-498,-259,-16,-96,-54,248,-817,91,-187,-25,46,-124,147,81,154,15,142,190,-43,-177,-129,85,210,44,191,162,91,-260,156,-73,-64,-144
9878,-466,-197,-14,-83,-47,241,-807,86,-190,-23,63,-61,142,71,142,-106,150,135,-57,-190,-150,154,72,35,164,148,154,-134,158,-138,-143,-207
9879,-500,-227,-28,-81,-32,292,-749,82,-220,-14,54,-58,137,76,167,-3,135,121,-39,-161,-82,169,18,29,202,211,286,-77,202,-41,-13,-47
9880,-562,-230,-111,-92,-34,326,-738,94,-214,0,53,-150,122,79,150,37,96,138,-26,-163,-45,135,115,43,228,220,285,-229,197,-17,34,-82
9881,-700,-248,-206,-115,-57,300,-804,83,-187,-7,45,-128,126,68,130,41,125,142,-33,-155,-64,158,140,41,215,216,234,-288,206,-22,30,-33
9882,-778,-239,-150,-105,-36,281,-773,92,-213,-16,-8,-39,141,70,117,52,122,158,-33,-151,-79,192,86,51,224,225,212,-120,244,8,56,41
9883,-708,-223,-69,-115,-33,285,-721,109,-199,-20,-3,-34,161,89,135,151,134,206,-28,-142,-43,239,167,71,251,256,253,-91,298,96,140,184
9884,-584,-286,-9,-88,-48,285,-716,152,-197,-3,47,57,208,106,174,68,192,319,24,-113,0,277,512,154,276,299,394,-195,361,118,205,186
9885,-514,-306,19,-84,-63,272,-745,162,-207,-20,43,86,212,80,163,-116,134,335,4,-116,-18,269,571,156,262,306,374,-276,317,69,175,174
9886,-432,-237,99,-61,-57,280,-654,222,-210,16,127,231,218,96,213,-140,40,280,-9,-99,14,308,273,100,273,297,331,-124,284,127,227,370
9887,-450,-267,86,-68,-37,266,-597,153,-200,24,140,154,185,74,237,-86,113,172,-31,-97,6,325,28,63,264,263,324,-117,281,77,90,-42
9888,-461,-242,-7,-145,-54,288,-634,54,-230,-12,158,47,106,46,211,81,208,127,-69,-101,1,268,57,56,248,273,331,-62,321,67,95,-89
9889,-479,-180,-13,-67,-38,316,-639,147,-211,9,173,63,162,69,230,211,271,227,-27,-98,0,264,239,103,268,282,362,15,356,69,131,20
9890,-587,-173,-37,-83,-39,324,-670,196,-196,33,223,184,181,72,248,363,285,236,-7,-71,2,284,352,113,269,274,276,-26,363,116,155,143
9891,-534,-177,-19,-99,-52,333,-670,169,-222,19,192,275,157,49,241,394,256,201,-58,-115,3,246,304,62,237,249,233,-151,242,-5,53,65
9892,-459,-171,97,-64,-45,313,-688,217,-208,17,118,330,192,64,258,103,261,268,-31,-98,54,282,338,75,237,289,332,-181,223,8,111,249
9893,-415,-139,151,-57,-27,318,-684,276,-196,22,130,15,194,75,252,-112,220,275,-5,-75,70,321,258,83,251,319,393,-122,274,86,216,460
9894,-413,-110,145,-47,-32,340,-614,266,-185,8,140,-151,184,39,248,-49,213,224,-42,-92,59,251,106,71,242,290,342,-9,291,83,180,245
9895,-415,-121,156,-25,-28,350,-613,261,-192,8,131,76,188,57,238,96,304,212,-34,-127,38,246,154,58,214,261,378,-105,241,11,64,-42
9896,-404,-139,191,-17,-6,348,-662,331,-166,0,129,228,233,52,232,326,319,296,-16,-120,35,337,365,88,232,285,562,-107,206,26,93,90
9897,-415,-152,228,-14,-9,324,-692,332,-143,-3,124,196,244,47,189,327,231,282,-19,-121,25,310,312,72,239,288,516,-23,264,69,182,298
9898,-409,-140,228,-6,-12,306,-672,307,-184,-16,81,189,217,30,156,258,237,192,-50,-176,-58,265,99,30,172,188,233,-26,228,-11,42,-86
9899,-376,-141,236,8,1,306,-653,310,-194,-11,70,244,205,52,141,195,260,201,-45,-177,-82,298,121,33,181,181,221,-145,214,13,73,-135
9900,-385,-158,269,-31,-8,310,-644,293,-210,12,114,414,198,70,148,154,193,231,-44,-178,-27,308,142,47,195,226,348,-170,221,45,155,117
9901,-363,-170,358,-48,-14,330,-643,339,-211,-13,84,552,208,61,123,127,206,252,-38,-196,-88,414,193,38,182,199,319,-135,187,2,119,262
9902,-437,-169,293,-44,8,318,-626,293,-208,-16,75,477,213,72,124,139,244,259,-38,-197,-87,399,214,62,209,213,256,-64,245,87,212,616
9903,-599,-166,141,-58,13,281,-624,253,-206,1,91,205,239,91,139,144,266,265,-24,-170,-52,325,223,103,219,231,295,-207,224,58,162,418
9904,-540,-147,178,-11,-6,308,-606,299,-199,-12,139,-184,233,90,141,177,189,250,-24,-184,-84,253,190,52,192,161,210,-288,146,-73,-57,-339
9905,-480,-156,119,-14,-19,311,-645,265,-220,0,175,-196,188,91,162,258,185,195,-48,-192,-54,214,82,-1,186,186,215,-64,125,-24,14,-192
9906,-415,-190,165,-28,-23,330,-670,233,-209,8,178,-163,209,98,195,83,214,201,-41,-164,-32,361,104,45,210,221,280,-138,162,-5,95,174
9907,-363,-178,176,-58,-17,330,-644,205,-216,-14,125,85,205,104,189,-151,220,236,-15,-141,-21,353,242,87,242,232,334,27,278,107,159,177
9908,-372,-167,126,-44,-23,323,-681,195,-243,-9,118,287,185,69,166,-30,231,277,-25,-166,-34,312,368,85,206,197,318,76,273,60,73,-20
9909,-335,-153,193,8,-7,284,-673,258,-220,-18,109,262,230,77,155,39,261,363,-24,-166,-58,304,517,112,192,172,264,-121,198,-68,-98,-261
9910,-387,-148,249,6,0,288,-657,237,-222,-17,101,218,196,76,180,126,150,288,-50,-168,-19,316,207,47,168,192,413,-297,76,-124,-42,-234
9911,-395,-164,255,-10,-10,317,-684,243,-222,-27,122,188,179,58,170,60,96,207,-56,-187,-39,231,-15,0,153,174,377,-308,97,-73,48,-103
9912,-423,-152,231,-11,-14,299,-640,294,-191,-42,65,160,209,45,134,-69,244,219,-48,-183,-100,262,125,33,160,150,254,-393,167,13,107,240
9913,-365,-95,213,2,18,313,-620,321,-166,-14,117,174,258,51,140,78,367,314,-16,-186,-123,276,367,76,177,137,139,-361,185,4,83,195
9914,-377,-155,184,-8,-2,289,-624,278,-186,-28,111,127,219,47,134,214,260,267,-59,-231,-136,150,117,0,131,82,78,-234,94,-93,-50,-12
9915,-417,-187,176,-27,-12,299,-621,235,-190,-44,108,22,190,30,129,382,144,184,-75,-230,-121,142,-130,-53,111,71,61,-246,38,-172,-136,-161
9916,-368,-139,161,-20,-27,323,-650,213,-172,-6,105,21,208,52,169,303,180,185,-62,-202,-78,159,-40,-28,131,127,141,-216,110,-91,-27,19
9917,-305,-110,193,-25,-27,300,-674,235,-188,-18,62,122,201,60,164,-3,56,209,-68,-208,-54,171,43,-21,135,107,151,-241,78,-144,-76,12
9918,-299,-102,154,-49,-36,264,-666,223,-206,-29,53,167,160,32,132,-176,30,182,-101,-257,-125,168,24,-64,72,34,64,-256,16,-235,-236,-316
9919,-317,-116,115,-58,-26,269,-650,215,-193,-14,64,93,156,30,121,-179,218,188,-85,-255,-177,203,108,-41,82,40,56,-215,89,-194,-191,-308
9920,-352,-112,107,-95,-33,272,-672,174,-202,-13,70,-45,169,54,125,100,185,177,-73,-230,-105,248,26,-6,120,126,199,-97,198,-40,-5,181
9921,-396,-141,75,-92,-54,251,-690,176,-224,-26,30,-25,131,27,100,158,98,145,-94,-244,-126,187,-28,-41,85,110,168,-262,137,-76,-69,-9
9922,-433,-165,100,-61,-54,258,-661,197,-223,-22,77,106,155,23,124,76,130,145,-89,-253,-115,112,72,-55,72,56,62,-351,69,-224,-227,-528
9923,-457,-167,78,-98,-60,283,-614,158,-212,1,106,223,140,50,151,49,187,159,-100,-210,-74,122,182,-42,107,104,131,-233,74,-146,-83,-92
9924,-508,-181,36,-118,-62,287,-639,113,-223,-1,79,141,123,56,141,21,109,154,-81,-193,-95,220,198,-3,137,147,215,-183,204,18,51,221
9925,-491,-199,32,-108,-62,303,-673,146,-226,-4,83,77,156,81,130,-164,46,142,-74,-209,-195,180,204,2,118,93,29,-308,178,-129,-161,-346
9926,-486,-234,63,-83,-68,258,-748,163,-209,-19,41,156,186,100,132,-252,148,156,-76,-214,-206,90,232,-37,110,57,-39,-225,78,-181,-226,-672
9927,-598,-251,-3,-87,-94,237,-763,181,-219,-27,47,236,180,85,127,-97,90,153,-66,-204,-145,79,141,-46,133,110,156,-282,83,-132,-89,-279
9928,-658,-242,-61,-95,-83,295,-685,174,-225,-11,93,243,147,78,146,117,31,93,-73,-182,-123,105,111,-86,128,133,190,-412,20,-175,-69,-293
9929,-613,-177,42,-69,-64,296,-699,185,-187,-2,87,79,163,89,178,164,137,141,-47,-170,-119,149,259,-4,173,167,56,-315,130,-45,-1,-55
9930,-535,-204,215,-79,-62,289,-768,200,-183,-7,106,46,169,100,197,64,136,201,-41,-143,-87,98,265,43,210,207,151,-153,264,86,120,69
9931,-475,-255,224,-95,-83,251,-772,174,-211,-31,36,-122,150,81,182,78,147,178,-46,-142,-80,-46,120,38,217,228,249,31,324,84,137,79
9932,-460,-207,0,-107,-62,243,-728,111,-199,-5,57,-229,164,102,188,90,186,162,-28,-118,-53,2,58,46,234,243,247,226,367,63,59,-36
9933,-430,-123,20,-44,-37,287,-710,181,-182,12,88,0,199,127,198,-35,116,153,-20,-129,-85,73,10,40,241,209,102,50,246,-19,-21,-172
9934,-449,-204,-22,0,-49,282,-724,207,-174,-9,105,118,222,119,201,13,101,195,-6,-121,-87,94,74,73,271,226,92,-46,283,48,61,-136
9935,-477,-260,-14,-39,-57,244,-751,226,-174,-7,109,288,240,135,212,189,171,236,7,-110,-31,121,244,90,290,264,283,-162,250,64,96,19
9936,-451,-211,8,-60,-45,242,-711,254,-180,7,106,359,243,125,199,113,223,278,4,-128,-59,192,274,75,278,254,357,-437,98,-64,-13,-78
9937,-480,-219,22,-33,-54,268,-690,216,-183,7,42,-258,259,116,152,-34,112,242,2,-128,-79,257,147,66,264,243,224,-466,115,-6,28,5
9938,-613,-290,12,-58,-80,275,-698,208,-191,-14,-5,-506,230,93,148,-129,70,205,-17,-132,-105,234,14,51,253,214,98,-253,179,38,86,159
9939,-665,-340,-28,-109,-76,288,-752,142,-186,11,0,-243,217,105,151,9,164,187,-22,-122,-67,234,18,76,290,257,230,-146,258,103,159,237
9940,-588,-258,-75,-137,-75,279,-734,55,-223,8,-11,79,181,109,161,125,119,184,1,-107,-26,246,137,104,309,278,340,-257,282,109,175,115
9941,-575,-210,-112,-151,-113,280,-746,45,-221,-5,37,220,153,100,189,171,70,184,-39,-125,30,234,146,39,265,276,509,-321,170,12,99,-23
9942,-549,-200,-95,-143,-89,297,-730,70,-220,0,12,-166,145,97,170,223,38,173,-53,-147,-1,164,60,18,233,249,437,-392,91,-44,34,-121
9943,-524,-203,-54,-145,-64,316,-725,102,-236,23,47,-329,161,104,191,238,9,136,-35,-124,-26,190,-56,46,273,251,368,-252,148,25,102,-49
9944,-483,-183,-7,-146,-78,286,-742,102,-216,14,47,-102,146,110,170,70,95,142,-36,-131,-113,189,38,53,268,203,108,-205,168,9,62,-38
9945,-487,-210,-11,-130,-77,288,-733,69,-227,13,47,14,129,98,168,-83,102,168,-32,-157,-107,131,159,51,234,185,40,-276,160,-12,7,-123
9946,-505,-214,-22,-111,-66,287,-745,105,-227,12,40,36,155,105,190,-219,73,181,-26,-158,-73,163,151,69,254,205,193,-238,158,-57,-22,-171
9947,-513,-214,-59,-113,-68,293,-732,141,-231,-4,-2,117,181,85,175,-124,67,189,-19,-153,-97,217,111,67,240,189,212,-240,164,-21,7,-94
9948,-523,-226,-76,-126,-90,239,-724,119,-228,-15,-16,92,181,63,144,14,47,218,-42,-179,-149,208,169,53,207,157,64,-349,134,-32,8,-55
9949,-538,-204,-41,-119,-81,243,-721,108,-226,-3,7,58,171,59,144,98,13,244,-57,-193,-144,168,278,53,199,154,43,-469,149,-53,-7,-146
9950,-627,-221,1,-103,-53,257,-747,147,-206,-3,77,113,152,49,170,40,72,199,-63,-192,-69,151,105,0,186,184,260,-318,79,-90,7,-262
9951,-629,-205,-14,-88,-33,236,-754,166,-204,-20,80,138,148,45,140,-159,83,173,-71,-230,-134,91,81,-1,153,126,165,-341,70,-118,-47,-37
9952,-510,-187,-37,-48,-29,228,-774,215,-198,-20,-41,33,177,58,78,-146,-9,162,-42,-240,-212,103,88,14,157,90,37,-387,108,-83,-15,90
9953,-453,-169,28,-55,-27,244,-742,210,-173,-19,-67,-13,165,68,99,-68,96,132,-81,-220,-180,227,-10,-26,156,88,92,-236,60,-109,-60,-12
