,Fp1,Fp2,F7,F3,Fz,F4,F8,FC5,FC1,FC2,FC6,T7,C3,Cz,C4,T8,TP9,CP5,CP1,CP2,CP6,TP10,P7,P3,Pz,P4,P8,PO9,O1,Oz,O2,PO10
110621,284,461,542,334,-43,498,226,506,132,157,162,-48,346,-9,368,930,581,282,58,268,303,894,519,264,398,267,726,49,474,217,57,504
110622,224,446,602,323,-64,438,217,417,125,162,55,16,362,-8,349,763,535,301,76,299,324,970,534,307,428,328,818,87,522,311,190,802
110623,172,380,622,257,-67,403,196,432,82,164,14,125,326,-4,378,847,549,297,88,326,370,970,587,320,468,371,864,125,549,342,200,833
110624,248,339,661,195,-53,432,194,460,67,172,41,120,326,-6,384,731,626,299,94,308,354,897,595,346,471,345,815,138,516,275,81,621
110625,249,344,637,259,-52,438,181,477,79,185,106,194,311,-2,397,588,609,319,75,326,358,817,586,311,464,337,832,122,528,270,67,507
110626,259,380,592,286,-62,429,185,442,85,168,135,184,303,-15,399,560,571,314,73,302,340,864,550,282,435,326,796,101,511,235,89,639
110627,279,446,603,249,-73,442,207,440,104,159,152,196,320,-22,396,536,601,304,72,290,321,869,544,290,445,319,754,107,503,225,57,649
110628,307,453,578,249,-67,449,224,486,98,173,168,177,334,-22,417,512,553,313,65,292,344,935,540,286,435,323,804,93,494,215,2,536
110629,317,429,582,268,-49,472,209,548,112,189,183,177,348,-13,421,413,564,321,93,315,351,773,574,308,450,335,818,130,511,268,36,528
110630,285,365,571,280,-72,482,165,555,99,185,212,155,343,-16,431,123,503,296,88,315,340,632,541,319,463,348,811,93,543,293,157,857
110631,271,398,523,286,-75,473,182,548,83,174,230,123,321,-26,433,-132,527,305,77,307,358,885,515,322,453,373,861,65,565,330,242,975
110632,275,426,526,324,-65,464,219,532,102,158,257,116,327,-39,423,75,519,309,45,278,319,1036,523,280,417,298,794,57,494,269,136,765
110633,276,395,567,343,-48,475,250,520,113,162,283,112,315,-42,409,200,471,278,28,251,265,901,561,269,366,229,692,109,475,192,-6,457
110634,195,397,640,360,-41,444,235,577,107,155,214,117,305,-68,361,460,608,275,15,211,237,755,562,250,348,187,584,122,496,145,-124,87
110635,241,420,789,347,-26,440,182,601,116,150,113,133,325,-64,331,472,701,291,32,235,250,820,587,284,384,224,633,149,535,198,-52,196
110636,240,391,545,225,-56,410,149,520,105,124,75,150,304,-73,332,396,605,266,22,227,244,684,555,270,371,238,670,87,566,250,47,424
110637,227,410,511,229,-43,433,156,476,83,151,90,128,313,-67,337,487,600,258,44,236,239,703,560,260,368,231,713,12,452,178,39,529
110638,288,434,628,295,-41,472,169,492,97,166,108,38,323,-59,359,427,538,274,33,242,241,851,537,261,376,229,722,-6,396,132,-33,513
110639,305,384,607,264,-55,451,169,474,94,160,137,-74,318,-58,374,403,488,274,26,268,285,807,507,244,362,250,716,101,489,180,-36,473
110640,295,398,618,257,-35,479,224,451,100,185,192,-194,325,-49,391,253,567,270,47,286,323,841,525,262,389,289,781,175,539,244,63,632
110641,272,368,573,260,-55,447,168,465,90,198,205,-9,299,-49,416,66,476,247,31,280,327,762,493,250,397,271,776,59,454,171,44,671
110642,262,322,526,284,-76,445,61,468,89,167,182,51,282,-58,416,301,438,217,10,279,340,641,421,232,381,258,795,-119,372,142,31,695
110643,252,276,494,310,-60,451,89,444,90,166,142,81,297,-63,399,453,422,251,29,264,298,854,448,233,376,253,761,-13,411,158,55,673
110644,268,285,463,296,-49,451,139,410,99,157,107,87,271,-65,386,428,510,216,35,247,246,861,462,224,361,213,669,-23,400,117,-74,355
110645,241,315,461,268,-57,439,118,410,90,169,117,87,257,-56,380,352,539,172,28,245,275,730,467,219,366,213,724,-16,418,109,-83,343
110646,229,347,503,267,-36,445,134,413,88,163,130,45,273,-52,377,299,471,189,27,267,278,674,490,227,368,242,746,61,411,143,-27,445
110647,231,363,534,260,-43,423,148,416,83,153,96,21,281,-66,368,255,495,227,19,234,236,794,528,232,357,206,665,89,417,122,-65,471
110648,182,383,493,272,-48,481,155,456,108,173,125,49,310,-51,388,224,567,265,48,244,250,784,549,249,360,229,692,120,416,107,-75,511
110649,123,327,512,290,-79,466,102,448,100,171,104,31,282,-46,380,46,561,237,10,240,238,714,497,202,335,217,701,-10,386,95,-53,549
110650,151,199,500,263,-75,402,75,436,97,147,104,82,301,-42,368,120,517,238,12,257,236,713,481,219,343,220,670,-88,437,186,63,487
110651,201,212,562,254,-77,346,63,405,85,150,141,122,299,-42,380,287,488,242,29,252,228,705,512,231,366,214,663,-28,446,205,76,522
110652,229,286,488,213,-91,328,113,331,71,134,136,-7,254,-67,347,159,499,217,15,218,190,708,466,184,325,148,627,20,341,1,-195,462
110653,209,384,488,222,-67,386,114,410,121,171,174,16,291,-42,384,166,512,255,45,253,257,721,506,231,357,194,675,74,395,58,-127,530
110654,159,370,479,216,-67,355,70,497,106,158,204,76,302,-40,395,-210,557,250,39,230,205,464,494,232,346,174,583,54,416,94,-121,327
110655,154,343,448,207,-96,404,100,452,70,122,199,46,266,-65,358,-84,536,212,12,182,147,641,465,186,315,114,573,89,335,21,-162,395
110656,226,361,531,226,-76,423,139,383,67,153,202,-10,285,-52,364,146,499,202,10,220,177,776,414,180,325,129,630,-101,287,13,-130,445
110657,232,365,515,185,-69,422,203,315,64,155,192,-57,268,-55,366,339,402,202,25,226,189,693,402,188,336,141,585,-188,277,25,-109,533
110658,224,338,501,184,-67,445,189,333,77,140,143,-75,265,-53,344,530,436,229,19,225,204,763,490,215,330,133,584,-98,338,71,-148,470
110659,208,320,529,218,-75,450,137,408,87,144,40,-12,271,-56,319,465,510,204,5,203,159,796,457,175,294,98,543,-213,275,-19,-235,229
110660,98,312,502,193,-84,411,107,403,78,134,57,66,279,-59,331,298,393,211,7,188,146,695,393,176,296,99,566,-119,305,7,-184,302
110661,64,296,505,178,-67,393,120,391,83,139,111,93,279,-61,354,263,422,277,34,209,190,605,511,238,341,152,631,43,428,137,-79,530
110662,171,330,540,246,-65,407,184,404,87,149,140,8,277,-70,362,256,514,240,1,211,180,689,470,216,321,134,613,-52,407,119,-70,522
110663,217,356,534,255,-55,409,189,392,58,147,162,39,274,-77,348,258,351,226,-24,189,178,717,439,175,285,110,599,-189,321,55,-136,410
110664,228,348,520,246,-43,399,123,383,59,136,95,10,267,-73,338,339,360,234,-29,176,174,615,440,172,269,107,586,-159,317,35,-147,435
110665,174,250,503,194,-55,408,102,364,75,135,56,10,251,-78,309,226,535,219,-34,165,124,566,437,172,255,79,546,-136,332,40,-172,417
110666,163,270,488,178,-69,407,107,370,54,137,55,-26,233,-85,306,121,508,164,-50,148,100,721,395,117,220,29,496,-173,263,-36,-228,269
110667,190,328,477,194,-62,402,96,439,71,119,41,-74,240,-91,303,180,370,153,-61,133,106,700,324,103,225,55,532,-204,241,-49,-216,323
110668,247,382,504,236,-44,385,75,491,75,120,25,-126,241,-87,286,237,429,142,-51,147,125,572,379,117,245,72,546,-165,262,-38,-224,321
110669,221,391,484,194,-48,357,20,468,65,113,45,-87,238,-83,272,-40,409,168,-63,146,90,555,399,121,239,45,482,-111,292,-26,-246,209
110670,207,322,495,140,-34,386,0,447,92,137,96,31,243,-80,305,-346,418,192,-45,168,107,612,430,138,267,102,545,-77,326,36,-170,394
110671,155,255,476,182,-56,399,15,341,81,131,128,97,210,-86,289,11,437,159,-45,161,146,508,391,125,268,112,548,-131,304,40,-114,507
110672,62,255,468,275,-61,386,16,359,80,119,121,13,218,-79,291,292,391,179,-40,164,167,531,428,138,292,120,609,-52,342,55,-153,405
110673,67,293,507,284,-55,376,54,445,82,111,58,-3,238,-85,251,168,373,192,-19,143,92,551,412,155,292,78,490,-10,363,34,-209,223
110674,135,339,569,324,-57,375,42,493,94,95,26,18,267,-88,238,118,389,195,-25,139,50,596,432,181,311,72,437,-54,366,53,-176,290
110675,183,346,349,236,-45,368,80,366,99,115,64,16,287,-76,282,305,441,223,4,193,141,727,446,212,338,157,599,-144,360,114,-35,626
110676,223,293,437,201,-64,358,46,404,101,123,102,-24,301,-59,306,280,468,222,11,206,169,734,436,207,357,202,660,-131,345,101,24,782
110677,232,284,490,188,-64,391,53,448,104,135,116,-10,308,-42,332,223,396,228,23,205,211,674,464,221,371,190,656,-70,351,87,-77,501
110678,185,279,500,203,-60,365,108,454,92,140,120,32,306,-57,355,68,350,228,14,213,249,704,458,208,344,180,670,-76,347,76,-105,356
110679,218,318,499,243,-58,365,86,485,85,135,104,0,302,-62,348,32,467,236,20,207,204,855,452,207,356,183,563,-51,399,108,-61,382
110680,232,356,485,280,-49,392,99,494,88,158,89,143,301,-50,366,217,486,218,25,221,218,785,475,221,377,203,616,-49,409,134,-20,412
110681,222,374,501,302,-56,393,128,499,101,153,54,126,302,-42,338,286,453,224,47,217,211,611,530,235,382,193,590,-22,404,117,-47,402
110682,261,332,515,315,-65,395,115,480,96,126,54,33,277,-57,301,367,474,237,32,197,159,599,510,235,374,185,585,-47,370,50,-125,406
110683,317,325,583,330,-57,445,149,497,102,133,95,79,292,-66,309,367,568,241,14,203,146,672,536,224,373,144,500,-67,300,-45,-264,166
110684,269,286,588,288,-61,445,141,470,119,146,63,115,321,-43,329,352,601,287,50,225,182,724,590,258,381,190,563,-57,339,17,-202,256
110685,199,291,564,245,-88,391,95,423,87,107,19,86,283,-73,320,356,454,283,38,217,188,776,531,243,370,173,619,-80,353,41,-147,418
110686,199,365,574,265,-69,409,138,445,111,129,63,138,313,-51,316,305,400,316,29,217,194,751,458,254,375,184,580,31,388,63,-144,277
110687,216,396,577,264,-64,408,114,405,102,111,68,54,287,-62,311,249,540,247,27,195,158,705,510,220,350,161,571,40,401,82,-154,211
110688,227,409,563,241,-61,352,124,421,100,116,73,-52,274,-59,310,153,511,201,8,178,146,734,519,202,344,142,582,-52,360,54,-154,289
110689,184,409,542,216,-63,350,103,385,76,113,72,-21,259,-56,317,-50,438,204,-9,177,172,667,457,187,334,165,638,-59,351,88,-83,462
110690,120,325,599,196,-76,338,86,394,66,103,91,-21,259,-89,312,113,425,194,-12,172,165,578,426,160,324,150,626,-80,368,92,-65,390
110691,106,290,518,196,-71,395,114,450,93,111,90,-38,283,-77,307,250,450,212,-17,175,148,549,464,182,333,154,625,-76,371,60,-91,411
110692,141,329,426,253,-70,381,143,492,103,125,79,42,295,-74,300,-65,482,220,-12,168,150,485,491,209,320,143,637,-10,382,45,-142,454
110693,188,382,518,304,-39,406,205,479,110,140,172,-14,323,-73,325,-27,485,256,8,182,170,720,528,230,318,156,679,26,391,72,-135,381
110694,216,381,540,307,-38,417,191,422,104,144,154,0,310,-56,339,433,516,269,19,211,223,753,592,253,357,189,682,88,410,126,-76,400
110695,206,342,551,339,-44,399,146,467,99,153,107,80,294,-49,319,415,545,237,21,222,203,914,529,229,357,194,670,79,421,132,-54,521
110696,241,430,497,327,-45,431,206,435,92,161,131,39,291,-42,333,406,571,249,23,218,216,879,512,222,368,205,697,61,379,79,-124,487
110697,226,436,475,260,-58,450,242,443,90,151,222,2,275,-36,362,376,504,218,5,233,248,761,530,197,354,204,728,-12,365,68,-120,417
110698,252,429,547,238,-36,459,212,474,120,167,191,79,300,-31,380,271,445,249,31,248,262,830,524,226,389,237,748,-17,399,128,-57,468
110699,295,436,594,200,-49,468,181,467,108,146,104,101,308,-34,355,104,460,250,19,224,232,807,525,232,383,229,690,25,398,149,-5,604
110700,304,436,560,243,-53,449,190,460,93,147,120,78,288,-29,355,197,445,251,31,231,265,686,564,243,386,223,728,25,414,189,21,598
110701,286,426,582,282,-43,437,209,445,98,145,160,81,263,-46,354,268,443,212,10,210,215,647,497,187,347,191,624,-26,360,113,-68,409
110702,273,410,668,269,-47,439,171,421,71,97,132,10,257,-63,318,399,426,181,-19,183,152,588,454,148,304,145,580,-40,311,16,-190,315
110703,255,373,483,260,-49,450,142,409,86,132,96,-2,269,-58,317,433,460,206,-9,178,190,655,484,175,320,173,626,-9,366,69,-117,439
110704,242,370,431,249,-40,483,166,384,93,134,82,60,269,-66,323,377,459,220,4,199,177,746,481,168,321,177,589,-70,324,53,-115,397
110705,254,397,576,265,-22,473,100,443,111,125,66,65,279,-73,333,191,503,223,18,202,181,688,491,193,315,170,604,4,343,72,-102,467
110706,256,415,526,288,-37,419,42,450,117,114,81,-5,286,-85,325,-46,515,224,6,166,153,604,501,176,297,129,594,114,385,68,-113,446
110707,253,419,522,333,-46,419,64,483,121,106,86,-4,291,-69,310,210,475,215,2,179,177,739,492,188,321,154,641,109,416,120,-30,628
110708,260,432,538,368,-28,385,137,521,136,123,92,-211,284,-67,322,344,453,145,-10,177,198,716,410,145,295,175,698,-139,312,73,-27,659
110709,265,418,500,374,-42,391,145,506,142,125,98,-194,301,-67,312,257,446,145,-25,175,163,743,404,131,302,167,713,-112,307,47,-25,748
110710,260,392,483,354,-60,418,160,470,124,125,113,47,288,-62,300,238,387,188,-10,157,135,715,437,139,309,153,687,19,330,58,-64,675
110711,281,404,570,349,-44,420,160,482,128,128,108,-2,310,-57,303,119,498,197,-9,136,127,610,478,174,299,104,565,170,377,69,-149,338
110712,263,411,564,335,-44,453,171,499,135,134,122,-35,315,-67,302,6,509,199,-13,111,120,762,458,142,270,57,502,25,285,-44,-328,-49
110713,247,399,573,282,-31,471,196,486,134,143,150,55,289,-69,323,218,455,206,-5,139,151,730,378,117,248,88,506,-243,211,-84,-299,41
110714,176,360,541,252,-38,450,188,437,120,126,160,85,298,-59,341,269,404,216,5,172,158,722,358,140,291,110,496,-194,269,-18,-203,228
110715,182,311,546,286,-48,455,170,447,104,133,176,77,289,-57,346,188,376,188,1,184,173,751,413,151,319,143,602,-168,284,50,-75,447
110716,217,322,586,282,-56,517,183,430,98,161,210,65,268,-62,352,81,249,186,-14,189,180,580,435,154,309,152,652,-175,252,34,-67,554
110717,253,369,580,288,-40,525,205,436,119,147,220,109,283,-57,361,17,447,203,-6,198,182,592,485,166,307,142,594,-26,243,-48,-271,354
110718,217,397,578,288,-33,512,202,471,127,146,161,125,331,-37,347,205,647,263,32,210,157,750,561,223,352,160,593,123,365,59,-158,358
110719,198,475,603,323,-23,487,183,503,145,147,99,111,334,-37,336,399,587,282,43,204,152,679,489,224,354,169,651,26,382,116,-70,451
110720,190,502,670,348,-17,445,176,556,127,130,51,82,322,-61,307,418,590,260,28,180,169,676,477,188,315,151,683,-55,283,39,-145,487
110721,242,505,681,355,-5,470,212,571,124,140,114,30,333,-51,318,346,557,260,42,183,174,843,525,224,329,121,648,111,315,5,-165,399
110722,307,483,562,304,-27,405,228,477,105,140,135,-9,293,-63,332,245,488,213,27,193,181,742,436,176,303,128,652,-158,249,-9,-140,418
110723,326,440,600,328,-30,407,233,525,108,145,132,42,305,-52,325,115,460,219,8,187,192,771,459,196,319,146,643,-108,285,20,-143,404
110724,328,437,576,326,-6,461,210,529,126,165,162,85,324,-30,343,-12,490,258,38,206,173,792,565,251,344,139,611,237,435,84,-151,255
110725,348,446,577,323,-37,432,181,468,102,127,148,109,291,-76,336,-20,460,249,14,194,155,730,472,198,331,130,637,16,346,45,-149,365
110726,363,477,563,339,-26,437,207,481,117,154,193,106,315,-50,378,355,534,234,8,212,209,780,411,164,331,161,706,-315,185,-20,-138,532
110727,330,486,542,335,-31,561,191,477,133,161,152,104,330,-36,375,438,518,233,24,238,260,760,453,196,346,201,799,-129,272,58,-49,629
110728,323,449,611,353,-47,491,118,513,124,161,98,147,323,-31,325,390,507,258,37,230,224,808,502,222,368,192,751,0,362,125,9,672
110729,323,426,648,338,-42,282,147,515,117,173,137,88,326,-37,346,430,547,261,44,222,216,852,499,224,376,208,736,-98,347,134,-5,602
110730,303,452,564,342,-47,328,185,546,119,146,119,16,354,-32,337,359,534,263,49,216,192,723,488,211,366,203,661,-62,355,99,-76,336
110731,287,410,579,340,-50,453,146,579,129,146,105,-67,358,-39,317,265,551,243,56,220,201,722,505,225,383,218,674,12,345,87,-82,357
110732,255,403,588,335,-47,432,124,563,127,130,88,-57,352,-43,318,270,396,253,64,220,185,727,494,237,391,223,709,18,380,134,-12,467
110733,261,433,531,309,-37,457,171,538,124,154,156,-69,344,-30,352,134,360,289,68,234,209,689,520,248,400,242,733,53,387,132,-31,498
110734,266,423,493,246,-38,487,213,539,112,162,222,42,337,-36,381,117,463,272,61,254,219,747,504,249,396,225,754,5,340,93,-78,484
110735,219,398,449,190,-50,464,147,518,95,172,236,89,311,-18,403,317,459,255,65,258,292,726,468,220,392,244,845,-55,327,80,-70,466
110736,194,392,469,236,-51,482,168,444,91,173,250,107,298,-30,397,206,424,236,55,248,269,653,469,219,391,241,747,-51,342,81,-66,423
110737,156,399,524,225,-56,474,161,343,89,150,201,104,293,-42,361,254,445,239,45,229,199,671,495,229,392,216,615,-9,343,89,-56,469
110738,188,427,594,211,-46,442,66,350,96,149,71,106,309,-15,350,361,537,294,80,246,211,743,562,254,407,250,717,24,364,115,3,538
110739,245,401,603,198,-41,465,64,371,104,155,71,116,307,5,362,380,517,297,85,271,229,932,596,278,426,284,734,64,412,164,50,620
110740,207,351,542,231,-85,473,83,399,98,132,43,107,318,-25,313,296,481,270,71,242,183,720,578,260,429,273,690,87,419,169,12,584
110741,220,384,523,282,-99,435,111,392,93,132,59,86,328,-11,329,240,445,254,83,233,192,653,443,229,419,233,663,77,415,119,-51,494
110742,246,384,520,309,-93,400,146,423,95,149,87,-45,330,11,338,282,410,257,87,238,223,731,458,231,395,233,668,18,410,78,-61,506
110743,251,329,516,336,-91,358,100,513,108,147,89,-61,316,13,327,152,467,260,67,264,218,816,497,261,417,269,726,8,408,102,-4,634
110744,242,307,566,334,-66,383,126,501,124,159,135,100,324,15,352,187,387,248,87,275,210,769,510,245,425,257,742,-38,379,109,-6,527
110745,205,338,665,271,-72,383,136,495,107,148,102,101,325,-8,334,215,574,253,92,266,188,704,544,242,418,259,731,-51,410,149,20,550
110746,186,312,527,234,-100,347,56,463,114,128,21,61,325,-4,319,181,556,260,105,261,191,678,475,243,416,255,681,-6,420,153,23,565
110747,121,345,415,231,-113,333,55,385,108,124,57,123,314,-9,331,54,469,245,88,240,192,778,422,203,392,241,651,-14,358,69,-66,488
110748,147,344,491,282,-102,330,83,452,118,127,67,28,314,-23,319,29,470,209,61,218,181,745,416,161,378,197,635,-49,319,34,-148,340
110749,42,274,440,251,-118,320,95,437,113,129,76,-57,298,-16,323,91,438,184,52,213,172,605,422,166,375,181,591,-82,312,32,-150,254
110750,53,306,471,211,-117,315,66,406,89,125,101,65,302,4,336,156,447,228,70,240,183,628,483,207,390,229,646,-2,374,76,-103,342
110751,180,364,492,210,-111,353,85,444,108,125,102,74,302,2,341,235,507,247,83,267,233,684,483,233,410,257,688,-61,363,92,-58,404
110752,237,353,465,183,-122,308,90,425,98,124,93,33,291,-12,331,289,571,248,80,255,225,707,485,231,421,256,705,-38,379,103,-26,456
110753,231,327,474,177,-128,333,69,397,104,128,74,41,284,-8,329,155,449,240,76,275,224,781,467,223,409,248,766,18,389,96,-51,460
110754,225,255,462,132,-131,360,29,395,95,134,102,-6,299,-11,329,-343,412,250,63,247,174,651,460,212,398,212,642,30,380,90,-69,461
110755,212,185,454,206,-114,418,16,428,95,157,172,-56,298,-3,357,-334,452,217,68,231,145,685,426,189,383,191,564,-100,326,33,-110,407
110756,160,160,459,236,-117,376,-37,460,91,122,119,-52,292,-18,333,225,383,178,30,222,114,682,402,158,348,172,577,-176,291,17,-130,402
110757,150,218,471,210,-134,318,-73,456,90,119,5,-91,312,-21,287,385,383,220,50,232,103,648,448,203,359,170,603,32,391,97,-97,412
110758,129,214,452,189,-162,208,-73,391,98,89,-81,-241,304,-8,233,294,411,220,64,208,110,580,438,212,384,179,642,111,454,131,-39,471
110759,117,252,472,211,-159,155,-52,392,112,78,-109,-212,305,-4,226,93,324,201,37,181,71,523,388,184,343,139,570,-14,362,59,-94,401
110760,80,259,389,207,-152,274,-36,331,102,89,-31,-167,298,-24,253,14,291,175,14,184,79,568,301,141,311,108,566,-378,207,-28,-151,502
110761,61,217,414,192,-153,274,24,336,91,99,10,-131,295,-20,261,166,349,172,19,184,103,522,343,139,310,125,610,-318,220,-1,-66,682
110762,69,210,413,147,-144,272,12,328,99,94,-36,4,269,-40,223,337,255,163,6,152,62,573,395,135,291,101,575,-135,304,15,-94,554
110763,136,247,463,200,-129,276,-16,362,109,86,-62,81,264,-46,200,151,149,154,-11,114,-10,594,382,108,245,18,417,-108,228,-108,-302,87
110764,154,262,423,210,-135,311,19,349,94,95,0,-6,243,-36,246,-13,447,152,-19,155,37,532,381,102,288,61,468,-76,267,-36,-198,280
110765,56,315,371,240,-108,330,25,289,76,108,23,-50,233,-29,261,136,459,128,-17,164,74,660,326,84,274,100,576,-273,235,-5,-106,634
110766,57,295,419,267,-99,347,50,328,95,104,7,0,246,-16,263,302,321,139,-4,151,51,610,334,68,248,49,508,-281,157,-120,-240,378
110767,113,269,400,188,-101,349,-11,276,97,97,7,34,228,-33,252,272,378,162,0,133,28,547,400,104,254,6,381,11,208,-114,-359,-36
110768,130,281,407,158,-98,381,24,277,100,113,96,4,240,-18,291,186,347,176,2,150,37,588,433,139,287,45,409,212,318,-26,-309,19
110769,147,291,455,196,-105,448,68,322,82,137,117,-47,231,-32,303,155,340,137,-17,133,48,543,355,76,267,35,419,-34,243,-76,-316,-50
110770,141,316,457,188,-89,435,91,410,84,149,135,-41,239,-43,288,56,328,94,-24,136,71,480,289,41,248,41,479,-324,115,-123,-270,89
