,Fp1,Fp2,F7,F3,Fz,F4,F8,FC5,FC1,FC2,FC6,T7,C3,Cz,C4,T8,TP9,CP5,CP1,CP2,CP6,TP10,P7,P3,Pz,P4,P8,PO9,O1,Oz,O2,PO10
45449,143,166,275,65,54,274,-564,129,-79,-179,356,-471,-235,-61,111,39,-165,-168,-86,-54,-509,-465,272,-160,-161,-256,-317,-231,-231,-242,-420,-119
45450,96,300,245,30,40,252,-528,76,-97,-187,350,-593,-253,-53,115,108,-316,-273,-118,-53,-477,-505,234,-186,-152,-227,-206,-295,-232,-214,-373,-42
45451,76,442,245,37,12,272,-579,147,-77,-207,337,-485,-236,-43,110,47,-265,-205,-89,-59,-475,-410,583,-132,-121,-229,-182,-336,-240,-221,-380,-41
45452,55,527,289,92,9,313,-620,204,-77,-209,332,-408,-224,-46,87,-27,-200,-191,-91,-65,-521,-445,172,-143,-138,-246,-226,-283,-244,-273,-470,-206
45453,53,399,313,99,4,389,-553,202,-94,-195,400,-345,-230,-39,141,40,-216,-177,-79,-40,-441,-581,-60,-141,-132,-222,-200,-190,-181,-195,-371,-155
45454,82,294,209,128,29,431,-590,131,-95,-157,510,-318,-250,-45,151,80,-226,-199,-82,-42,-420,-182,4,-141,-125,-211,-165,-215,-202,-201,-363,-77
45455,136,227,138,115,29,373,-749,91,-97,-138,611,-297,-259,-28,193,153,-243,-222,-83,-7,-356,-39,150,-115,-87,-163,-58,-189,-182,-165,-311,14
45456,36,254,182,111,33,244,-521,96,-91,-168,369,-300,-233,-38,210,95,-277,-178,-58,19,-309,-175,215,-87,-57,-102,54,-189,-149,-120,-266,60
45457,-64,288,168,131,42,209,-441,97,-94,-148,390,-363,-235,-56,197,-65,-127,-164,-70,-4,-391,-152,212,-94,-85,-140,-44,-256,-203,-158,-297,42
45458,-69,325,242,114,44,77,-535,15,-59,-135,461,-340,-209,-51,217,38,-276,-151,-47,15,-371,-267,222,-90,-79,-121,-13,-227,-176,-155,-280,-5
45459,-82,324,210,27,62,153,-575,114,-32,-139,467,-208,-181,-32,217,87,71,-143,-39,36,-321,-172,289,-52,-37,-73,-3,-245,-145,-115,-240,46
45460,-59,245,139,-8,76,368,-685,255,-54,-120,562,-196,-200,-32,236,-24,90,-145,-19,41,-342,-75,348,-42,-35,-83,-14,-150,-115,-88,-220,118
45461,5,130,187,-19,104,444,-666,396,-55,-101,591,-126,-167,-27,278,59,-13,-121,-7,63,-281,-111,380,-34,-27,-33,59,-144,-90,-58,-165,145
45462,23,216,158,64,86,405,-575,400,-32,-118,528,-24,-165,-28,256,172,-273,-123,-26,58,-277,-169,370,-22,-19,-44,72,-151,-60,-42,-141,168
45463,71,302,193,168,69,320,-547,367,-41,-120,515,-149,-141,-13,224,203,-133,-64,-5,57,-304,-187,353,5,-21,-55,44,-130,-69,-103,-227,35
45464,134,345,231,189,51,179,-429,370,-27,-122,420,-267,-117,6,243,209,89,-38,5,79,-262,-214,403,19,17,-17,124,-49,-13,-33,-181,63
45465,181,252,213,117,21,179,-506,317,-8,-110,327,-216,-126,10,259,142,-57,-84,13,88,-267,-304,380,-12,36,-6,96,-111,-46,-17,-166,137
45466,172,157,163,-78,28,288,-671,314,-24,-114,331,-203,-171,13,252,101,-154,-126,-6,73,-252,-360,344,-41,13,-12,33,-161,-84,-76,-201,93
45467,92,110,118,-15,53,298,-601,389,-47,-128,404,-379,-186,-12,248,122,-227,-111,-47,63,-303,-226,306,-75,-34,-93,-30,-175,-135,-142,-316,-161
45468,-40,37,124,-38,55,466,-644,321,-77,-103,534,-430,-207,-18,281,48,-218,-153,-49,65,-321,-175,277,-92,-43,-65,67,-201,-144,-137,-303,-53
45469,-183,76,122,17,64,390,-848,255,-73,-101,572,-317,-190,8,286,-41,-118,-121,-29,60,-275,-156,374,-57,-14,-39,142,-154,-104,-70,-223,74
45470,-156,124,174,29,46,172,-808,163,-102,-117,556,-320,-196,9,272,-47,-139,-135,-31,53,-297,-148,388,-36,-3,-46,67,-96,-60,-34,-163,187
45471,18,238,261,-44,49,114,-501,83,-79,-127,533,-320,-170,24,251,-4,53,-69,7,77,-321,-214,638,10,21,-37,23,-163,-12,-20,-182,98
45472,131,313,312,-20,35,229,-426,87,-28,-154,442,-270,-128,13,236,158,64,0,34,67,-325,-202,545,41,37,-25,43,-95,3,-17,-179,112
45473,193,384,328,22,36,226,-331,160,-40,-184,364,-191,-93,5,233,285,-3,34,43,50,-315,-220,289,56,16,-54,88,-128,-15,-35,-225,140
45474,224,492,400,133,67,246,-229,250,-45,-170,306,-123,-79,16,237,294,-66,26,40,82,-265,-271,188,83,37,-7,181,-83,38,15,-155,152
45475,157,442,325,74,66,320,-367,200,-62,-134,414,-156,-140,-8,270,309,9,-53,4,104,-219,-140,291,42,26,27,108,169,88,83,-44,242
45476,151,252,404,115,100,414,-554,273,-43,-114,439,-158,-107,5,283,175,83,-19,32,92,-257,-35,397,53,50,26,101,169,122,148,6,324
45477,240,322,387,86,116,226,-432,247,-33,-108,462,-176,-86,17,281,200,58,18,44,94,-250,-96,478,98,72,36,114,226,180,188,-13,205
45478,305,402,345,30,100,99,-317,206,-37,-117,508,-227,-91,17,286,350,-30,-9,47,104,-176,22,466,65,67,39,199,82,50,60,-90,214
45479,179,362,339,43,45,300,-342,259,-47,-138,516,-195,-139,-3,266,308,50,-121,-11,60,-244,-100,377,-15,17,-12,133,-224,-94,-53,-131,220
45480,111,360,320,59,73,347,-389,221,-48,-141,441,-204,-139,-17,232,208,183,-100,-10,36,-297,-195,391,-11,-11,-46,57,-136,-110,-72,-194,163
45481,82,379,339,101,87,238,-368,144,-61,-147,394,-117,-133,-12,221,176,63,-51,-16,37,-307,-173,390,-26,-22,-47,60,-121,-106,-95,-205,139
45482,120,285,354,148,92,207,-407,244,-34,-158,445,-174,-150,-13,211,186,-84,-75,-15,53,-309,-385,362,-28,-8,-51,65,-116,-46,-35,-220,-15
45483,178,84,294,93,37,275,-508,283,-41,-147,496,-334,-162,-30,188,137,-229,-129,-44,15,-351,-324,279,-58,-46,-86,86,-177,-96,-81,-263,-171
45484,188,78,285,66,46,286,-549,231,-61,-156,524,-309,-167,-11,187,9,-92,-152,-58,-9,-414,-128,298,-80,-91,-146,-233,-206,-147,-121,-281,-155
45485,37,221,121,66,48,13,-399,167,-47,-156,281,-163,-190,-9,202,21,-104,-175,-57,2,-371,-223,311,-101,-80,-104,-117,-200,-154,-109,-253,-73
45486,40,353,54,65,33,-87,-479,211,-75,-172,340,-308,-184,-11,208,91,-213,-178,-63,6,-368,-151,278,-126,-96,-120,-37,-216,-220,-164,-310,-92
45487,85,352,36,111,27,140,-553,259,-103,-161,493,-430,-203,-27,210,98,-194,-203,-93,0,-375,-303,202,-144,-119,-157,-25,-219,-216,-210,-330,-12
45488,74,269,142,67,4,347,-620,278,-74,-132,390,-294,-189,-44,171,31,-125,-195,-82,-26,-417,-458,222,-137,-122,-168,-103,-220,-176,-166,-299,-36
45489,-24,158,168,45,23,397,-606,235,-77,-121,373,-309,-208,-51,147,110,-197,-214,-97,-37,-454,-420,204,-179,-149,-213,-190,-322,-264,-249,-367,-155
45490,-83,-29,141,48,26,468,-642,183,-66,-121,362,-352,-222,-52,155,162,-148,-268,-110,-20,-408,-152,171,-168,-116,-163,-69,-275,-198,-160,-227,57
45491,-84,55,175,6,32,299,-727,69,-90,-147,389,-254,-223,-70,163,23,-50,-205,-134,-29,-413,-251,199,-147,-97,-156,-62,-169,-152,-145,-257,-48
45492,-77,227,177,-6,44,202,-855,120,-71,-140,433,-324,-206,-57,188,-47,-56,-204,-115,-24,-418,-348,183,-163,-107,-150,-78,-432,-238,-237,-333,-122
45493,-10,391,120,84,46,258,-771,185,-56,-149,522,-399,-204,-64,187,51,-79,-219,-105,-30,-409,-508,225,-141,-112,-146,-90,-291,-190,-182,-324,-118
45494,70,358,101,118,35,354,-550,63,-69,-159,522,-320,-238,-76,186,118,-85,-203,-105,-45,-392,-302,285,-131,-90,-133,-112,-102,-125,-139,-295,-138
45495,88,101,211,113,38,312,-379,116,-90,-162,360,-266,-217,-74,186,80,-47,-131,-62,-4,-376,-192,288,-74,-51,-83,-38,-29,-56,-75,-249,-127
45496,31,-18,293,14,32,216,-452,147,-110,-178,248,-287,-183,-65,152,-11,-138,-154,-73,-23,-425,-241,320,-72,-59,-99,-83,-243,-112,-106,-235,-68
45497,65,108,265,-55,32,321,-539,186,-114,-187,300,-311,-195,-46,184,72,-190,-141,-69,-12,-366,-207,532,-76,-55,-72,-28,-493,-177,-113,-183,61
45498,149,274,196,-73,1,174,-541,398,-90,-183,336,-372,-171,-31,176,120,-72,-180,-50,24,-336,-242,278,-68,-37,-45,38,-251,-93,-33,-164,24
45499,151,378,164,18,-4,78,-526,325,-94,-185,372,-394,-183,-36,185,127,-187,-222,-47,14,-338,-309,77,-76,-37,-37,57,-185,-33,-36,-175,15
45500,120,326,186,-36,-13,271,-482,175,-79,-191,373,-373,-197,-12,196,88,-239,-202,-42,41,-304,-434,68,-62,-20,-12,132,-106,2,-29,-167,-17
45501,155,200,230,-40,-22,146,-422,45,-104,-184,307,-301,-210,-9,194,95,-392,-189,-49,53,-243,-173,134,-71,-23,18,301,-196,-61,-70,-194,-72
45502,162,180,209,46,-12,65,-466,0,-75,-192,294,-308,-176,2,191,53,-23,-140,-36,50,-254,-312,200,-58,-11,13,183,-265,-102,-82,-203,-34
45503,54,199,204,89,-14,174,-519,-3,-76,-211,293,-334,-175,-11,171,-38,-5,-174,-34,2,-351,-336,241,-60,-34,-79,-86,-268,-106,-109,-242,10
45504,-64,254,188,122,-13,217,-505,56,-76,-195,364,-338,-184,5,159,-33,37,-215,-36,16,-358,-332,271,-70,-56,-86,-141,-178,-55,-74,-225,45
45505,-88,362,228,108,-14,72,-497,181,-64,-200,305,-222,-170,-6,145,34,29,-189,-36,11,-415,-256,231,-72,-77,-101,-141,-165,-79,-84,-245,32
45506,-205,347,200,-13,-34,13,-529,107,-110,-204,334,-154,-207,-28,152,24,-101,-228,-63,13,-393,-348,209,-71,-68,-100,-2,-213,-93,-99,-255,-32
45507,-131,285,208,-140,-9,187,-553,81,-103,-183,405,-235,-185,-27,165,-9,-32,-157,-54,17,-384,-235,237,-42,-52,-95,-124,-169,-66,-86,-228,-18
45508,84,265,261,-112,21,283,-516,175,-79,-164,410,-299,-150,-9,198,66,1,-63,-7,37,-359,-102,345,9,-28,-75,-94,-42,15,-17,-180,171
45509,135,224,235,-97,1,282,-507,160,-72,-166,443,-287,-151,-19,200,140,-137,-92,-18,39,-332,-236,366,-7,-32,-60,-14,-21,11,-22,-200,109
45510,147,247,260,-78,15,295,-488,162,-99,-168,488,-236,-133,-7,221,183,-48,-102,-7,42,-348,-380,374,7,-8,-64,-66,-73,4,-36,-177,35
45511,142,308,294,25,41,225,-413,283,-92,-157,469,-72,-93,0,196,171,144,-56,14,47,-365,-308,407,54,4,-58,-15,9,55,-18,-164,155
45512,223,377,323,144,42,176,-395,326,-57,-145,496,-51,-96,17,205,152,-3,-19,20,69,-332,-185,450,83,21,-44,45,7,61,15,-145,172
45513,186,449,338,187,13,325,-483,325,-62,-160,554,-216,-91,22,239,133,121,-33,29,72,-298,-243,479,70,33,-31,75,18,59,42,-115,212
45514,89,314,323,113,16,431,-634,172,-86,-146,499,-295,-139,16,216,136,46,-89,18,48,-295,-371,454,36,7,-45,73,79,69,31,-130,184
45515,81,232,310,81,17,346,-591,119,-72,-158,239,-314,-138,9,195,297,-56,-78,8,47,-267,-39,444,13,7,-21,149,56,58,12,-147,136
45516,61,283,273,112,-10,272,-555,161,-70,-164,313,-414,-172,-13,184,231,-184,-112,-12,32,-304,152,352,-21,-27,-83,65,-77,-28,-51,-206,165
45517,14,213,222,96,0,136,-641,196,-83,-169,367,-391,-155,-20,195,93,-97,-79,-19,33,-326,-69,505,-12,-44,-97,-1,-30,-3,-18,-184,124
45518,-23,104,215,-2,-30,38,-741,186,-64,-173,362,-267,-134,-17,207,55,-117,-54,-12,20,-312,-74,700,20,-34,-58,62,-58,29,0,-161,155
45519,43,-20,133,-104,-16,376,-694,120,-87,-170,428,-258,-174,-9,194,64,-25,-125,-36,15,-364,-103,249,-25,-45,-75,80,-111,-1,-9,-158,222
45520,70,-91,102,-53,-3,486,-719,80,-112,-167,521,-255,-244,-44,204,49,-99,-281,-83,2,-366,-306,73,-92,-102,-124,64,-95,-64,-89,-269,-166
45521,110,44,257,65,25,223,-563,-28,-112,-141,556,-315,-251,-39,229,-1,-79,-279,-74,4,-402,-108,130,-87,-110,-151,-143,-114,-126,-138,-302,-48
45522,155,187,255,19,10,333,-643,59,-80,-157,431,-403,-224,-54,189,18,-180,-202,-80,-24,-385,-178,185,-102,-123,-187,-112,-331,-189,-228,-375,9
45523,142,318,201,111,13,375,-638,176,-71,-169,437,-355,-218,-50,226,169,-104,-186,-89,-5,-294,-218,185,-122,-129,-128,110,-249,-202,-232,-361,-29
45524,117,440,225,158,18,40,-502,253,-69,-197,377,-305,-197,-56,219,189,-1,-184,-88,-24,-312,-183,260,-132,-153,-144,31,-145,-184,-201,-345,-51
45525,34,423,203,125,21,-26,-439,195,-42,-192,410,-300,-166,-36,216,80,-39,-128,-59,-11,-334,-172,301,-78,-123,-143,-77,-187,-122,-152,-281,76
45526,-5,408,206,114,16,47,-328,143,-55,-212,506,-278,-149,-19,253,71,-89,-128,-32,10,-270,-318,196,-56,-96,-97,-23,-145,-115,-149,-248,70
45527,3,389,181,120,5,140,-360,154,-83,-204,460,-300,-167,-24,243,150,-137,-161,-43,2,-286,-230,266,-54,-87,-72,3,-130,-98,-108,-232,116
45528,49,327,214,78,15,153,-530,132,-89,-162,544,-309,-178,-21,252,183,-58,-153,-46,9,-263,-107,333,-49,-86,-86,46,-123,-79,-101,-209,154
45529,-20,346,165,16,-1,139,-490,214,-68,-221,440,-247,-175,-56,213,187,-4,-158,-39,-8,-281,-335,335,-68,-110,-116,43,-82,-83,-124,-257,39
45530,-193,384,130,61,-9,254,-480,282,-57,-189,356,-236,-161,-67,209,217,-209,-164,-63,-33,-291,-289,329,-89,-125,-141,53,-125,-114,-146,-257,36
45531,-102,333,168,72,28,231,-553,303,-42,-166,361,-400,-169,-60,208,150,-260,-161,-63,-25,-301,-258,291,-70,-119,-127,59,-158,-67,-104,-183,120
45532,107,275,205,91,75,270,-475,160,-81,-154,384,-381,-180,-43,200,8,-138,-160,-83,-37,-373,-386,251,-86,-137,-161,-113,-179,-119,-161,-265,-16
45533,272,259,102,13,62,340,-409,78,-104,-149,418,-194,-190,-52,214,-17,-27,-127,-67,-46,-402,-205,292,-88,-146,-163,-79,-191,-183,-252,-355,-45
45534,209,179,52,25,40,252,-446,132,-105,-168,381,-200,-174,-46,190,-97,-30,-80,-56,-23,-367,28,360,-24,-128,-160,-13,-208,-136,-222,-344,-42
45535,177,190,208,146,28,66,-615,189,-93,-179,409,-251,-193,-33,182,-7,-150,-85,-66,-27,-360,-156,259,-20,-119,-132,-5,-292,-133,-194,-304,-73
45536,130,338,147,125,26,117,-624,133,-107,-159,513,-389,-213,-22,214,207,-105,-184,-73,-5,-335,-142,191,-95,-125,-91,2,-109,-89,-114,-219,40
45537,122,384,223,46,34,269,-447,83,-118,-169,460,-479,-214,-43,215,215,-135,-202,-74,0,-359,-193,404,-100,-133,-118,-29,-46,-74,-114,-264,10
45538,43,348,190,29,21,307,-429,92,-120,-153,386,-391,-215,-35,220,190,-164,-153,-83,-13,-356,-395,449,-57,-125,-126,9,-75,-8,-66,-250,-33
45539,29,212,210,2,25,232,-521,51,-108,-151,396,-394,-208,-27,218,218,-167,-202,-82,5,-299,-359,307,-79,-112,-71,160,162,29,-13,-187,-37
45540,119,144,282,-60,23,202,-589,154,-89,-145,307,-439,-179,-23,207,241,-82,-221,-46,26,-317,-321,256,-86,-92,-73,23,30,-24,-29,-202,63
45541,77,199,190,-45,0,185,-696,176,-117,-149,359,-414,-207,-29,184,0,-106,-253,-73,-6,-370,-382,328,-134,-142,-133,-56,-342,-180,-130,-253,16
45542,2,95,106,1,24,212,-722,183,-105,-137,503,-421,-213,-35,169,-140,-274,-206,-93,-14,-424,-372,558,-96,-128,-126,-95,-175,-81,-90,-233,-49
45543,-50,-52,133,14,-4,293,-664,213,-85,-161,437,-393,-216,-42,176,-126,-354,-204,-90,-2,-444,-567,204,-92,-110,-115,-90,-4,-28,-51,-219,-18
45544,-100,0,98,-32,-30,224,-629,75,-85,-193,275,-387,-215,-37,163,-16,-157,-190,-73,-3,-413,-601,18,-61,-92,-92,-65,-79,-37,-53,-213,88
45545,-24,218,105,-17,3,240,-869,57,-77,-178,330,-365,-181,-32,184,58,-53,-207,-59,4,-431,-304,114,-57,-86,-119,-219,-81,-51,-109,-279,-31
45546,19,277,139,-21,-19,93,-794,118,-95,-185,339,-283,-202,-48,191,32,-94,-232,-89,-14,-406,-280,124,-119,-121,-146,-123,-301,-207,-209,-345,-58
45547,75,301,162,-27,-18,156,-650,68,-109,-191,293,-284,-208,-49,162,99,24,-187,-96,-20,-377,-189,131,-120,-124,-162,-133,-497,-318,-262,-337,-36
45548,65,424,235,78,-24,219,-547,77,-92,-216,265,-371,-178,-51,168,55,-71,-180,-74,-2,-376,-38,175,-103,-103,-132,-92,-414,-230,-212,-303,-46
45549,29,405,173,138,-12,226,-479,62,-103,-212,283,-475,-203,-47,165,10,-288,-223,-75,-19,-373,-234,130,-116,-101,-128,-50,-351,-168,-156,-255,-28
45550,45,382,168,82,4,220,-479,46,-93,-190,299,-451,-213,-48,171,-5,-98,-216,-81,-8,-355,-415,179,-104,-95,-107,-77,-280,-135,-108,-226,13
45551,-9,269,142,107,-24,140,-588,63,-87,-185,379,-326,-209,-46,167,20,-117,-243,-75,-9,-360,-192,281,-97,-114,-103,-82,-164,-95,-109,-228,-3
45552,-245,121,109,128,-13,-55,-650,-35,-103,-202,352,-244,-222,-47,155,70,-224,-293,-84,-36,-415,-276,316,-122,-144,-112,-33,-197,-95,-95,-237,36
45553,-169,148,171,101,0,-47,-575,-113,-90,-198,336,-319,-224,-33,171,23,-200,-248,-65,-25,-398,-345,223,-115,-126,-111,-99,-278,-109,-92,-243,-84
45554,-36,137,85,92,0,167,-560,56,-81,-187,345,-395,-222,-26,200,-48,-239,-233,-70,-1,-340,-350,166,-98,-104,-73,-14,-276,-116,-75,-198,3
45555,-27,69,40,-64,-37,239,-615,137,-84,-189,277,-532,-199,-21,183,-82,-155,-193,-86,1,-326,-402,193,-82,-80,-65,61,-192,-75,-63,-183,-18
45556,-26,38,39,-111,-30,272,-551,132,-93,-197,343,-598,-208,-34,174,-80,-337,-180,-68,-14,-385,-286,154,-99,-82,-76,-35,-264,-107,-74,-169,167
45557,-25,61,5,-6,-12,292,-594,111,-85,-199,444,-588,-221,-51,152,-90,-385,-222,-86,-28,-454,-287,258,-111,-105,-127,-96,-256,-123,-132,-261,5
45558,-44,159,-15,14,-9,336,-952,48,-110,-145,467,-819,-192,-25,194,28,-272,-207,-79,5,-369,-271,348,-35,-77,-74,-46,-280,-20,-69,-180,-25
45559,-3,272,68,11,-16,342,-983,55,-82,-129,415,-585,-197,-4,237,114,-74,-206,-39,16,-340,-373,246,0,-48,-38,-13,-235,4,-18,-153,53
45560,3,66,99,-116,-10,285,-786,29,-104,-129,387,-334,-255,-35,231,83,-2,-278,-70,15,-317,-403,217,-72,-77,-56,20,-73,-18,-21,-178,6
45561,-14,-70,127,-29,-3,-9,-607,104,-124,-152,309,-299,-244,-31,216,18,-34,-211,-65,17,-318,-278,260,-78,-60,-46,28,-92,-4,-13,-132,87
45562,-8,13,126,69,-25,-40,-525,133,-92,-202,266,-214,-199,-16,191,-26,-161,-136,-43,18,-379,-202,272,-33,-61,-63,-59,-139,-4,-7,-136,126
45563,14,189,72,48,0,126,-454,242,-52,-190,271,-163,-158,9,208,98,-206,-134,-5,38,-318,-326,330,-11,-20,-10,51,-33,52,13,-148,21
45564,6,241,112,52,14,189,-356,388,-51,-187,281,-120,-167,10,221,186,-107,-137,-16,42,-290,-223,417,-13,-19,19,106,34,75,35,-126,-17
45565,11,185,194,104,3,215,-392,450,-45,-177,314,-249,-140,2,232,157,9,-86,-13,51,-279,-120,727,33,-22,23,1,-1,100,65,-68,214
45566,81,258,171,110,-19,113,-462,443,-52,-182,328,-391,-185,-22,209,70,-202,-146,-57,21,-313,-140,434,-37,-70,-23,0,-177,18,-8,-141,56
45567,89,378,73,118,-25,35,-487,400,-51,-209,354,-356,-199,-49,219,16,-180,-188,-87,-1,-332,-275,104,-86,-109,-70,-37,-203,-40,-59,-174,28
45568,73,434,-21,7,-22,49,-497,255,-38,-191,359,-348,-178,-29,260,137,-61,-182,-57,21,-264,-172,140,-46,-68,-14,65,-117,5,-18,-119,171
45569,14,439,40,-3,-42,73,-499,83,-90,-183,367,-376,-219,-20,242,142,-44,-185,-66,14,-255,-111,196,-55,-55,0,130,-143,-18,-9,-112,131
45570,0,224,150,79,-45,272,-594,-106,-132,-186,386,-357,-233,-40,233,98,-150,-187,-91,7,-292,-175,244,-72,-106,-56,54,-106,-31,-51,-162,56
45571,-7,77,267,104,-6,319,-663,-70,-104,-166,367,-332,-216,-12,224,14,-192,-155,-68,4,-318,-182,271,-59,-100,-95,47,-94,-6,-20,-156,184
45572,-91,207,245,98,0,350,-593,-12,-92,-177,396,-385,-200,-31,209,-25,-74,-169,-98,-11,-351,-173,253,-93,-124,-108,-6,-141,-6,-11,-169,69
45573,-84,390,226,17,15,335,-525,-59,-106,-156,468,-364,-243,-33,220,26,-74,-188,-105,-18,-311,-261,279,-92,-131,-75,73,-122,-16,-36,-153,123
45574,-168,447,192,164,31,351,-534,-35,-101,-135,603,-372,-272,-38,219,72,-66,-236,-92,-29,-319,-258,295,-105,-145,-86,84,-115,-17,-48,-161,124
45575,-162,378,166,248,38,259,-681,63,-58,-128,627,-357,-211,-28,228,74,-178,-184,-70,-15,-297,-118,325,-55,-130,-69,73,-54,31,8,-121,145
45576,-9,235,166,194,5,241,-695,162,-48,-179,415,-295,-164,-34,222,-45,8,-98,-50,5,-276,-147,386,2,-89,-50,162,-27,58,15,-120,161
45577,108,195,205,153,1,339,-616,219,-57,-153,428,-182,-136,-18,274,69,1,-77,-25,19,-184,-368,392,5,-78,1,398,-16,91,15,-123,73
45578,133,239,121,31,-5,415,-771,195,-80,-120,649,-214,-162,-24,289,214,-173,-111,-37,1,-241,-179,419,15,-74,-29,116,171,156,79,-78,199
45579,157,216,180,18,-17,413,-748,178,-64,-168,433,-179,-150,-62,208,191,-215,-71,-51,-13,-366,-70,452,26,-89,-84,-50,119,125,44,-117,207
45580,174,253,185,95,15,325,-747,68,-72,-165,451,-249,-167,-83,191,244,-102,-95,-74,-24,-337,-138,290,-47,-119,-73,66,-158,-32,-84,-211,61
45581,97,173,199,47,17,327,-1029,62,-93,-122,566,-397,-201,-58,233,292,-58,-134,-85,-19,-329,-347,247,-93,-105,-83,15,-231,-57,-94,-214,36
45582,-12,-46,145,-24,5,274,-839,44,-82,-117,436,-471,-233,-46,199,117,-96,-205,-97,-14,-376,-282,342,-92,-105,-112,-68,-97,2,-86,-251,25
45583,-15,-154,168,-19,14,140,-631,134,-58,-174,233,-432,-232,-57,165,3,-136,-198,-98,-27,-386,-378,273,-98,-133,-124,-13,-197,-51,-87,-212,92
45584,-14,-60,138,-20,0,13,-649,83,-65,-187,211,-377,-213,-33,161,1,-158,-186,-81,-28,-392,-320,292,-80,-112,-87,-12,-230,-72,-72,-159,246
45585,-20,113,150,-13,9,96,-513,38,-70,-210,161,-359,-212,-48,128,-65,-334,-175,-84,-54,-434,-182,375,-82,-130,-135,-110,-200,-71,-103,-247,51
45586,29,222,212,-18,11,115,-379,-42,-73,-215,189,-324,-217,-44,128,-73,-87,-185,-89,-56,-452,-206,248,-115,-134,-188,-194,-317,-152,-225,-364,-104
45587,9,289,159,34,5,111,-363,116,-87,-216,257,-387,-204,-37,142,-5,-55,-192,-90,-51,-424,-288,310,-93,-129,-149,-117,-163,-106,-141,-304,18
45588,14,346,126,96,16,117,-408,223,-80,-213,265,-488,-191,-49,127,12,-198,-179,-86,-77,-439,-409,579,-78,-144,-193,-187,-53,-100,-189,-382,-143
45589,-71,319,59,29,-13,138,-464,101,-106,-236,248,-562,-253,-86,112,14,-105,-273,-142,-100,-465,-405,376,-145,-185,-222,-217,-273,-192,-260,-393,-154
45590,-167,206,79,56,-6,229,-556,142,-88,-251,242,-458,-247,-83,107,19,-99,-286,-153,-118,-472,-315,29,-178,-210,-241,-242,-342,-224,-277,-411,-223
45591,-182,185,52,65,-1,276,-662,271,-84,-216,313,-400,-221,-100,111,-12,-215,-279,-163,-117,-462,-303,-41,-169,-220,-260,-206,-356,-240,-288,-422,-206
45592,-94,236,30,-1,14,268,-646,320,-73,-195,414,-526,-226,-100,134,-86,-217,-255,-152,-79,-424,-355,57,-156,-191,-195,-95,-327,-185,-211,-349,-37
45593,-24,305,-7,60,25,248,-689,233,-84,-196,422,-504,-248,-95,164,-37,-217,-247,-120,-73,-404,-418,130,-146,-164,-154,-45,-264,-129,-143,-298,31
45594,20,220,-26,111,38,309,-674,333,-91,-185,403,-356,-234,-95,165,96,-224,-218,-118,-56,-382,-291,161,-121,-160,-144,-28,-221,-80,-127,-245,80
45595,26,147,33,55,60,269,-496,257,-90,-162,481,-410,-241,-101,193,148,-194,-235,-126,-64,-352,-209,186,-117,-171,-135,-41,-222,-98,-153,-276,-44
45596,1,239,138,11,33,185,-559,120,-93,-181,415,-393,-250,-105,162,45,-120,-211,-120,-79,-337,-179,202,-102,-163,-137,-16,-132,-66,-119,-308,-152
45597,67,252,243,78,3,154,-631,-21,-96,-182,443,-240,-238,-85,186,71,-189,-179,-85,-44,-305,-167,292,-83,-127,-103,64,-133,-75,-94,-253,-57
45598,95,256,226,89,6,140,-632,-94,-115,-165,433,-422,-233,-72,201,91,-110,-146,-67,-25,-314,-276,316,-62,-100,-95,12,-166,-68,-66,-226,109
