,Fp1,Fp2,F7,F3,Fz,F4,F8,FC5,FC1,FC2,FC6,T7,C3,Cz,C4,T8,TP9,CP5,CP1,CP2,CP6,TP10,P7,P3,Pz,P4,P8,PO9,O1,Oz,O2,PO10
211801,-41,311,-55,-104,-120,62,168,163,-106,-142,140,-363,95,-105,322,259,24,-39,-134,38,122,99,270,-14,73,235,160,21,108,55,214,-162
211802,-40,307,-54,-123,-128,55,167,175,-99,-159,121,-329,127,-109,309,255,51,-14,-113,10,127,96,305,-9,82,236,155,28,123,56,215,-158
211803,-44,305,-27,-103,-120,75,198,199,-89,-154,141,-306,154,-105,309,271,43,-4,-104,21,141,92,305,18,94,238,172,20,129,78,239,-142
211804,0,321,-12,-86,-112,99,225,213,-81,-131,173,-286,165,-117,342,294,57,23,-83,42,154,165,328,48,112,270,217,72,175,133,273,-93
211805,17,374,52,-43,-99,89,244,265,-81,-144,177,-255,188,-135,334,314,107,64,-78,48,179,188,359,62,133,293,237,139,226,156,291,-81
211806,61,402,100,-10,-71,119,258,316,-62,-138,189,-208,205,-148,326,309,191,118,-65,26,177,197,447,103,148,297,239,219,267,178,322,-71
211807,121,411,108,-18,-56,115,282,303,-62,-165,179,-160,219,-166,315,302,254,114,-61,-9,157,212,546,110,134,287,231,184,277,187,311,-52
211808,148,436,111,10,-43,116,309,294,-47,-157,221,-187,217,-163,337,329,211,96,-73,14,171,242,473,102,131,285,246,180,262,206,356,-24
211809,173,446,134,23,-48,126,314,303,-62,-157,266,-203,200,-193,342,349,180,79,-93,-13,171,241,399,67,85,269,260,156,236,211,350,-18
211810,186,446,121,20,-46,152,362,313,-73,-141,306,-204,194,-176,343,371,164,62,-100,-4,203,267,366,34,82,284,278,178,246,243,394,15
211811,179,486,132,18,-13,200,443,327,-62,-116,348,-198,192,-164,386,407,173,81,-88,37,222,288,364,64,98,325,311,246,319,277,470,58
211812,176,483,136,7,-26,199,443,347,-69,-115,317,-222,189,-175,378,375,186,59,-113,10,208,219,365,58,94,317,317,253,332,301,472,40
211813,136,435,104,-28,-47,161,411,315,-87,-125,297,-249,162,-212,368,332,164,22,-136,-19,155,273,340,25,63,283,281,213,299,282,462,17
211814,102,420,86,-38,-59,84,370,327,-92,-126,284,-265,166,-176,359,323,113,35,-134,-21,140,296,323,25,43,277,279,186,307,282,455,21
211815,61,350,58,-50,-86,82,323,313,-80,-131,236,-259,188,-151,317,296,130,49,-135,-21,140,248,328,29,56,283,284,176,298,276,443,7
211816,9,290,34,-63,-120,77,279,280,-84,-154,165,-272,167,-160,291,283,98,17,-136,-61,114,186,304,-5,41,230,244,145,277,221,406,-43
211817,-1,275,20,-71,-125,44,250,283,-94,-167,139,-313,153,-159,273,269,73,-23,-152,-65,98,186,285,-24,14,212,238,124,259,176,380,-44
211818,32,272,27,-63,-115,69,281,284,-62,-148,154,-308,166,-142,280,276,62,-8,-142,-53,102,212,285,-10,20,207,228,127,222,181,392,-30
211819,5,277,3,-89,-127,63,279,264,-49,-165,154,-306,159,-135,273,298,76,-7,-134,-45,100,223,320,3,41,222,240,151,240,223,405,-27
211820,-6,276,0,-91,-118,42,253,245,-63,-169,152,-300,155,-130,262,286,114,0,-132,-48,110,242,353,3,43,235,255,187,279,241,420,-11
211821,45,340,36,-40,-109,49,260,233,-64,-155,169,-275,163,-115,285,334,139,7,-120,-9,138,281,362,33,67,272,295,200,294,264,453,21
211822,81,361,69,-26,-101,69,243,244,-52,-153,178,-244,190,-111,299,358,159,53,-97,11,169,296,403,74,98,293,319,239,353,286,482,57
211823,72,359,83,-20,-108,60,256,258,-53,-157,190,-256,186,-107,317,364,180,58,-91,11,198,320,391,77,120,328,352,226,365,304,505,89
211824,47,357,61,-28,-96,76,303,229,-88,-159,237,-251,182,-112,345,396,182,75,-86,22,211,355,389,90,128,355,399,223,362,318,508,135
211825,89,395,90,-26,-86,103,358,225,-81,-146,263,-220,182,-110,380,429,205,97,-66,72,235,403,455,143,134,374,431,267,406,355,519,177
211826,76,393,87,-58,-106,117,388,232,-108,-136,282,-214,180,-126,390,420,212,118,-71,62,261,416,477,153,145,371,441,276,417,338,524,173
211827,113,417,134,-33,-81,161,405,306,-104,-107,315,-195,210,-136,408,444,250,172,-52,82,250,445,520,183,172,377,450,306,463,357,545,180
211828,134,439,153,-15,-64,179,425,334,-83,-92,343,-162,240,-162,413,452,287,185,-46,84,277,472,549,195,167,405,484,302,462,373,562,224
211829,158,466,172,9,-50,202,459,360,-81,-69,363,-125,229,-178,438,471,308,190,-68,79,307,483,535,177,144,384,490,306,452,349,535,211
211830,206,501,200,44,-34,237,493,385,-64,-61,404,-90,240,-160,458,513,301,171,-57,82,305,484,525,169,133,394,475,297,432,328,496,234
211831,208,491,206,67,-32,240,482,392,-53,-52,422,-101,251,-156,454,497,282,175,-64,79,285,500,501,142,124,398,486,282,396,319,486,233
211832,158,428,181,27,-53,195,421,354,-70,-74,366,-145,226,-180,426,467,237,150,-75,53,276,468,487,146,115,372,455,298,402,296,486,191
211833,123,388,154,9,-74,146,373,341,-81,-89,312,-176,209,-200,383,415,187,139,-98,19,233,404,470,136,77,344,410,244,371,280,464,153
211834,129,408,138,23,-68,163,365,352,-70,-94,298,-160,218,-184,376,402,205,160,-105,15,219,388,486,144,82,342,403,265,381,303,466,162
211835,121,421,140,0,-61,170,379,352,-67,-88,270,-141,213,-176,373,404,256,162,-92,10,212,380,588,155,92,326,412,219,384,275,464,158
211836,128,391,138,6,-54,163,351,347,-78,-108,239,-170,198,-177,348,370,240,148,-93,22,193,333,557,125,83,319,375,147,352,226,409,118
211837,122,392,141,17,-57,142,354,324,-83,-122,244,-185,196,-161,351,374,204,112,-101,15,195,308,471,111,82,298,351,184,336,199,352,71
211838,111,375,147,5,-64,134,329,310,-86,-143,240,-203,182,-164,353,364,170,104,-86,2,188,333,438,109,89,317,344,203,347,250,383,100
211839,137,404,139,2,-44,44,285,300,-74,-154,215,-232,166,-162,335,347,153,78,-102,-6,180,322,402,89,79,296,346,218,337,209,384,73
211840,168,415,149,23,-48,30,291,288,-74,-162,212,-248,158,-164,320,344,137,55,-129,-12,174,323,386,61,57,263,329,229,319,204,362,70
211841,188,430,194,49,-25,119,319,335,-59,-168,231,-217,176,-172,336,330,176,81,-124,-9,167,321,413,58,64,252,330,264,336,216,351,94
211842,193,446,180,45,-26,99,321,296,-71,-164,237,-223,147,-179,330,346,177,64,-122,-5,165,338,407,41,49,247,316,256,324,188,337,92
211843,231,465,180,57,-22,120,350,297,-76,-166,244,-204,161,-174,323,356,192,70,-130,-17,161,323,413,42,29,238,308,258,329,172,332,70
211844,217,482,179,65,-27,139,353,311,-80,-144,260,-192,187,-167,331,354,198,102,-121,-14,161,282,442,51,35,233,302,275,331,166,330,78
211845,226,501,200,69,-10,168,365,356,-79,-127,290,-182,187,-165,344,324,253,107,-120,8,164,309,457,52,48,238,282,286,327,170,328,92
211846,206,476,206,91,-20,183,361,379,-80,-129,281,-184,175,-177,344,250,295,108,-133,-11,159,330,449,41,64,237,274,302,324,169,335,89
211847,196,447,192,84,-28,169,352,337,-86,-117,264,-195,167,-186,350,250,256,86,-140,-8,138,308,425,19,47,240,286,266,310,126,301,77
211848,247,439,204,64,-6,187,344,282,-87,-112,236,-188,134,-194,348,309,236,72,-159,0,154,295,422,5,12,236,292,248,273,94,269,47
211849,257,473,219,67,-2,199,358,306,-88,-103,262,-199,119,-206,358,359,206,43,-178,-13,175,334,389,-14,30,234,301,179,242,115,277,46
211850,264,527,219,77,15,181,378,324,-77,-109,271,-202,124,-213,366,371,201,45,-178,12,181,329,393,-1,30,251,301,160,236,133,315,41
211851,241,543,197,61,7,175,374,338,-61,-126,220,-207,122,-222,343,379,193,41,-186,-26,155,299,416,-7,-12,226,266,196,233,101,282,-4
211852,263,561,194,73,19,164,386,338,-72,-134,207,-216,127,-227,369,364,216,44,-180,-32,171,295,420,-12,0,211,256,194,223,81,246,-20
211853,251,541,217,70,7,159,379,348,-66,-130,236,-210,154,-211,350,361,207,51,-164,-21,171,283,403,9,1,239,262,200,238,98,263,-7
211854,238,489,199,66,5,162,340,381,-42,-115,216,-201,173,-182,338,323,193,58,-143,-24,159,259,395,21,7,225,243,180,259,109,294,-7
211855,232,472,195,57,6,176,317,386,-46,-126,212,-184,176,-168,345,259,208,73,-149,-33,136,229,425,49,3,216,231,197,255,108,284,-23
211856,196,468,166,49,-27,137,286,376,-67,-167,177,-219,154,-201,321,247,190,49,-172,-74,104,229,405,3,-36,192,211,198,224,74,231,-55
211857,220,493,202,37,-37,116,300,387,-76,-170,172,-201,162,-203,305,248,186,38,-181,-88,103,223,395,0,-60,155,188,197,202,49,215,-86
211858,246,507,256,58,-20,118,315,404,-61,-168,187,-220,188,-201,283,248,200,68,-168,-95,93,220,394,3,-52,160,193,170,213,62,232,-73
211859,271,522,276,69,-14,134,336,397,-63,-170,200,-220,174,-200,294,290,204,70,-187,-95,89,242,387,12,-54,177,204,129,226,88,215,-46
211860,304,516,288,85,0,155,360,382,-68,-157,222,-178,151,-207,312,343,257,69,-165,-94,89,282,413,40,-40,162,241,186,245,91,236,-11
211861,340,578,307,113,28,206,414,397,-62,-128,267,-153,160,-206,311,369,274,59,-160,-97,94,313,412,42,-55,172,260,231,251,131,273,29
211862,352,602,317,82,28,222,433,392,-67,-134,274,-161,149,-209,315,349,274,47,-184,-81,107,297,414,18,-44,177,282,238,229,143,266,23
211863,335,575,309,84,15,202,406,398,-84,-134,256,-142,144,-215,327,324,254,52,-198,-115,91,265,415,4,-66,147,249,229,196,86,243,-1
211864,320,571,301,108,9,215,400,409,-72,-98,266,-137,158,-219,346,347,258,71,-166,-78,104,289,422,13,-49,167,238,238,208,91,241,8
211865,331,592,334,125,15,188,404,438,-56,-82,268,-107,199,-203,350,348,315,123,-158,-44,117,317,435,14,-13,189,235,189,191,95,242,0
211866,368,612,373,142,27,144,428,458,-44,-91,280,-69,223,-195,379,355,330,129,-135,-3,141,330,442,41,2,206,269,189,202,111,282,52
211867,360,592,353,142,12,209,431,446,-48,-92,285,-98,207,-197,374,353,297,116,-141,-16,148,311,445,43,4,190,265,217,217,122,290,40
211868,349,571,338,118,0,178,388,432,-43,-112,269,-88,204,-206,351,323,297,115,-159,-30,134,325,449,23,-15,174,243,223,203,128,269,29
211869,342,549,333,126,17,191,374,426,-45,-115,261,-65,205,-197,353,325,312,129,-143,-22,127,324,480,42,-3,167,228,232,215,143,269,18
211870,326,575,308,109,24,183,375,417,-51,-121,262,-89,203,-219,343,328,307,120,-142,-12,156,347,469,52,-10,184,237,266,240,146,273,33
211871,301,552,259,88,7,174,372,393,-50,-137,222,-122,222,-210,336,335,308,123,-124,-18,139,328,475,57,1,193,252,268,263,152,291,5
211872,279,547,224,71,-13,171,387,356,-44,-148,227,-132,211,-186,331,344,295,117,-119,-19,122,326,476,62,19,174,235,262,272,167,297,6
211873,279,576,252,56,-4,164,402,372,-54,-130,243,-129,212,-176,329,354,286,114,-135,-9,161,348,485,71,44,209,268,260,280,186,332,55
211874,297,613,258,72,-5,182,416,378,-61,-120,253,-121,209,-170,344,357,324,128,-132,-8,160,329,500,98,43,226,263,270,275,179,345,65
211875,301,584,271,85,-15,180,402,372,-63,-138,257,-96,202,-161,351,350,378,153,-118,-6,140,296,542,93,46,218,237,288,250,160,330,30
211876,313,549,289,70,-30,179,399,396,-66,-140,253,-68,217,-160,337,322,454,202,-91,-11,135,331,657,110,63,233,237,278,273,174,342,22
211877,306,535,307,54,-31,196,410,393,-67,-142,232,-60,224,-145,336,328,394,176,-74,-2,137,327,627,111,62,249,245,253,294,193,356,28
211878,317,547,329,75,-13,205,412,411,-61,-108,256,-59,247,-134,354,343,360,178,-75,13,142,315,577,122,65,252,262,294,334,227,378,65
211879,344,563,329,84,2,197,393,397,-76,-90,265,-69,230,-152,343,338,353,165,-91,4,128,316,517,94,79,226,261,302,325,222,372,35
211880,348,574,339,85,-17,206,412,387,-73,-99,270,-90,204,-129,314,353,338,139,-93,-1,117,321,476,92,60,219,264,330,311,222,374,22
211881,390,617,381,107,12,235,421,427,-52,-85,254,-91,223,-136,314,337,340,134,-88,-7,109,290,470,117,61,208,231,387,341,235,385,21
211882,380,612,366,110,16,218,399,412,-70,-94,229,-117,204,-155,311,289,323,94,-103,-36,71,263,449,92,42,193,199,363,330,219,345,10
211883,376,604,336,113,-4,213,395,367,-79,-119,219,-138,181,-150,302,277,290,83,-113,-50,45,224,469,81,44,184,175,336,325,197,312,-14
211884,357,583,302,97,-17,201,406,358,-80,-125,223,-154,189,-142,301,265,246,89,-100,-47,37,204,470,92,64,177,163,335,351,202,312,-50
211885,307,572,295,50,-41,192,384,354,-84,-121,195,-158,176,-143,306,252,278,103,-82,-36,53,197,472,110,78,183,164,337,355,220,333,-44
211886,324,557,303,72,-19,178,382,359,-87,-98,222,-151,170,-153,320,272,311,118,-87,-24,73,190,498,121,82,208,182,341,383,253,381,-18
211887,349,562,317,66,-42,195,380,415,-60,-89,257,-161,199,-162,332,276,270,99,-111,-15,73,200,481,111,78,222,191,345,370,272,359,-10
211888,351,567,334,37,-37,206,394,456,-55,-82,281,-173,220,-167,350,298,249,101,-115,-13,82,194,475,108,65,221,178,309,363,258,344,-35
211889,358,554,323,64,-27,203,410,433,-52,-75,289,-171,204,-170,353,272,237,88,-109,-15,94,192,426,108,65,208,159,210,309,201,323,-76
211890,299,516,260,114,-24,208,374,392,-53,-77,257,-175,199,-177,361,254,197,84,-131,-8,99,162,395,91,54,225,151,214,284,227,325,-79
211891,241,502,211,75,-45,179,340,359,-60,-90,240,-206,175,-193,351,262,192,59,-140,-11,99,176,421,95,47,226,173,227,308,213,331,-62
211892,224,538,214,60,-40,126,367,351,-65,-88,268,-200,173,-186,357,273,195,62,-144,0,117,189,426,94,40,243,182,203,310,206,336,-60
211893,218,535,194,50,-41,167,388,373,-80,-68,288,-217,168,-189,356,291,199,49,-164,-8,123,165,407,65,22,230,201,187,270,176,307,-68
211894,222,514,167,14,-58,201,387,332,-102,-59,269,-255,139,-177,373,274,175,18,-173,-17,107,144,381,56,0,208,164,188,258,157,296,-89
211895,232,498,174,13,-52,200,412,285,-87,-68,280,-244,132,-171,379,219,177,32,-164,-7,123,195,386,80,18,221,176,219,293,174,297,-67
211896,237,468,191,21,-45,220,409,253,-82,-72,316,-222,120,-163,397,206,206,26,-155,-5,117,241,408,101,21,229,181,264,342,199,312,-28
211897,239,475,209,20,-54,224,404,299,-97,-72,304,-215,144,-154,390,246,219,39,-148,4,133,213,433,108,21,238,207,255,337,226,350,-4
211898,237,496,193,2,-52,194,412,303,-107,-101,263,-190,138,-164,370,297,223,52,-123,8,137,250,463,113,50,255,239,259,329,248,396,27
211899,230,482,192,-4,-76,161,407,293,-110,-111,232,-197,137,-160,344,322,246,70,-119,3,137,310,492,131,79,264,279,286,365,263,429,87
211900,258,509,257,21,-50,186,410,353,-94,-88,258,-204,185,-134,369,361,293,95,-84,52,185,336,491,179,110,308,355,298,385,304,496,133
211901,248,501,227,23,-54,165,400,356,-81,-114,254,-230,184,-148,364,372,277,109,-82,69,202,361,497,158,126,348,358,326,397,306,483,142
211902,245,497,231,50,-49,172,421,359,-71,-109,294,-209,197,-148,382,384,286,126,-72,73,226,392,518,186,155,349,377,377,409,300,470,122
211903,260,515,233,49,-38,167,434,371,-80,-105,297,-183,219,-145,365,406,283,124,-71,79,222,389,525,186,148,353,387,343,424,312,469,135
211904,295,563,237,43,-44,189,456,385,-87,-89,317,-151,215,-140,378,411,281,125,-81,67,212,398,496,157,129,330,371,263,380,277,450,141
211905,292,570,235,59,-38,186,494,394,-83,-75,347,-144,207,-158,396,423,271,121,-103,66,217,399,468,139,107,333,367,227,328,251,433,151
211906,313,548,254,67,-32,203,467,358,-93,-88,340,-146,190,-156,383,411,286,107,-125,32,197,388,465,105,72,327,380,238,323,232,439,137
211907,287,524,247,56,-38,200,471,354,-100,-85,337,-174,168,-171,386,391,258,75,-152,-6,170,370,457,80,42,287,366,241,317,212,448,117
211908,299,573,264,67,-43,200,503,387,-89,-70,341,-166,157,-187,370,400,253,68,-162,-22,171,383,457,68,19,254,340,246,308,235,440,131
211909,321,573,292,79,-34,203,491,406,-84,-60,342,-170,175,-215,354,380,257,66,-174,-40,158,390,459,54,9,237,324,253,315,247,447,106
211910,312,555,302,90,-8,196,483,430,-91,-55,327,-186,174,-225,336,373,273,52,-174,-46,151,346,429,62,-8,220,287,246,305,209,402,48
211911,313,553,291,89,-9,204,479,438,-62,-80,329,-158,166,-227,340,389,272,72,-188,-54,132,319,444,61,0,203,267,248,291,201,371,45
211912,295,533,282,88,-12,189,471,426,-42,-82,348,-174,197,-198,328,389,285,81,-154,-34,131,325,470,59,26,211,266,284,298,206,357,39
211913,278,518,272,104,-23,167,457,405,-45,-99,339,-187,202,-195,338,391,233,79,-135,-39,116,341,455,55,20,193,234,205,260,183,328,-1
211914,277,494,255,102,-32,152,451,398,-65,-126,313,-193,196,-199,339,367,206,75,-137,-53,103,308,413,33,0,171,182,130,178,122,293,-34
211915,299,515,239,110,-37,156,455,418,-43,-126,323,-175,221,-174,330,392,244,101,-108,-47,102,305,464,58,22,178,184,162,215,134,293,-24
211916,318,543,270,111,-27,160,467,443,-21,-120,325,-145,244,-171,334,398,321,143,-82,-42,119,327,550,100,42,212,209,112,237,159,287,-20
211917,315,537,282,107,-24,122,471,427,-24,-116,338,-169,225,-172,369,402,245,108,-90,-46,147,362,467,82,41,205,232,137,264,156,305,-18
211918,290,524,253,74,-29,174,472,378,-57,-119,357,-222,179,-176,370,378,184,57,-122,-35,141,331,385,55,24,192,198,176,245,142,256,-49
211919,300,539,240,74,-15,207,490,364,-77,-91,367,-240,151,-160,387,390,167,26,-144,-25,150,306,359,27,25,182,190,213,261,139,240,-86
211920,299,548,231,69,-17,230,481,337,-96,-86,378,-248,137,-173,392,407,169,16,-141,0,178,323,347,34,36,215,201,250,282,171,275,-64
211921,268,568,216,50,-25,222,485,332,-76,-106,389,-257,133,-173,391,336,158,2,-150,-8,174,293,326,21,44,221,176,181,234,146,257,-72
211922,270,579,205,62,-14,235,493,332,-69,-81,424,-261,139,-153,409,353,187,13,-134,19,190,265,353,40,65,239,186,216,266,184,299,-78
211923,284,618,240,71,-13,240,506,341,-77,-73,396,-243,145,-152,422,365,203,35,-114,48,178,262,411,74,85,262,192,282,331,242,350,-60
211924,285,602,227,59,-30,217,493,359,-100,-77,364,-234,153,-136,416,331,196,44,-117,46,166,236,443,85,98,253,171,260,344,252,321,-85
211925,245,570,182,48,-31,210,472,367,-91,-85,334,-258,155,-134,411,339,216,53,-86,43,178,211,424,103,107,263,164,225,349,248,320,-107
211926,230,548,176,37,-33,212,458,357,-90,-82,314,-281,153,-139,415,359,203,48,-101,29,172,249,393,101,90,273,175,166,317,227,332,-78
211927,225,537,163,33,-34,206,416,340,-93,-69,292,-263,162,-137,422,356,205,55,-119,27,183,254,425,87,81,281,188,225,316,256,380,-84
211928,218,504,164,-1,-65,182,383,320,-114,-74,265,-265,136,-159,382,339,188,10,-157,13,162,203,387,58,59,262,180,189,281,228,359,-92
211929,233,523,166,15,-62,187,362,314,-116,-86,266,-272,126,-161,393,327,150,29,-162,7,165,233,360,60,52,257,193,187,284,254,382,-54
211930,228,555,171,25,-35,184,342,312,-106,-65,285,-271,137,-158,398,321,129,6,-182,0,158,222,384,60,33,252,196,198,291,276,389,-70
211931,260,592,160,39,-16,200,361,292,-88,-81,294,-255,151,-180,389,321,153,-1,-191,-8,154,227,366,20,36,256,191,171,252,229,376,-75
211932,308,615,181,76,-5,214,401,311,-79,-67,313,-258,162,-198,415,368,172,21,-176,-17,191,259,356,23,46,281,228,144,241,221,372,-42
211933,315,634,183,87,-2,229,457,304,-85,-69,337,-260,160,-207,420,411,199,41,-164,20,210,289,391,41,46,320,282,231,270,250,427,38
211934,310,595,203,68,7,231,450,318,-79,-67,329,-220,164,-215,426,406,200,43,-155,14,221,295,388,50,32,324,324,237,258,250,403,72
211935,282,565,185,63,0,212,432,291,-101,-64,340,-227,148,-208,432,395,244,56,-161,28,227,269,445,51,35,309,319,172,252,224,412,48
211936,275,543,177,54,-23,191,432,285,-92,-65,336,-265,125,-189,432,373,238,42,-146,24,223,304,465,18,25,297,282,71,213,195,395,41
211937,239,540,154,37,-41,198,430,283,-105,-47,351,-315,116,-167,436,373,143,-26,-164,4,220,301,338,-27,11,289,298,27,163,167,328,37
211938,186,520,148,10,-60,188,436,252,-108,-61,365,-339,102,-161,444,386,118,-39,-185,3,214,277,288,-26,-14,257,301,58,138,138,313,29
211939,185,510,129,-5,-64,165,408,273,-94,-75,345,-313,125,-160,440,383,119,-9,-183,11,196,310,267,-38,-31,234,283,99,151,124,304,38
211940,204,494,98,-61,-65,168,417,248,-103,-81,349,-341,122,-150,417,381,87,-33,-194,-11,170,317,246,-60,-51,230,266,90,139,98,281,20
211941,239,509,109,-13,-51,155,405,288,-89,-68,329,-318,150,-142,411,387,156,-13,-167,0,195,313,281,-34,-23,221,266,103,142,81,269,8
211942,254,530,123,47,-37,107,391,315,-79,-91,291,-251,169,-137,393,364,207,38,-130,0,195,320,335,8,-7,210,277,146,177,103,285,-9
211943,245,532,140,53,-27,182,410,334,-56,-95,330,-216,203,-133,417,387,206,62,-96,16,191,317,377,30,20,233,277,166,227,145,313,25
211944,239,502,143,19,-45,181,394,322,-58,-103,333,-216,230,-134,403,400,199,46,-91,18,172,307,385,47,31,244,246,155,242,168,343,27
211945,241,509,158,28,-55,198,402,316,-54,-89,324,-219,234,-117,419,405,182,74,-87,36,196,325,423,61,44,259,272,193,251,193,323,2
211946,211,494,134,16,-57,194,405,321,-80,-93,322,-216,231,-127,419,403,218,90,-84,33,196,309,411,92,47,260,251,215,261,211,317,5
211947,220,527,131,2,-45,175,399,331,-60,-83,338,-167,244,-121,417,387,249,116,-72,31,214,316,444,113,54,265,243,241,288,219,331,-1
211948,245,529,148,10,-40,174,415,337,-57,-88,341,-180,250,-120,411,384,233,104,-81,20,207,321,427,78,67,268,254,203,262,191,315,-27
211949,205,517,131,0,-57,182,411,313,-74,-117,305,-205,233,-127,390,361,211,92,-90,20,195,287,406,73,52,273,242,165,250,169,310,-31
211950,191,514,123,-17,-59,168,390,306,-74,-108,297,-213,210,-126,379,374,180,82,-76,25,183,284,393,73,59,278,222,167,257,178,311,-41
