,Fp1,Fp2,F7,F3,Fz,F4,F8,FC5,FC1,FC2,FC6,T7,C3,Cz,C4,T8,TP9,CP5,CP1,CP2,CP6,TP10,P7,P3,Pz,P4,P8,PO9,O1,Oz,O2,PO10
60347,-437,127,-42,85,-11,330,-964,352,-12,-20,320,-37,180,-32,139,137,-62,-126,-69,-201,-12,159,49,-61,35,107,416,-28,20,-54,-114,85
60348,-443,113,-97,61,-14,316,-975,260,-21,-37,268,-170,172,-39,114,-60,-37,-110,-64,-228,-54,132,41,-60,15,82,335,0,19,-65,-164,16
60349,-407,120,0,0,-12,337,-935,138,-55,-46,234,-45,147,-48,141,-634,-22,-140,-84,-251,37,-125,-12,-84,-9,26,174,-8,-25,-136,-322,-476
60350,-465,109,-61,39,-3,346,-1003,159,-40,-11,356,20,182,-41,251,-949,-119,-163,-72,-173,368,-110,-53,-72,34,162,383,-30,-2,-87,-239,-311
60351,-567,59,-45,69,-9,341,-1058,337,-3,14,448,-61,266,-38,262,515,-161,-79,-56,-189,240,24,20,-21,50,190,453,-130,32,-46,-172,-181
60352,-445,147,51,80,3,362,-860,187,-6,5,464,-93,240,-44,105,739,-49,-29,-29,-266,-463,167,99,17,31,15,82,-27,100,-1,-146,-111
60353,-321,201,37,72,4,325,-825,227,-15,-28,144,191,240,-31,83,-530,157,-7,-19,-182,65,127,102,29,83,149,291,197,131,74,-42,1
60354,-290,187,13,51,2,318,-993,387,-33,-12,210,65,181,-31,196,-129,59,-87,-29,-129,237,161,118,41,127,230,466,121,175,120,23,101
60355,-314,191,-30,72,-15,332,-847,418,-29,-7,388,40,222,-39,183,194,21,-28,-16,-201,-308,215,97,39,102,94,228,130,183,119,-6,76
60356,-336,170,37,78,-14,337,-845,286,-16,-21,203,17,246,-47,202,190,45,-13,0,-168,-25,148,95,48,130,167,334,208,234,165,57,97
60357,-296,192,99,94,1,353,-832,243,-39,-26,349,20,173,-62,160,448,65,-130,-38,-190,-158,165,75,21,98,137,296,283,276,165,19,108
60358,-328,174,71,84,11,354,-850,262,-39,-19,386,9,198,-59,141,391,144,-57,-35,-208,-205,133,172,42,85,109,260,344,293,143,-54,28
60359,-305,230,88,87,28,384,-632,260,-25,-25,408,-126,211,-58,74,162,248,-20,-47,-218,-124,154,186,39,68,94,271,234,166,23,-152,-78
60360,-319,182,29,80,10,362,-881,269,-37,-13,417,52,205,-59,196,165,11,-55,-36,-164,66,128,78,16,78,192,360,8,81,33,-74,23
60361,-321,171,21,107,4,329,-992,387,-20,-38,293,156,239,-32,179,534,-51,-40,-17,-161,0,161,31,8,96,210,384,-24,112,104,34,196
60362,-337,194,89,128,1,365,-835,369,-9,-20,348,94,261,-29,156,-90,93,-44,-23,-176,-158,176,73,14,106,159,309,27,110,99,67,264
60363,-404,156,18,79,0,410,-846,166,-34,0,556,30,217,-22,292,-262,42,-85,-31,-136,81,188,94,0,117,213,375,36,110,70,33,265
60364,-371,150,55,111,-5,335,-902,328,-47,-50,261,38,229,-68,179,45,11,-103,-56,-200,23,308,73,-37,50,158,346,14,60,-48,-136,1
60365,-298,193,104,110,-25,298,-959,1,-29,-56,267,-153,248,-75,72,202,11,-100,-67,-225,-158,133,94,-36,27,109,330,-8,42,-18,-78,-52
60366,-346,169,14,79,2,348,-992,-188,-5,-3,493,-142,308,-50,252,74,-30,-110,-55,-218,-130,20,68,-38,41,112,322,-45,38,0,-60,122
60367,-363,134,-38,83,-7,338,-1056,432,-49,0,161,200,199,-70,301,4,-121,-90,-95,-197,-33,111,44,-64,31,121,335,-45,36,-22,-115,335
60368,-242,238,183,130,30,354,-751,619,-23,-54,196,313,90,-68,-3,62,24,-91,-90,-253,-86,91,95,-50,14,75,266,77,68,-33,-185,8
60369,-287,187,94,92,45,377,-803,255,-28,-10,356,84,138,-80,94,125,58,-157,-100,-239,-43,61,37,-78,10,87,237,58,49,-50,-190,-162
60370,-323,150,34,56,8,370,-905,315,-75,-5,435,1,133,-93,113,397,24,-168,-121,-242,-70,138,-11,-84,-4,99,382,5,44,18,-50,233
60371,-408,172,33,46,1,367,-924,185,-76,-22,444,-222,136,-74,106,310,11,-120,-110,-220,-46,101,23,-80,3,134,451,33,51,18,-19,276
60372,-478,179,22,70,28,357,-866,153,-59,2,366,-349,150,-55,153,189,71,-2,-81,-218,-46,56,131,-31,29,113,388,103,88,12,-71,94
60373,-402,170,61,75,8,328,-936,263,-67,-1,434,-163,165,-74,166,32,19,9,-99,-256,-111,-14,99,-43,-24,23,177,95,54,-82,-284,-429
60374,-360,132,-21,19,-29,347,-1028,293,-79,16,728,25,136,-78,267,-18,-23,-136,-131,-240,15,1,13,-101,-51,47,157,48,21,-92,-274,-299
60375,-278,182,23,88,13,324,-955,379,-41,5,423,13,171,-43,182,-307,-6,-240,-108,-213,88,118,119,-84,8,124,308,103,74,18,-104,75
60376,-225,244,106,88,0,286,-834,278,-42,-45,-47,97,223,-23,53,-248,97,-19,-28,-189,107,74,204,16,62,185,408,128,162,101,-12,299
60377,-280,215,26,25,0,335,-830,79,-86,-29,231,124,156,-57,126,-278,136,-169,-93,-216,-56,111,4,-34,31,147,393,-19,131,59,5,352
60378,-347,152,0,43,-19,348,-822,146,-68,-20,460,97,198,-53,153,171,126,-138,-99,-239,-23,123,66,-73,-17,105,328,140,59,-7,-133,-17
60379,-383,124,-52,28,-29,361,-782,211,-42,5,658,-85,232,-44,160,768,76,-58,-68,-236,-179,93,84,-66,-7,65,237,170,52,-38,-185,-186
60380,-338,157,14,49,-20,262,-872,254,-42,-43,19,-112,252,-27,61,301,95,-60,-39,-196,-143,134,101,-14,51,138,338,160,127,89,-30,96
60381,-381,110,13,33,-55,231,-996,294,-68,-64,105,-39,149,-35,69,-96,82,-134,-65,-171,-4,105,128,-1,76,218,441,150,187,180,105,211
60382,-420,107,-48,42,-32,284,-929,288,-26,-27,290,-10,200,-6,129,-21,102,-38,-22,-162,-2,99,175,41,108,246,449,189,234,228,160,310
60383,-433,49,-88,55,-51,247,-1035,437,8,-26,200,36,286,-10,155,-293,117,73,10,-168,121,112,178,63,103,224,449,283,190,126,-7,26
60384,-421,37,-15,61,-49,245,-1135,481,4,-50,176,79,298,-31,128,106,111,18,-12,-205,185,123,124,25,69,189,479,258,92,-47,-203,-189
60385,-418,119,53,39,-14,345,-843,72,-20,0,440,18,163,-23,133,541,149,-134,-33,-228,-167,203,108,-9,64,108,261,244,99,-13,-172,-56
60386,-445,93,4,18,-38,293,-892,113,-39,-32,267,-27,183,-56,74,283,271,-57,-38,-271,-218,219,219,5,36,77,223,177,86,-29,-178,-28
60387,-492,88,-29,37,-32,265,-954,262,-26,-56,270,38,221,-55,96,222,91,-22,-38,-244,-64,134,219,-4,17,83,303,81,36,-86,-220,-86
60388,-561,46,-95,34,-52,266,-1021,263,-28,-35,344,-60,202,-44,127,-191,-187,-40,-40,-225,-9,135,134,-5,34,117,349,50,51,-55,-151,-36
60389,-644,-23,-55,33,-49,272,-982,362,-32,-5,332,10,213,-39,233,-1094,-73,-51,-52,-165,361,80,56,-18,66,225,471,-41,50,-12,-116,18
60390,-601,2,-126,-11,-52,279,-986,142,-55,2,262,113,150,-40,350,-277,46,-118,-64,-137,446,70,-16,-41,58,237,467,-145,-8,-44,-115,31
60391,-573,75,-71,24,-24,296,-1040,148,-54,-17,345,6,159,-69,190,754,-22,-134,-80,-253,-385,-36,-12,-46,-6,22,106,-232,-61,-135,-267,-157
60392,-531,102,2,82,-16,312,-915,251,-21,-44,346,21,208,-37,35,118,-18,-74,-49,-249,-214,99,33,-19,10,42,192,-135,-35,-167,-328,-192
60393,-477,88,-102,48,-30,303,-904,131,-29,-22,288,-24,223,-22,89,-215,-48,-54,-43,-209,16,86,35,-12,58,133,346,-29,0,-73,-213,-77
60394,-442,85,-162,33,-24,280,-965,-176,-19,-26,170,-134,301,-36,79,-5,-53,-39,-4,-217,-113,69,18,11,61,127,336,-6,45,1,-141,-5
60395,-467,-2,-260,-9,-67,287,-1090,-57,-69,-15,328,-242,279,-22,170,559,-165,-73,-23,-189,-40,110,-24,-1,56,152,429,-44,69,49,-73,65
60396,-456,35,-161,2,-42,336,-1030,542,-94,-21,510,-77,91,-51,88,412,-147,-134,-67,-211,-145,76,-20,-28,40,114,376,-73,42,3,-125,39
60397,-455,35,-117,-3,-37,342,-925,294,-117,-31,343,-35,64,-73,112,239,-77,-221,-106,-261,-153,65,-111,-82,0,65,273,-183,-58,-111,-221,3
60398,-425,62,-109,16,-15,275,-942,185,-81,-46,131,-66,152,-31,38,85,-56,-150,-77,-257,-167,49,-10,-35,15,49,208,-232,-17,-112,-217,141
60399,-452,59,-157,28,-36,247,-1252,202,-55,-31,173,-116,130,-8,133,-426,-237,-130,-63,-216,-60,-92,-20,-29,35,97,265,-227,-7,-65,-146,164
60400,-492,42,-215,-5,-42,261,-1170,177,-81,-21,150,-208,103,-38,250,-640,-253,-130,-78,-203,116,-68,-89,-84,18,106,274,-131,-59,-105,-213,-48
60401,-485,28,-105,-3,-48,268,-1213,174,-105,-9,165,-326,113,-44,297,-35,-276,-119,-99,-204,102,24,-72,-81,11,75,230,-201,-60,-117,-198,-11
60402,-398,101,-150,38,-18,289,-991,143,-65,-58,134,-9,175,-52,-38,377,-178,-17,-62,-272,-247,80,41,-27,16,44,231,-117,-4,-60,-138,210
60403,-346,144,-217,62,4,316,-887,269,-44,-73,341,16,179,-42,-97,382,-140,-115,-59,-291,-377,34,71,-17,-3,9,191,-97,28,-72,-171,61
60404,-399,60,-138,45,-6,288,-1088,386,-78,-39,358,-185,164,-58,80,-17,-179,-146,-87,-249,-102,27,9,-47,5,49,217,-138,12,-90,-183,19
60405,-342,112,-117,100,21,283,-1087,239,-53,-56,266,-154,199,-66,39,-278,-64,-63,-70,-260,-145,71,13,-43,11,21,193,-62,11,-108,-253,-214
60406,-312,144,-27,100,36,315,-936,176,-42,-35,174,-167,215,-63,35,155,-17,-117,-80,-277,-213,98,25,-48,0,-21,123,-4,24,-112,-296,-555
60407,-354,134,8,58,22,302,-963,213,-62,-59,139,-58,193,-91,-19,266,-9,-155,-86,-320,-303,92,43,-39,-20,-28,112,-5,37,-74,-211,-390
60408,-390,106,-55,26,4,284,-998,122,-78,-75,119,-113,157,-99,-8,90,0,-161,-108,-326,-216,75,64,-48,-11,6,205,34,66,-9,-170,-125
60409,-312,159,48,67,47,339,-961,246,-69,-40,216,25,87,-85,4,-28,19,-207,-119,-321,-205,41,37,-73,-13,-6,218,72,48,-31,-211,-200
60410,-288,153,88,73,66,329,-1134,272,-59,-36,279,134,118,-77,39,34,55,-188,-133,-302,-185,16,11,-85,-16,-10,209,32,29,-67,-217,-246
60411,-339,154,-23,38,31,397,-1113,160,-75,6,655,-6,103,-97,178,227,42,-186,-141,-256,-44,-55,78,-93,-20,39,212,-50,22,-48,-160,-195
60412,-454,149,-3,42,28,416,-1066,147,-73,24,750,-62,99,-75,203,18,-51,-156,-136,-254,5,-83,80,-98,-1,79,291,-43,20,-37,-138,-113
60413,-468,132,59,87,42,294,-1122,229,-31,-29,51,-37,164,-53,73,-619,25,-69,-87,-246,28,-9,104,-26,21,116,408,80,87,15,-108,-17
60414,-407,104,46,100,45,259,-1101,330,-25,-31,-134,-21,169,-71,100,-732,196,-140,-102,-234,143,1,75,-57,26,131,444,117,82,-25,-159,-40
60415,-337,120,27,100,30,288,-1138,425,-40,-22,214,96,176,-85,169,198,-63,-122,-109,-241,96,52,10,-77,2,107,409,18,38,-30,-149,-62
60416,-210,196,152,95,51,327,-1001,227,-21,-34,199,-119,136,-72,-6,540,-90,-121,-129,-316,-414,119,21,-61,-41,-36,147,44,53,-17,-153,-41
60417,-239,158,126,130,56,315,-1065,367,0,-55,217,-29,193,-63,-26,351,66,-35,-90,-292,-293,118,121,-23,3,12,254,98,89,12,-112,-9
60418,-211,188,155,123,43,322,-1017,243,-27,-41,255,23,139,-93,45,135,64,-76,-128,-277,-145,71,113,-42,-4,48,274,117,111,31,-103,-15
60419,-162,202,215,124,52,334,-940,279,-38,-32,224,59,150,-93,55,188,44,-149,-111,-273,-112,207,40,-59,-2,81,336,94,93,43,-71,38
60420,-204,158,82,77,26,281,-998,209,-32,-46,89,-36,142,-66,84,-242,-24,-127,-95,-251,-70,214,96,-41,26,104,387,-44,94,65,-14,136
60421,-264,99,68,64,16,279,-1003,246,-50,-45,232,43,146,-89,172,-353,46,-118,-128,-246,7,-24,20,-94,-4,87,299,-113,-25,-59,-108,45
60422,-259,108,81,69,25,300,-1062,250,-40,-22,377,-15,155,-76,122,-53,-5,-141,-128,-284,-22,50,-52,-139,-31,67,308,48,-67,-106,-211,-72
60423,-232,185,173,120,50,323,-946,261,-4,-24,274,-24,203,-60,15,8,-64,-115,-104,-294,-183,29,-9,-108,-26,46,299,9,-26,-55,-157,33
60424,-233,176,81,101,42,292,-1128,-49,-5,-27,137,-139,282,-46,134,-351,-27,-110,-86,-246,-83,15,-3,-80,9,87,329,-1,13,-20,-95,123
60425,-304,101,-28,65,20,295,-1196,-54,-18,-16,164,-138,303,-72,267,-103,-98,-117,-90,-216,65,0,-26,-108,10,113,361,-55,-20,-43,-86,196
60426,-283,145,58,82,44,335,-1030,511,-71,1,306,-20,111,-80,182,453,-136,-150,-115,-217,-87,68,11,-105,3,90,354,-4,-13,-7,-71,292
60427,-263,172,167,86,41,336,-1030,438,-84,-33,360,-37,74,-65,-18,374,-161,-155,-125,-282,-204,110,51,-100,-6,42,340,-11,-49,-80,-163,49
60428,-308,163,41,75,33,323,-1018,297,-52,-38,289,4,177,-63,-19,79,-152,-116,-114,-297,-148,42,-13,-137,-40,7,242,-131,-157,-212,-349,-396
60429,-335,181,-53,25,10,317,-1067,150,-72,-26,354,-27,132,-75,50,-114,-136,-108,-127,-305,-96,-80,-65,-169,-67,-16,104,-212,-192,-241,-378,-368
60430,-364,125,-34,24,-1,306,-1080,192,-50,-37,308,-298,151,-99,42,-265,-277,-53,-116,-295,-54,-153,-26,-138,-50,1,84,-213,-186,-198,-302,-142
60431,-448,87,-109,23,-10,303,-928,190,-40,-41,189,-321,158,-103,9,-40,-214,-88,-91,-290,-217,-153,-129,-146,-47,30,189,-314,-159,-160,-176,45
60432,-582,75,-219,16,17,287,-1107,173,-23,-11,198,-247,194,-53,55,-271,-229,-203,-67,-259,-250,-42,-245,-160,-2,82,294,-204,-110,-63,-38,270
60433,-638,-1,-199,21,2,287,-1390,173,-21,9,445,-381,199,-60,174,180,-273,-261,-94,-270,-124,-50,-226,-190,-54,9,115,-150,-171,-208,-337,-101
60434,-514,9,-104,30,-23,261,-1098,86,-27,-24,111,-384,188,-62,5,111,-270,-56,-68,-301,-320,-106,18,-95,-49,-70,-51,-138,-122,-219,-401,-274
60435,-469,21,-152,9,-18,260,-1051,179,-45,-35,161,-47,141,-55,82,-733,-225,-136,-73,-259,-69,-222,-42,-106,-26,-2,27,-245,-167,-225,-349,-311
60436,-409,-37,-163,4,-25,244,-1276,111,-74,-12,48,29,149,-58,227,-968,-188,-304,-88,-240,217,-316,-220,-168,-47,26,92,-492,-264,-369,-523,-831
60437,-401,23,-130,7,-24,242,-1206,156,-56,-32,43,-49,187,-47,68,304,-176,-255,-76,-288,-271,-152,-207,-137,-38,-38,69,-296,-210,-312,-466,-517
60438,-409,73,-94,76,-4,253,-980,290,-9,-91,218,-79,250,-62,-195,387,-147,-136,-23,-347,-635,-73,-91,-105,-46,-132,-67,-125,-120,-196,-350,-371
60439,-458,10,-114,54,-26,207,-1147,242,-40,-96,112,-113,245,-64,-63,-247,-189,-113,-34,-282,-324,-160,-37,-68,-21,-61,34,-154,-73,-148,-280,-390
60440,-446,15,-162,49,-20,239,-1091,213,-26,-75,229,-77,238,-67,-21,-91,-192,-107,-33,-302,-309,-183,-70,-56,-36,-43,82,-108,-42,-124,-280,-303
60441,-466,-57,-164,44,-30,192,-1277,174,-16,-66,164,-39,243,-49,30,-47,-63,-77,-20,-280,-168,-179,-27,-36,-6,20,125,-16,-25,-128,-303,-356
60442,-442,-27,-152,19,-1,207,-1222,173,-9,-72,55,-45,245,-36,76,-353,58,-79,-9,-245,-143,-130,49,11,37,59,153,108,79,-18,-180,-239
60443,-496,-75,-119,44,1,240,-1055,348,4,-61,215,52,260,-66,123,-40,-113,-53,-20,-253,-215,-64,52,-18,6,6,71,-63,0,-85,-225,-234
60444,-440,-14,-91,30,-1,213,-1199,62,-3,-55,125,-10,165,-55,40,155,-313,-112,-40,-252,-230,99,-20,-14,41,46,182,-106,20,-19,-97,-26
60445,-413,75,-89,67,25,245,-1130,195,17,-69,108,3,237,-26,-57,205,-11,-54,-15,-271,-318,66,39,22,56,41,254,-122,90,75,36,232
60446,-413,35,-110,78,20,244,-1149,270,4,-21,185,-2,236,-42,110,-317,-42,-55,8,-230,-146,-65,8,24,61,100,279,-135,75,49,36,358
60447,-386,32,-137,67,12,210,-1196,348,8,-56,20,32,241,-61,69,-860,-68,-30,-33,-251,-130,-187,43,12,11,11,140,-115,-5,-123,-272,-144
60448,-365,32,-62,57,11,220,-1190,196,-10,-62,129,20,210,-91,9,-128,70,-32,-67,-330,-251,-80,101,-10,-42,-70,30,-114,-55,-269,-469,-661
60449,-329,64,15,58,14,275,-1111,95,-56,-47,275,-13,177,-81,-70,275,-2,-107,-77,-341,-426,-32,40,-11,-26,-64,86,-112,13,-106,-241,-317
60450,-375,39,-48,60,2,232,-1141,279,-20,-49,157,-98,223,-82,-12,-133,-87,-75,-63,-307,-331,-6,30,4,-11,-41,147,-68,25,-52,-179,-179
60451,-384,56,-33,50,-5,235,-1122,164,-24,-46,157,-113,173,-81,61,-630,-40,-91,-95,-288,-181,-102,51,-6,-16,12,243,-23,29,-87,-226,-235
60452,-428,-2,-17,42,1,266,-1251,180,-46,-22,258,-17,154,-72,156,-602,-34,-78,-80,-257,47,-202,40,-16,3,33,360,-25,31,-107,-240,-235
60453,-567,-7,-57,61,21,223,-1205,96,-5,-74,-3,-128,214,-68,-6,59,-34,-27,-52,-263,-37,-50,95,13,3,52,348,5,72,-32,-160,-112
60454,-511,21,-43,77,5,216,-1144,-169,-9,-76,105,-260,297,-94,-107,278,-110,-36,-57,-329,-521,-35,122,10,-33,-101,-65,-101,63,-72,-225,-183
60455,-478,-23,-219,34,-11,277,-1189,100,-45,-18,454,-38,241,-89,61,-180,-105,-36,-81,-281,-230,-117,186,-13,-16,-52,27,-197,44,-81,-179,-152
60456,-466,13,-145,18,-4,311,-1152,474,-63,17,742,-91,8,-78,201,-620,-109,-93,-104,-222,89,-206,107,-68,0,77,197,-29,48,1,-51,6
60457,-497,16,-71,18,-5,220,-1301,189,-63,-29,284,-328,99,-66,132,-131,-109,-72,-99,-229,-42,-94,15,-38,6,107,246,-26,78,55,14,184
60458,-414,72,-120,51,1,227,-1070,271,-40,-46,-233,-131,167,-49,5,403,-116,-72,-84,-301,-351,68,-36,-37,16,57,251,16,83,48,-5,245
60459,-418,20,-105,55,2,263,-1111,286,-31,2,158,12,141,-44,131,103,-106,-213,-121,-269,-130,-50,-60,-92,7,46,202,-10,18,-61,-151,-71
60460,-367,47,-89,86,5,192,-1110,332,-31,-55,7,105,151,-56,-21,-5,-65,-244,-103,-306,-237,21,-120,-115,-7,-2,163,-23,19,-64,-207,-250
60461,-438,29,-122,108,-11,204,-1133,247,-12,-74,87,-165,159,-63,8,-191,-138,-183,-92,-304,-171,-14,-103,-117,0,32,188,-16,19,-41,-168,-122
60462,-420,19,-104,37,4,250,-1153,5,-23,-45,103,-407,158,-36,125,-233,-169,-185,-86,-227,-27,-36,-78,-86,25,76,237,36,57,4,-129,-17
60463,-418,20,-107,42,-2,226,-1152,102,4,-47,173,-463,202,-39,102,306,-275,-104,-76,-227,-110,18,-38,-84,19,48,228,25,34,-38,-145,3
60464,-444,4,-122,33,-19,170,-1263,184,8,-84,210,-268,217,-40,12,178,-203,-38,-52,-273,-213,1,21,-66,18,51,206,43,34,-61,-165,4
60465,-413,40,-134,24,-5,244,-1162,182,-39,-48,337,-46,90,-52,92,-36,-164,-225,-109,-274,-153,9,-82,-147,-7,38,180,-16,-27,-107,-220,-135
60466,-388,60,-43,76,0,254,-1056,222,-13,-50,83,67,135,-45,68,-127,-103,-316,-97,-278,-135,2,-166,-163,4,36,208,-124,-74,-120,-217,-123
60467,-432,25,-113,38,-15,223,-1137,172,-15,-70,149,25,157,-66,22,-159,-117,-283,-108,-271,-130,47,-224,-191,0,47,265,-303,-134,-140,-163,106
60468,-446,31,-116,22,-10,255,-1086,161,-38,-61,162,-145,139,-56,72,-103,-186,-265,-93,-242,-122,-17,-207,-189,9,49,258,-287,-132,-109,-149,147
60469,-420,74,-38,49,5,304,-973,149,-37,-45,175,-167,152,-36,82,-118,-162,-255,-89,-228,-144,-117,-154,-154,16,39,207,-138,-85,-87,-181,-135
60470,-451,68,-129,23,6,309,-1044,125,-34,-25,161,-140,164,-35,134,-39,-139,-207,-56,-176,-63,-41,-99,-99,43,108,257,-73,-36,-46,-132,-176
60471,-667,24,-133,35,-18,290,-1061,162,-43,6,153,-132,180,-7,282,-889,-158,-206,-41,-133,128,23,-47,-75,74,184,335,-134,-11,-16,-118,8
60472,-691,14,-150,16,-22,284,-1206,194,-68,12,181,-108,195,-13,395,-957,-176,-152,-45,-121,223,-74,-12,-66,72,161,274,-314,-48,-140,-271,-232
60473,-535,13,-279,-18,-37,295,-1257,111,-80,16,184,-229,177,-32,342,458,-95,-148,-53,-167,-25,-79,-41,-113,34,82,122,-117,-92,-148,-251,-250
60474,-425,81,-181,58,-2,326,-938,222,-24,-28,302,-248,229,-4,-36,696,79,-116,-10,-235,-344,186,20,-56,49,42,169,26,8,-41,-136,-62
60475,-392,66,-130,7,-18,297,-1035,105,-46,-11,395,-163,167,1,117,0,-348,-198,-36,-179,-125,-41,-105,-72,84,107,219,-120,25,18,-43,96
60476,-485,56,-165,-27,-43,309,-948,134,-55,10,313,-223,160,-15,221,-125,-339,-169,-27,-168,-82,-176,-110,-87,64,111,180,-233,-74,-58,-128,23
60477,-546,52,-173,-42,-54,265,-1009,60,-92,-13,152,-270,141,-34,166,23,-297,-192,-42,-193,-17,-3,-67,-99,44,109,228,-266,-131,-181,-227,-100
60478,-557,23,-217,-22,-38,286,-1072,86,-83,-18,253,-264,148,-55,126,143,-289,-181,-64,-226,-86,-12,-47,-94,16,43,147,-180,-131,-272,-409,-387
60479,-491,70,-141,23,-15,314,-974,310,-45,-22,345,-144,223,-45,78,160,-179,-99,-21,-241,-176,-23,54,-34,46,50,180,-111,-40,-152,-290,-270
60480,-419,116,-166,4,-9,329,-1059,107,-59,-3,371,-18,212,-37,153,-4,-93,-47,-20,-199,-12,-20,141,-10,58,109,272,-86,-8,-132,-248,-338
60481,-435,100,-167,1,-8,318,-1052,141,-45,1,309,150,222,-24,162,-616,-84,-53,0,-156,287,-15,76,11,89,187,390,-82,14,-116,-212,-301
60482,-465,34,-115,58,-2,323,-1030,257,15,16,346,137,347,-6,155,-167,-208,15,22,-147,238,20,22,31,90,185,363,-113,17,-114,-175,-206
60483,-431,48,-86,28,0,357,-973,-256,4,1,437,-168,353,-30,106,451,-210,-2,15,-225,-333,-29,-4,5,49,48,78,-137,-56,-162,-234,-224
60484,-385,63,-33,24,3,316,-865,44,-23,-20,151,-252,235,-59,87,-375,-95,-45,-9,-201,-36,-49,-60,-8,53,116,145,-133,-33,-104,-169,-60
60485,-395,38,-51,24,8,319,-882,471,-49,-10,220,-255,66,-43,142,-375,-86,-84,-51,-156,113,-38,-31,6,87,206,424,-101,37,0,-4,216
60486,-437,-21,-83,27,0,287,-1103,262,-26,-21,300,-170,172,-22,173,317,-105,1,7,-132,138,67,15,62,139,268,571,-51,110,71,94,324
60487,-424,30,-158,63,-8,274,-1051,311,-40,-31,225,14,189,-52,81,372,-104,-20,-15,-214,-217,48,-18,33,78,121,200,-42,95,20,-7,81
60488,-432,22,-117,50,-6,284,-1037,317,-45,-27,220,32,180,-48,79,-161,-94,-181,-57,-221,-224,33,-47,-28,40,68,133,-64,28,-49,-158,-78
60489,-445,24,-35,-4,-16,283,-1073,84,-42,-2,307,-185,172,-36,192,-328,-190,-116,-30,-167,75,63,-12,-3,77,183,371,-98,40,12,-31,195
60490,-436,23,-108,-43,-22,285,-1037,32,-65,-19,306,-267,177,-42,151,444,-233,-60,-28,-176,-39,139,5,5,93,180,393,-105,78,51,70,469
60491,-406,33,-92,-31,-44,269,-1010,155,-73,-39,189,-20,146,-59,71,351,-144,-101,-44,-214,-224,106,7,-12,79,136,302,-64,82,57,28,154
60492,-402,25,1,13,-19,300,-993,223,-69,-3,196,44,127,-4,198,-150,-108,-162,-22,-136,-15,78,-15,7,129,222,411,0,158,180,160,281
60493,-459,-31,30,23,-22,279,-1103,240,-35,-2,219,-22,206,5,266,-409,-116,-75,0,-118,80,50,42,30,143,242,389,70,179,175,96,208
60494,-522,-2,57,48,-23,281,-1099,255,-37,-15,196,-31,226,-30,155,195,-77,-44,-6,-177,-33,153,57,4,73,94,237,148,102,-46,-271,-669
60495,-501,13,-15,65,-6,270,-1096,270,-38,-55,190,-21,264,-35,6,291,-32,27,35,-215,-281,122,170,75,79,41,181,158,185,6,-192,-380
60496,-380,-11,16,66,-19,270,-1031,254,-25,-52,194,-187,261,-32,83,129,-80,20,17,-232,-204,-25,134,27,58,44,215,205,109,-1,-151,-165
