,Fp1,Fp2,F7,F3,Fz,F4,F8,FC5,FC1,FC2,FC6,T7,C3,Cz,C4,T8,TP9,CP5,CP1,CP2,CP6,TP10,P7,P3,Pz,P4,P8,PO9,O1,Oz,O2,PO10
62344,122,263,-76,43,-34,295,224,88,-98,104,112,-182,254,-10,91,123,-228,-78,-72,41,76,167,71,147,90,260,247,-99,124,58,22,-126
62345,177,293,3,103,-33,311,201,142,-75,125,76,-96,292,0,104,152,-167,-30,-44,60,75,159,107,181,103,268,353,-87,148,91,64,-53
62346,279,392,111,163,-24,341,236,234,-17,164,114,12,348,59,166,222,-45,31,5,130,130,228,175,226,162,320,400,-16,189,128,95,-64
62347,361,479,161,213,-6,351,278,289,24,201,129,73,391,116,190,304,6,78,25,155,175,262,235,271,198,351,392,101,280,202,165,-17
62348,397,505,193,241,-8,365,281,329,45,204,136,85,401,120,202,272,13,107,37,164,170,179,281,312,212,375,347,240,347,265,231,104
62349,415,534,228,213,-30,350,291,342,46,194,162,118,403,119,194,240,16,69,25,164,154,156,221,296,215,350,347,113,324,255,239,85
62350,393,492,248,183,-15,288,305,325,5,159,135,110,359,84,152,231,-15,38,-5,128,118,303,142,242,165,305,306,-42,239,182,185,24
62351,387,479,248,144,-25,229,285,291,-39,101,86,92,329,37,112,198,-47,12,-29,70,69,316,119,209,123,270,247,-33,222,163,164,0
62352,341,420,224,110,-26,180,234,285,-67,59,25,83,311,0,44,126,-36,-15,-78,36,7,167,132,188,99,231,230,-51,220,160,140,-10
62353,314,396,202,83,-32,180,213,268,-74,52,32,90,311,-1,30,55,-5,9,-72,45,5,93,199,246,135,239,259,34,291,226,199,55
62354,368,414,254,92,-6,214,256,296,-54,93,85,143,328,42,92,108,-3,38,-12,67,54,191,240,289,177,277,285,91,372,288,261,77
62355,384,432,277,110,-24,214,289,315,-12,95,82,177,364,68,134,156,22,88,21,99,75,243,227,311,205,282,327,125,383,276,226,7
62356,407,485,294,105,-23,222,346,347,24,126,145,222,416,120,184,205,73,120,34,151,139,297,215,327,234,341,360,130,362,286,255,92
62357,417,512,315,110,-13,259,402,370,52,191,183,279,441,163,216,267,158,145,45,194,183,360,264,367,298,378,395,134,378,339,316,184
62358,390,531,295,81,-28,271,457,383,44,202,196,276,458,169,224,299,195,158,71,226,194,385,309,386,301,399,438,125,395,352,325,200
62359,352,562,306,56,-12,275,458,373,47,196,210,258,452,183,223,314,208,177,76,206,215,354,308,397,308,426,452,75,388,363,333,211
62360,321,553,276,48,-23,254,406,360,35,190,211,242,422,165,212,298,175,177,69,207,217,384,322,404,323,435,469,151,436,390,359,246
62361,273,497,221,-22,-18,218,378,310,-29,144,191,199,390,119,179,275,135,130,34,198,197,377,297,398,304,401,476,135,393,370,352,204
62362,273,448,219,-36,-13,211,366,311,-65,129,175,198,373,110,185,291,70,119,26,170,196,357,278,388,285,404,492,96,375,344,329,118
62363,239,410,213,-39,-16,201,341,314,-81,109,155,171,349,96,175,283,49,114,-7,159,178,352,284,362,275,389,487,95,367,316,329,148
62364,218,418,230,-21,-32,209,360,325,-49,133,144,167,357,108,206,256,72,145,25,196,194,317,322,401,294,432,458,160,404,361,371,188
62365,224,418,242,2,-30,225,372,312,-19,147,154,171,386,138,203,260,82,188,44,219,216,309,338,423,319,471,438,140,411,395,397,228
62366,224,419,249,16,-31,267,390,292,4,207,148,179,401,161,217,270,77,193,71,228,213,364,346,434,328,496,475,166,411,384,382,207
62367,215,413,223,49,-26,282,323,340,26,211,137,190,413,181,226,284,87,192,94,236,232,349,360,473,349,490,491,240,452,397,389,195
62368,222,405,229,78,-35,326,312,357,38,216,176,189,433,200,237,345,71,201,108,245,254,360,387,469,342,490,494,238,445,360,325,122
62369,215,417,228,91,-28,322,320,349,42,243,213,182,422,199,248,403,72,186,103,251,269,355,376,478,322,505,533,208,454,376,372,135
62370,194,405,184,51,-8,280,320,286,23,213,167,121,400,168,249,418,103,159,84,225,268,341,329,464,314,482,534,169,416,325,317,81
62371,178,345,154,7,-29,275,248,219,-38,169,104,68,343,116,195,282,111,118,24,190,226,297,323,420,242,416,462,115,332,272,258,103
62372,149,325,136,-1,-24,246,217,192,-70,119,83,47,311,92,139,222,69,92,-26,159,189,348,323,371,213,400,403,57,288,241,238,136
62373,94,317,91,14,-22,242,201,173,-96,110,84,25,268,52,151,218,26,73,-52,135,201,410,332,365,190,398,404,122,328,243,234,124
62374,153,360,86,21,-16,282,250,177,-80,142,125,19,279,45,180,265,58,83,-33,145,232,436,359,377,197,410,467,149,364,265,213,61
62375,195,367,70,35,-21,320,258,162,-67,171,156,9,277,70,213,316,133,88,-48,158,259,433,389,361,228,426,501,164,368,266,258,122
62376,211,333,80,42,-34,362,276,148,-38,213,185,-2,291,110,240,373,182,107,-15,186,288,345,436,402,256,424,500,283,456,342,314,158
62377,200,307,62,53,-45,387,315,151,-17,242,245,-11,304,126,248,433,134,89,-21,197,303,344,392,415,238,436,508,237,455,359,277,178
62378,236,293,92,87,-47,392,307,164,-1,231,245,6,329,124,271,435,125,82,0,204,313,340,384,420,264,460,577,207,476,361,307,200
62379,313,349,113,106,-21,394,315,194,-2,236,232,36,347,124,275,362,134,111,24,211,327,502,397,433,290,466,586,186,484,368,359,298
62380,308,311,65,79,-10,401,326,180,-18,234,221,-10,323,109,270,435,64,66,0,189,304,451,349,401,252,419,491,116,416,292,285,157
62381,234,330,-9,24,-15,336,250,123,-67,194,194,-78,288,69,231,362,-11,44,-18,158,272,432,319,391,248,419,515,179,447,325,320,158
62382,158,269,-57,-23,-16,289,223,80,-114,151,96,-134,244,13,167,195,-87,17,-71,105,200,417,275,366,220,377,461,158,408,313,291,87
62383,138,250,-74,-36,-31,290,200,30,-122,125,109,-253,229,16,149,170,-135,-28,-81,113,182,267,246,347,219,386,434,133,396,312,282,46
62384,167,311,-67,-24,-5,300,207,29,-101,179,142,-236,253,41,194,210,-88,-3,-41,152,226,325,265,383,247,407,491,87,399,330,330,147
62385,175,332,-57,5,-22,304,200,84,-78,198,134,-185,269,68,197,212,-92,20,-24,155,211,344,248,409,266,415,484,60,367,301,330,162
62386,217,324,-39,46,-28,355,234,94,-19,210,153,-183,307,102,222,238,-113,44,34,193,247,332,268,438,309,451,533,224,439,323,357,212
62387,196,313,-19,81,-30,363,260,101,11,235,164,-137,358,145,235,257,-9,119,72,208,299,325,393,512,350,485,588,392,554,390,383,150
62388,208,369,37,99,-36,384,322,111,12,243,177,-114,379,153,237,252,-42,104,95,226,280,328,336,512,371,483,526,177,492,364,357,91
62389,247,409,24,136,-16,395,309,167,41,269,214,-125,398,167,243,303,-53,98,92,239,285,319,292,483,376,489,530,96,496,374,381,209
62390,217,343,-12,81,-43,354,217,100,-5,205,175,-184,330,117,200,299,-76,60,36,174,204,228,302,469,319,423,441,235,527,399,340,124
62391,133,272,-66,32,-61,319,168,35,-84,171,148,-259,270,44,178,274,-107,-20,-31,120,165,274,245,384,251,382,427,105,441,346,293,110
62392,118,239,-126,22,-10,313,122,-7,-115,161,151,-319,225,16,152,228,-150,-75,-71,100,160,286,222,352,208,351,446,117,374,313,264,101
62393,87,160,-182,-30,-24,310,115,-64,-145,129,95,-363,169,-31,107,114,-238,-138,-125,47,86,188,159,291,157,278,391,51,335,259,165,-28
62394,89,246,-184,-32,-50,321,220,-78,-134,141,93,-377,179,-17,115,168,-274,-148,-140,48,89,149,91,263,143,281,406,-100,257,194,143,-37
62395,141,335,-163,-4,-35,381,307,-65,-122,175,142,-348,199,17,152,217,-262,-145,-107,93,130,183,84,274,178,326,401,-174,204,162,152,-87
62396,171,397,-127,32,-21,396,344,-36,-80,207,187,-282,211,38,181,224,-155,-98,-88,121,149,129,148,296,203,370,366,-176,234,201,214,25
62397,195,406,-81,62,-35,404,355,0,-33,217,185,-244,257,65,191,241,-93,-48,-58,143,173,242,175,331,229,392,349,-151,242,241,222,104
62398,218,412,-63,80,-26,432,344,1,-32,223,179,-226,264,81,183,231,-90,-31,-54,145,151,342,186,334,221,389,370,-118,223,232,202,104
62399,218,437,-99,63,-15,413,334,3,-31,208,183,-210,243,60,183,185,-47,-25,-59,126,135,294,204,347,215,392,401,15,273,234,211,110
62400,193,391,-150,32,-17,370,242,-51,-49,194,106,-243,222,49,144,142,-108,-57,-88,106,117,243,173,319,207,370,378,17,267,237,178,17
62401,156,305,-191,-4,-28,322,163,-109,-103,143,33,-276,173,19,94,82,-179,-105,-137,66,69,196,135,282,157,318,301,30,261,225,148,-56
62402,113,283,-238,-57,-46,239,115,-146,-172,76,-46,-316,105,-33,42,32,-269,-161,-189,17,-13,134,59,210,92,251,222,-99,181,140,77,-129
62403,179,306,-215,-56,-29,224,75,-132,-184,56,-72,-299,89,-62,15,-8,-238,-180,-217,-7,-15,91,25,146,33,219,211,-253,96,106,49,-66
62404,189,334,-158,-44,-31,254,123,-96,-175,84,-45,-280,121,-37,38,35,-138,-134,-178,19,21,187,82,181,78,268,264,-100,198,166,121,3
62405,216,372,-111,0,-44,292,156,-38,-115,122,-17,-223,166,19,87,116,-69,-82,-123,77,77,279,164,254,144,324,341,-12,285,236,179,41
62406,236,353,-53,46,-47,338,197,39,-78,160,9,-147,237,60,133,206,-20,-24,-68,125,107,300,239,349,213,370,359,64,329,271,211,63
62407,229,316,-52,60,-33,354,199,89,-50,199,101,-80,284,103,177,306,17,11,-10,182,185,357,257,375,255,453,438,14,298,271,225,4
62408,232,290,-60,70,-22,360,137,113,-40,228,146,-33,304,139,216,323,22,50,19,224,226,408,288,396,296,491,509,-71,276,289,280,43
62409,219,262,-74,56,-48,311,91,133,-41,203,111,-49,305,130,184,322,26,82,40,223,217,368,290,413,304,489,527,0,361,350,344,179
62410,169,128,-58,42,-18,399,19,73,-55,202,134,-83,292,116,180,282,-9,54,13,194,206,345,247,396,278,445,480,79,340,320,259,37
62411,113,226,-87,0,-34,301,-57,39,-103,147,45,-74,255,63,138,146,-106,10,-44,121,146,288,190,334,225,377,384,46,275,219,172,-31
62412,90,306,-97,-13,-40,243,-13,37,-125,98,-1,-41,238,40,78,61,-146,13,-60,93,79,93,166,318,181,317,284,-26,219,150,165,16
62413,133,368,-68,0,-15,214,77,57,-104,89,9,-36,243,35,84,61,-123,25,-52,76,57,-47,166,308,177,293,228,-101,199,114,116,-9
62414,183,408,-78,-13,-25,209,154,43,-113,97,9,-98,218,6,76,104,-107,-4,-94,43,52,123,133,282,152,277,207,-142,146,58,28,-93
62415,220,415,-69,-3,-34,197,224,68,-94,98,-6,-97,202,13,73,164,-65,-16,-111,61,75,231,147,268,159,279,271,-76,169,77,61,-73
62416,251,411,-25,48,-32,220,267,107,-51,118,-40,-14,235,39,80,173,14,20,-73,84,113,311,194,300,184,320,332,-2,209,140,160,76
62417,284,463,41,77,-26,275,301,156,-33,173,35,39,281,80,128,229,80,82,-45,107,171,380,261,341,214,359,393,22,256,182,228,133
62418,303,483,63,59,-25,280,354,160,-42,174,87,36,269,82,152,284,100,86,-44,116,185,362,296,342,220,381,430,45,275,199,239,133
62419,350,506,87,82,-36,259,345,160,-36,166,63,67,286,79,152,271,135,93,-43,120,170,433,352,384,215,395,450,181,370,269,284,235
62420,308,431,92,60,-24,277,309,175,-31,153,73,122,295,84,143,268,107,108,-29,105,154,455,375,405,211,369,443,305,432,288,262,163
62421,256,353,62,5,-36,228,233,128,-79,96,39,94,277,29,100,245,15,105,-26,70,130,412,345,383,185,338,396,325,433,267,213,44
62422,254,403,50,-3,-32,163,237,131,-94,68,27,91,291,7,93,211,52,97,-47,55,117,411,326,369,193,319,411,249,388,256,256,122
62423,290,450,77,13,-16,206,305,140,-94,95,31,75,295,25,100,223,80,95,-47,64,114,395,326,367,185,292,419,171,360,232,233,119
62424,289,452,66,8,-17,220,302,161,-111,95,60,96,288,28,106,266,88,90,-41,78,140,450,320,357,154,317,433,126,318,244,258,176
62425,320,469,128,47,-18,253,292,214,-79,106,114,123,317,60,143,326,186,132,-15,118,202,518,334,396,217,371,484,132,359,302,299,249
62426,366,492,218,93,-21,295,365,278,-36,157,156,162,381,108,216,352,258,171,10,172,246,542,390,449,267,425,546,184,436,359,378,322
62427,450,555,269,130,-28,312,412,323,-3,205,205,220,400,137,263,385,276,181,51,208,305,572,433,442,284,483,637,227,424,388,421,409
62428,491,622,283,151,-38,331,469,338,10,200,245,241,399,143,252,414,326,192,61,212,315,537,455,454,295,492,659,229,422,386,403,338
62429,487,602,306,161,-40,347,489,376,23,208,234,296,427,155,250,471,342,222,100,225,313,500,497,498,307,483,621,302,496,397,386,307
62430,492,539,329,156,-14,318,466,394,15,185,187,282,430,136,206,426,288,217,77,216,298,554,507,509,321,471,591,319,506,406,398,337
62431,469,508,285,134,-23,273,402,352,-43,137,141,226,391,83,138,328,232,166,42,169,227,458,458,478,280,423,506,267,456,372,347,251
62432,417,509,246,104,-5,265,366,265,-68,108,124,172,353,61,110,278,185,151,6,135,163,301,418,425,248,381,449,197,409,312,276,174
62433,360,492,194,69,-13,245,321,229,-79,84,99,107,338,38,90,273,108,128,-12,113,142,271,354,396,234,347,432,142,393,302,276,198
62434,356,447,178,72,-7,274,334,279,-58,116,141,50,342,35,114,311,0,90,-4,105,133,286,255,382,234,348,391,88,364,281,266,149
62435,350,444,196,95,-20,296,321,303,-25,159,143,56,372,77,123,271,14,112,12,134,150,318,275,397,247,367,426,204,399,300,266,165
62436,364,490,202,98,-28,312,327,287,0,178,146,56,380,126,180,222,69,133,27,157,168,310,301,423,276,378,450,202,406,286,268,115
62437,369,470,200,126,-26,368,356,293,28,212,161,51,407,179,221,256,87,109,55,174,173,309,264,418,287,364,405,64,357,276,226,87
62438,381,456,220,144,-25,346,337,326,48,214,105,85,428,193,199,202,48,119,83,175,158,322,288,452,308,378,357,144,403,314,220,59
62439,381,470,210,147,-7,356,359,313,41,232,116,87,432,198,211,169,62,160,100,204,146,279,343,469,324,376,327,192,439,353,214,39
62440,340,469,200,108,-28,316,336,266,23,218,111,73,392,164,198,134,0,123,68,162,108,245,299,439,280,343,290,191,425,349,204,58
62441,291,373,167,40,-47,291,207,210,-34,158,102,33,352,123,153,115,-48,35,14,113,65,180,212,368,217,281,254,118,352,242,131,-56
62442,273,321,131,17,-29,276,174,173,-80,119,60,-6,298,62,115,27,-26,-42,-39,80,57,165,162,303,181,259,249,53,299,182,122,-38
62443,280,423,132,11,-25,279,234,152,-102,115,63,-52,256,28,112,24,-21,-72,-94,61,46,109,138,250,151,240,205,8,248,147,80,33
62444,352,503,150,15,-18,292,313,145,-108,112,85,-91,246,24,107,109,-14,-73,-118,60,86,186,185,251,139,265,264,100,265,189,118,27
62445,375,539,167,62,-46,280,374,162,-111,107,88,-75,235,9,110,171,-50,-76,-141,42,114,251,155,207,135,265,319,45,230,153,81,-79
62446,426,591,210,120,-47,342,440,202,-72,150,146,7,264,27,158,209,0,-47,-106,76,158,271,150,223,152,317,377,-2,232,180,117,-1
62447,479,628,290,159,-27,385,493,260,-23,177,144,86,289,55,189,281,70,-1,-72,128,192,403,208,257,174,366,382,71,286,229,214,111
62448,513,668,326,168,-38,417,531,286,-26,174,189,71,294,39,175,313,85,12,-66,112,208,461,234,268,175,375,364,131,292,247,241,188
62449,517,660,354,183,-25,410,546,296,-20,197,210,62,312,46,175,308,138,59,-53,122,212,355,330,323,214,401,421,292,365,323,298,195
62450,520,586,318,174,-28,413,492,297,-43,173,165,67,284,38,147,298,59,41,-87,107,190,296,273,289,178,377,433,117,329,287,300,197
62451,495,532,268,137,-27,380,388,206,-94,126,104,1,230,-7,87,274,-62,-32,-155,36,121,327,141,206,122,303,349,-74,208,198,244,116
62452,409,439,241,97,-15,346,336,173,-126,93,77,-33,209,-41,60,232,-91,-59,-163,-14,76,284,99,201,106,260,318,5,221,210,267,123
62453,367,390,192,84,-15,315,302,154,-142,92,46,-51,189,-66,13,109,-141,-83,-179,-40,12,194,69,175,62,222,277,0,195,141,142,-17
62454,385,475,170,74,-18,324,292,161,-139,102,43,-69,177,-62,24,70,-200,-88,-191,-48,-4,219,21,155,37,208,258,-146,66,42,55,-87
62455,351,506,162,55,-42,322,275,167,-125,98,39,-43,210,-10,68,87,-149,-73,-169,-10,43,239,56,173,79,220,292,-84,81,59,98,31
62456,393,540,180,99,-35,374,323,198,-79,149,74,-27,247,30,113,182,-119,-52,-118,35,90,220,93,214,99,253,293,-138,103,83,81,-45
62457,418,584,210,113,-21,403,364,184,-56,178,103,3,267,62,126,218,-74,-19,-110,60,106,299,125,240,119,283,335,-126,110,86,60,-37
62458,440,582,176,124,-36,386,362,208,-28,195,116,-10,303,102,144,175,-103,-11,-61,88,151,312,116,244,134,309,420,-148,99,75,76,31
62459,420,548,152,146,-51,346,287,248,-22,193,41,2,305,94,131,180,-129,0,-54,90,145,317,108,225,123,300,412,-121,86,56,67,7
62460,376,481,136,100,-24,346,214,211,-59,171,77,-14,266,79,133,119,-129,-38,-98,70,115,281,50,172,84,259,330,-68,70,12,21,-20
62461,334,433,88,63,-15,310,194,191,-87,137,93,-88,251,33,118,102,-176,-68,-135,57,91,232,30,146,48,232,291,-115,41,-21,8,-8
62462,300,432,57,48,-36,258,180,137,-107,92,64,-75,220,-12,81,120,-193,-106,-168,14,70,173,-27,112,-8,192,218,-279,-62,-83,-39,-79
62463,281,406,53,35,-19,245,209,139,-128,84,40,-67,218,-28,84,153,-178,-101,-183,6,62,182,-39,111,4,193,197,-319,-41,-69,-32,-127
62464,284,381,85,47,-31,273,251,186,-106,111,73,-59,246,-8,113,188,-154,-56,-152,32,95,236,7,155,46,216,241,-191,30,4,8,-62
62465,326,411,157,96,-17,307,287,206,-67,130,100,-13,299,26,174,234,-49,0,-88,80,161,292,125,220,126,293,314,-38,142,110,108,27
62466,380,422,214,134,-20,344,283,265,-19,185,82,48,341,74,197,233,50,64,-44,134,195,367,213,290,187,347,385,96,275,217,209,120
62467,411,444,240,152,-20,378,282,285,-9,208,118,80,373,98,188,226,68,97,-37,152,208,292,233,315,181,352,361,186,318,212,166,44
62468,361,367,221,138,-39,372,207,286,-4,205,127,71,352,96,205,271,24,64,-46,160,198,306,246,304,176,360,363,226,348,229,203,93
62469,377,408,214,150,-27,370,233,300,-17,194,128,82,319,100,198,264,-72,42,-57,122,172,312,152,262,147,334,398,-25,197,132,148,85
62470,384,474,209,123,-27,327,262,288,-21,179,101,74,307,65,171,159,-68,11,-101,91,153,230,102,208,109,291,395,-147,90,77,65,7
62471,355,435,173,102,-22,300,233,257,-64,145,56,38,286,34,104,94,-112,-21,-143,33,67,184,54,181,67,236,318,-249,68,35,40,-62
62472,280,396,145,55,-22,265,170,228,-101,91,-9,-17,244,-4,56,81,-177,-36,-145,-19,-2,184,56,165,41,194,222,-235,74,25,33,-79
62473,238,365,126,38,-30,216,145,200,-106,57,-38,-59,242,-2,53,115,-183,-82,-163,-22,-1,113,6,146,16,168,161,-255,22,-18,-31,-126
62474,272,378,117,35,-25,246,196,210,-81,89,21,-25,269,19,80,86,-154,-67,-138,-9,5,56,40,152,46,195,198,-131,67,11,-4,-128
62475,274,403,124,66,-40,287,237,249,-46,123,57,6,299,53,92,100,-109,-19,-116,25,33,-64,57,190,74,223,215,-100,82,43,13,-120
62476,334,418,159,86,-41,296,251,275,-46,148,65,30,321,64,128,144,-101,-19,-97,50,82,33,51,175,93,267,288,-154,76,45,4,-148
62477,340,445,209,111,-28,323,276,307,-4,189,123,108,341,98,174,215,-86,19,-40,101,141,157,95,219,140,321,352,-168,90,84,74,-16
62478,343,441,242,135,-37,333,245,363,25,220,161,172,394,150,220,292,-59,79,10,164,205,179,156,306,205,397,410,-90,172,181,199,176
62479,336,390,250,120,-44,332,239,329,21,215,151,168,382,166,234,333,-88,73,12,161,234,246,186,314,222,401,445,0,233,192,192,58
62480,283,356,211,78,-37,342,270,267,-6,202,161,102,357,135,244,353,-94,11,-26,152,220,333,136,262,195,389,394,-31,205,146,140,-66
62481,229,347,160,20,-37,301,263,223,-61,156,119,32,295,83,195,302,-117,-54,-48,117,168,289,88,228,164,345,341,-52,167,122,124,-86
62482,198,343,113,-25,-28,253,182,145,-92,127,77,-47,238,30,144,212,-172,-98,-93,78,144,277,68,207,111,325,337,17,216,174,174,14
62483,192,328,60,-48,-26,237,165,176,-94,108,64,-48,229,22,119,99,-215,-100,-119,43,96,227,49,193,103,280,282,-17,165,118,93,-150
62484,196,322,28,-37,-48,231,168,142,-110,116,43,-86,219,12,114,106,-190,-131,-152,9,52,169,-7,139,60,207,147,-202,-23,-33,-60,-263
62485,232,350,59,-23,-34,266,189,158,-79,138,82,-87,258,40,134,124,-125,-86,-132,37,61,214,15,156,62,203,62,-160,33,-39,-108,-232
62486,268,414,72,8,-28,288,251,194,-63,163,96,-44,282,67,144,117,-122,-63,-86,37,60,198,25,197,83,217,47,-220,7,-33,-71,-205
62487,315,430,125,48,-31,306,274,205,-25,200,66,-25,308,108,159,159,-127,-38,-55,70,91,261,59,220,105,235,100,-261,10,-29,-68,-139
62488,325,428,164,61,-32,346,273,217,-9,206,53,-35,334,131,163,155,-174,-53,-47,73,98,218,30,205,119,221,122,-279,-20,-50,-75,-173
62489,318,393,122,55,-34,330,252,208,-8,199,76,-82,312,120,138,118,-214,-104,-65,40,49,111,-45,195,83,167,51,-294,-48,-85,-129,-283
62490,239,283,48,10,-25,281,202,131,-25,165,71,-148,273,109,101,95,-259,-135,-100,14,9,121,-70,150,51,136,8,-301,-66,-106,-173,-264
62491,187,275,-24,-42,-28,220,145,63,-68,114,-27,-209,222,56,24,12,-330,-159,-138,-39,-55,45,-102,99,10,86,-45,-394,-125,-185,-232,-335
62492,161,285,-84,-66,-40,169,101,20,-114,81,-57,-268,188,25,-4,8,-385,-186,-169,-66,-72,25,-136,87,-9,66,-36,-403,-135,-184,-213,-315
62493,139,291,-105,-74,-23,161,128,8,-146,68,-46,-277,165,22,-13,65,-367,-200,-171,-64,-69,49,-144,88,1,87,16,-325,-85,-135,-141,-224
