,Fp1,Fp2,F7,F3,Fz,F4,F8,FC5,FC1,FC2,FC6,T7,C3,Cz,C4,T8,TP9,CP5,CP1,CP2,CP6,TP10,P7,P3,Pz,P4,P8,PO9,O1,Oz,O2,PO10
202081,-34,93,146,132,-165,344,-214,86,-10,74,86,80,244,-32,201,69,-9,-16,0,149,14,404,218,99,236,246,171,-265,-22,92,12,140
202082,-67,167,158,112,-151,263,-186,115,-8,75,110,91,260,-21,212,69,-5,3,4,169,25,408,214,109,244,253,210,-324,-6,103,63,241
202083,-29,233,167,164,-154,168,-168,71,-1,89,158,72,277,4,219,93,-1,15,36,181,55,428,209,110,268,284,218,-340,26,160,74,287
202084,28,176,203,173,-154,182,-223,193,-4,87,223,118,300,18,242,68,8,9,60,204,70,445,220,132,281,291,234,-319,17,157,89,321
202085,43,186,164,192,-178,-94,-239,176,6,71,98,117,314,42,240,128,67,21,71,216,91,512,260,160,302,307,253,-225,44,185,115,251
202086,37,220,56,168,-221,-125,-200,120,-5,50,105,69,294,11,229,155,26,9,47,197,61,514,252,167,304,303,231,-237,28,148,85,208
202087,76,222,74,144,-222,78,-161,180,8,60,77,87,324,15,249,195,46,47,85,228,69,531,296,205,342,332,243,-182,115,213,105,204
202088,96,256,132,111,-213,96,-104,197,9,58,51,115,352,30,234,174,4,76,98,222,55,452,289,219,358,338,203,-168,117,197,74,99
202089,67,203,159,113,-221,37,-110,150,-7,47,81,135,320,46,231,138,-6,63,97,231,69,428,289,214,362,329,235,-178,119,205,136,144
202090,55,198,183,71,-221,80,-76,87,-23,46,91,136,294,40,232,133,47,27,93,243,69,537,282,216,380,339,239,-177,138,233,154,156
202091,57,151,84,40,-202,162,-144,104,-8,65,79,108,318,51,278,169,54,67,121,276,117,577,304,248,432,407,288,-106,177,296,220,282
202092,37,61,110,77,-222,127,-278,162,-12,47,56,28,324,60,276,113,-34,45,117,287,107,449,250,220,430,418,282,-188,142,306,244,335
202093,3,39,96,96,-237,128,-294,196,-12,43,39,19,332,51,240,65,-48,47,117,251,45,394,226,221,401,390,225,-210,140,289,197,219
202094,7,58,-19,158,-198,173,-179,200,0,66,110,38,314,42,253,100,-19,3,107,277,87,438,246,230,419,419,269,-187,169,306,205,211
202095,-70,124,-114,126,-208,191,-145,267,-9,75,209,31,303,32,268,134,0,-2,101,296,128,466,284,246,423,445,289,-154,182,306,230,225
202096,-98,155,-73,100,-227,73,-231,324,-29,61,221,19,306,43,258,103,-3,5,107,275,105,456,278,240,423,425,258,-123,209,322,210,91
202097,-92,218,-40,110,-219,-48,-168,244,-4,58,232,69,298,30,247,87,-23,47,120,274,111,419,292,252,435,423,282,-90,260,336,240,117
202098,-66,214,24,87,-242,108,-167,32,-29,64,251,72,264,17,256,92,-86,27,91,263,118,436,279,226,413,453,307,-108,234,339,270,274
202099,27,144,102,91,-218,232,-249,-17,-40,74,184,126,290,32,279,131,22,57,104,289,124,465,290,261,438,476,357,-61,263,407,326,412
202100,105,126,153,106,-203,208,-314,17,-20,105,144,148,289,53,305,168,44,71,129,308,134,488,323,263,454,491,413,-77,269,438,373,465
202101,107,164,160,13,-216,202,-318,-36,-38,77,170,48,267,17,271,186,-118,-5,114,272,160,504,267,215,409,465,398,-242,197,357,311,434
202102,49,126,122,55,-201,184,-296,-38,-56,90,129,85,276,35,282,202,32,32,112,288,178,504,302,244,409,457,387,-123,241,385,318,342
202103,26,-6,109,66,-192,154,-333,11,-36,116,81,112,295,36,263,168,82,54,131,276,143,528,340,258,409,427,274,-41,248,367,195,58
202104,36,-20,120,89,-210,195,-277,57,-35,80,60,66,295,28,242,172,55,51,121,262,120,462,322,251,399,429,299,-49,262,380,230,134
202105,-24,40,134,107,-211,165,-277,155,-30,68,133,96,315,49,244,188,84,82,120,268,117,503,315,243,386,425,349,-129,208,355,280,244
202106,-119,110,97,63,-213,50,-178,138,-46,69,102,110,313,48,248,189,31,57,102,271,115,586,293,222,357,398,388,-152,210,362,266,345
202107,-114,186,111,104,-203,45,-185,96,-8,62,118,44,313,32,246,266,-88,38,99,253,103,529,262,218,343,379,392,-158,236,369,280,417
202108,-115,182,59,150,-221,7,-227,66,-25,35,99,69,295,12,236,124,15,7,95,237,111,480,275,207,322,370,377,-158,216,325,247,397
202109,-80,151,80,143,-224,-34,-174,128,-9,40,154,95,323,16,249,-52,68,10,90,232,115,471,282,205,314,363,379,-133,177,321,242,377
202110,-65,90,153,153,-222,6,-149,204,1,34,114,120,326,18,252,-38,42,66,96,240,120,511,299,206,325,378,424,-112,221,353,289,559
202111,-54,108,115,150,-227,63,-134,216,-14,26,35,117,316,3,252,77,2,91,104,241,121,490,335,232,327,370,412,-53,288,380,284,476
202112,34,191,81,123,-205,26,-153,200,6,51,127,128,338,19,259,135,76,98,103,226,95,406,387,247,336,350,296,81,347,409,217,93
202113,57,208,143,112,-198,78,-173,226,-9,57,254,134,326,7,254,174,69,73,98,236,121,482,339,224,337,367,357,68,339,378,241,240
202114,72,199,182,116,-185,235,-214,199,-44,75,223,121,282,-7,261,159,52,40,63,218,108,526,295,173,292,306,304,-56,148,177,67,147
202115,105,236,88,118,-200,69,-189,201,-38,67,104,103,294,-6,261,208,59,35,58,227,131,607,247,173,295,320,292,-269,77,172,71,144
202116,131,259,99,150,-182,-26,-169,295,-2,57,170,151,344,19,284,235,148,82,108,269,159,623,269,218,353,377,392,-226,177,333,267,403
202117,75,203,-26,193,-189,87,-109,355,0,55,119,162,337,40,276,240,116,70,121,280,165,613,323,234,391,417,441,-139,227,380,338,546
202118,57,68,1,177,-194,231,-77,342,-12,58,128,140,307,27,284,184,100,39,106,269,166,541,331,223,383,401,420,-74,224,321,248,533
202119,104,114,60,197,-167,265,-102,347,17,94,198,171,345,13,277,158,147,78,109,269,145,520,367,241,378,385,380,-4,250,317,225,428
202120,119,121,165,204,-178,304,-195,318,20,73,220,181,331,5,263,136,88,96,91,225,102,586,383,204,338,331,294,42,226,292,185,277
202121,63,202,185,147,-189,262,-249,161,0,63,200,189,309,-14,241,135,104,56,82,217,80,580,355,181,301,286,277,15,198,280,150,222
202122,61,233,202,121,-190,201,-253,-29,6,69,117,168,306,-19,235,144,162,43,79,217,108,494,368,164,292,304,379,49,151,226,96,131
202123,51,173,265,135,-165,240,-248,28,-4,82,67,179,292,5,239,160,196,50,59,197,53,474,352,156,285,245,140,-26,100,146,25,106
202124,-69,99,174,91,-174,228,-223,39,-41,60,115,84,267,-17,213,123,93,-4,28,170,3,530,266,111,259,209,121,-193,63,175,27,138
202125,-110,22,164,134,-175,175,-382,35,-27,49,170,140,279,-22,206,74,109,16,44,161,20,434,300,123,252,222,186,-120,96,192,40,166
202126,-51,-15,190,200,-181,181,-465,176,4,62,232,176,296,-3,234,88,159,35,56,172,26,437,329,143,289,248,212,-33,156,268,158,295
202127,-20,83,199,183,-170,187,-310,184,18,78,225,134,294,-8,248,126,130,33,64,176,58,502,320,147,282,266,256,-6,150,268,154,346
202128,-3,155,236,178,-161,138,-245,151,0,65,151,127,280,-28,217,93,123,53,60,156,52,422,295,142,255,225,202,-15,126,230,86,264
202129,87,186,210,150,-160,145,-223,207,-9,53,100,215,305,-23,207,74,144,77,59,146,24,309,297,139,238,198,138,-122,48,147,2,64
202130,143,173,240,152,-168,143,-174,222,-14,32,29,203,299,-19,190,63,83,60,55,145,9,416,286,108,233,194,143,-188,20,102,-31,57
202131,114,163,237,154,-167,112,-174,209,-17,29,61,121,313,-33,195,-19,109,63,40,162,35,492,290,122,248,212,152,-174,23,125,22,121
202132,76,181,200,168,-164,107,-161,240,11,45,112,152,334,-21,232,11,115,79,41,190,68,566,272,148,268,251,201,-183,49,154,72,188
202133,77,199,216,162,-153,118,-68,222,25,68,172,193,314,5,263,159,143,31,73,220,103,604,338,177,304,282,277,-118,94,234,144,341
202134,114,198,228,148,-165,149,-65,215,15,63,181,153,324,3,256,185,92,58,74,221,86,566,306,177,306,296,280,-144,113,249,108,278
202135,171,180,206,218,-167,208,-144,219,12,56,163,191,327,3,233,141,52,93,104,230,84,465,316,203,335,284,236,-115,133,234,88,163
202136,177,144,216,226,-174,208,-186,239,27,72,157,216,326,18,266,169,150,117,127,266,111,445,376,237,377,327,304,13,228,325,194,317
202137,154,113,208,167,-176,171,-159,206,28,64,122,180,318,28,280,168,108,110,122,271,118,401,348,223,378,360,307,31,230,321,193,305
202138,127,115,185,154,-168,162,-158,140,23,74,118,172,333,30,266,173,32,64,111,256,113,482,305,205,365,344,275,-120,154,237,146,246
202139,69,89,223,174,-181,174,-161,177,18,69,139,182,320,25,265,153,29,43,85,239,102,523,255,175,339,329,271,-260,11,147,84,233
202140,-2,69,96,182,-181,131,-180,204,-12,48,155,146,296,14,252,129,-48,4,69,224,85,437,234,144,322,312,255,-316,-25,104,56,215
202141,22,73,44,189,-169,174,-152,257,-6,55,162,97,301,12,247,92,-79,14,72,247,71,402,277,162,347,324,202,-277,47,159,85,234
202142,69,129,55,155,-150,254,-115,210,-2,66,176,83,305,15,249,63,117,25,68,253,67,415,248,172,335,322,206,-291,61,183,75,175
202143,90,183,135,106,-175,216,-156,133,-11,45,155,110,294,10,234,48,159,21,86,249,56,466,301,185,346,337,233,-156,135,244,142,191
202144,125,222,185,100,-154,224,-140,110,3,70,179,93,305,36,285,98,-28,43,111,290,119,547,311,241,402,414,299,-60,216,322,228,300
202145,86,216,188,89,-168,213,-137,125,-9,67,189,150,310,32,293,160,46,42,111,293,147,531,332,239,392,408,345,-97,208,321,254,332
202146,0,127,154,140,-192,196,-187,135,8,66,182,187,316,38,290,171,67,56,109,281,162,479,329,228,400,407,370,-153,207,323,253,435
202147,-1,96,143,151,-170,186,-200,150,10,93,183,117,334,44,299,165,-3,77,129,314,195,493,333,246,411,468,463,-139,221,386,371,656
202148,-101,85,136,132,-176,64,-238,154,-7,69,145,25,320,30,259,110,-54,46,118,282,132,462,277,218,391,442,438,-198,162,345,332,631
202149,-180,15,-2,102,-200,-90,-298,101,-25,42,72,-13,299,24,245,67,-47,13,89,249,108,432,265,193,384,426,400,-204,158,305,247,499
202150,-147,52,20,133,-187,9,-269,150,-6,57,79,-17,293,8,249,74,-9,17,74,232,99,416,283,201,352,383,327,-143,165,265,165,305
202151,-67,107,85,121,-182,119,-214,205,-11,60,115,46,284,15,260,101,13,22,86,246,94,438,295,203,354,358,339,-167,145,278,222,376
202152,49,174,142,108,-182,154,-194,204,-14,51,110,119,279,0,223,89,10,47,87,221,61,419,280,194,327,326,261,-203,111,226,145,246
202153,107,246,167,103,-183,218,-182,143,-11,43,148,173,284,-7,226,106,25,23,64,202,54,421,280,178,320,302,181,-185,78,165,17,-53
202154,96,199,144,86,-178,172,-197,108,-19,49,184,153,278,7,255,98,72,23,59,219,61,444,318,193,318,307,199,-133,107,199,62,-13
202155,76,99,176,108,-190,47,-174,99,-16,47,180,84,269,13,254,94,84,46,70,227,73,389,302,185,314,329,199,-106,144,235,78,58
202156,42,67,146,111,-201,113,-200,86,-38,59,168,83,281,29,267,143,-77,30,87,234,126,368,290,193,340,370,254,-90,160,271,142,195
202157,2,114,141,104,-192,102,-208,86,-20,52,138,121,293,33,256,123,-52,42,79,258,123,378,301,216,365,389,283,-64,191,306,195,242
202158,43,162,179,145,-186,172,-167,106,-8,63,149,140,295,18,250,128,96,36,66,237,87,447,278,161,321,351,238,-219,102,233,124,112
202159,24,174,186,162,-170,167,-162,134,-27,67,165,84,271,-1,247,132,102,32,61,205,80,409,262,143,292,304,207,-235,57,143,37,-6
202160,-16,207,176,164,-190,128,-142,205,-44,61,178,17,261,7,279,127,34,17,64,214,104,359,263,168,315,337,294,-171,123,199,119,233
202161,-68,102,105,63,-180,206,-211,118,-25,74,157,38,271,18,290,102,-20,41,93,265,116,383,277,196,357,402,353,-173,168,293,242,466
202162,-127,37,63,-20,-174,217,-251,6,-29,95,187,65,238,17,309,38,-19,26,83,282,162,372,287,219,377,437,382,-125,226,362,340,660
202163,-53,87,110,-64,-183,249,-256,64,-16,113,250,93,250,34,334,-5,9,15,106,295,199,474,328,230,379,441,383,-20,287,390,366,617
202164,-35,156,79,-45,-188,175,-266,52,-49,110,243,134,254,40,324,42,21,49,96,284,162,470,362,235,374,385,236,42,301,321,163,67
202165,-60,85,70,15,-196,197,-254,17,-58,100,192,116,235,31,293,119,0,48,79,263,138,444,313,210,367,335,201,-55,239,254,57,-70
202166,-42,7,80,27,-209,226,-310,53,-52,86,166,48,248,16,288,171,21,1,73,234,124,431,300,176,334,342,239,-227,94,186,63,85
202167,17,-15,89,114,-203,156,-423,155,-36,82,136,68,300,1,274,182,39,63,88,236,101,446,330,201,348,360,285,-131,146,227,124,211
202168,31,-110,-7,154,-197,154,-322,243,-6,72,139,127,305,18,264,152,72,43,99,243,133,454,353,225,368,378,295,-160,175,260,150,266
202169,-36,-140,-102,151,-206,123,-307,332,-5,69,155,148,309,24,271,108,102,52,100,273,135,442,393,246,387,410,319,-35,235,326,237,420
202170,-102,-48,28,211,-185,134,-269,434,26,77,167,163,355,38,294,119,119,117,141,298,147,430,458,317,433,447,375,239,386,426,291,454
202171,-61,45,80,178,-176,126,-158,327,13,66,133,168,342,37,278,107,94,142,153,283,131,423,482,340,444,425,319,401,502,487,259,194
202172,-13,47,206,159,-158,213,-193,230,26,90,146,186,334,45,273,138,74,99,120,275,138,512,384,273,400,415,318,-97,257,326,220,268
202173,-71,37,237,90,-188,195,-223,109,-32,70,140,155,281,20,267,172,53,20,63,227,141,529,301,180,349,401,355,-394,52,223,209,353
202174,-46,146,189,40,-182,147,-119,47,-37,64,162,132,265,11,274,159,63,61,91,236,120,420,404,225,371,352,263,49,203,234,107,74
202175,41,154,182,80,-179,160,-92,60,-44,80,209,111,262,0,260,110,34,55,88,236,107,416,382,218,367,335,272,4,183,223,88,160
202176,51,116,101,64,-190,81,-141,29,-69,62,170,106,261,2,266,124,-52,20,78,234,133,508,302,190,347,364,326,-294,133,266,212,407
202177,39,59,143,74,-184,53,-199,68,-75,52,129,126,264,20,255,130,-21,53,70,241,137,500,315,219,338,378,333,-229,172,284,227,390
202178,36,88,176,134,-203,178,-234,150,-52,69,216,159,289,35,260,114,90,82,90,232,98,435,336,198,348,330,288,-250,72,172,84,219
202179,16,60,165,130,-203,256,-240,176,-32,79,254,144,301,37,281,71,108,86,86,224,73,493,353,212,316,276,202,-181,83,103,-49,-33
202180,-36,50,140,99,-221,245,-305,146,-45,72,190,155,300,14,278,106,134,79,77,218,90,606,330,224,321,304,211,-172,148,190,42,-19
202181,-3,75,142,92,-199,117,-289,173,-40,88,114,139,313,33,285,168,93,78,107,264,134,612,367,258,373,352,305,-63,232,291,171,198
202182,5,121,170,96,-210,-141,-265,171,-9,82,100,173,329,39,291,181,168,112,135,284,154,578,425,279,392,393,321,22,298,340,234,262
202183,13,105,150,85,-218,-95,-246,213,6,59,94,202,362,63,284,170,154,139,149,273,157,543,442,304,394,388,277,85,304,322,163,215
202184,-33,73,133,-10,-218,76,-250,217,22,81,115,172,402,74,295,160,129,186,170,280,178,487,494,345,438,423,334,285,459,458,278,295
202185,-86,134,144,73,-220,135,-280,226,4,86,100,130,384,39,283,66,67,158,152,283,153,421,430,331,415,405,351,109,429,466,280,308
202186,-54,169,175,130,-231,206,-269,292,0,71,149,129,357,26,290,35,109,120,123,256,152,431,419,300,389,396,380,47,428,489,316,353
202187,21,153,198,179,-206,253,-278,293,-2,117,252,167,348,60,343,162,162,118,116,294,196,492,434,301,394,420,441,12,384,475,341,465
202188,73,42,201,181,-188,144,-272,246,0,107,175,165,333,26,302,193,105,100,90,277,145,437,365,251,354,381,383,-137,217,298,215,411
202189,-31,-31,104,125,-210,198,-246,151,-26,87,225,122,305,16,296,174,25,72,66,249,137,493,298,209,325,381,350,-334,54,186,166,457
202190,-181,13,132,115,-222,127,-288,187,-44,85,149,160,295,23,285,192,99,87,55,226,155,590,245,157,312,377,396,-436,-65,97,131,409
202191,-183,98,166,122,-232,-60,-254,190,-20,79,135,165,308,29,293,187,114,81,77,224,170,585,278,205,321,414,503,-249,95,196,132,251
202192,-89,137,162,106,-221,14,-136,136,-16,46,104,186,298,20,242,184,114,53,87,225,110,579,324,216,319,404,308,-196,127,254,208,434
202193,0,132,233,109,-205,95,-112,185,-3,35,93,181,309,27,223,178,166,77,84,203,98,563,363,201,327,365,308,-163,141,227,148,298
202194,21,70,125,98,-220,97,-169,209,-17,52,114,142,314,22,233,122,127,96,86,205,113,573,374,223,311,360,328,-82,200,287,162,292
202195,12,53,-74,110,-223,111,-216,281,-1,54,93,193,343,11,232,111,113,110,99,206,95,569,400,231,314,356,339,-58,221,296,205,331
202196,-57,42,46,66,-242,41,-247,322,14,43,91,200,365,28,230,122,132,125,110,217,105,543,423,265,331,387,331,-8,251,319,227,333
202197,-85,-5,123,0,-241,21,-274,301,-8,51,153,173,352,42,255,171,141,116,110,243,168,549,433,276,352,445,422,-12,329,433,365,564
202198,-28,-65,200,53,-234,82,-255,205,-28,62,192,193,323,39,276,230,177,128,104,263,177,606,450,288,368,468,454,-18,322,422,375,592
202199,17,-52,237,103,-230,176,-231,131,-17,95,161,186,330,50,277,187,127,132,125,253,127,513,475,285,353,401,317,18,265,275,149,257
202200,-28,44,195,16,-254,162,-246,82,-27,62,127,152,323,55,249,125,53,118,113,256,115,449,455,290,364,413,304,29,331,364,216,328
202201,-88,32,145,23,-258,91,-290,98,-28,46,69,170,324,38,232,118,79,115,107,258,136,458,402,269,369,419,385,-6,344,414,297,494
202202,-68,26,117,29,-267,63,-262,134,-33,47,57,164,320,31,222,77,120,106,99,237,121,446,388,259,348,384,375,-10,342,380,288,501
202203,-82,47,116,38,-253,71,-300,147,-21,55,56,147,331,27,230,73,139,89,90,226,111,446,479,281,351,393,324,168,411,437,320,440
202204,-122,80,42,79,-221,96,-351,164,2,75,89,186,337,37,246,77,11,88,131,246,135,500,485,303,362,429,391,333,528,546,428,618
202205,-145,71,48,75,-231,-163,-317,226,-16,29,67,179,326,24,226,25,95,103,110,225,92,428,488,299,363,389,341,326,523,476,368,483
202206,-73,79,143,95,-220,-141,-204,246,-14,57,95,161,333,28,246,39,201,140,100,213,89,454,464,270,345,365,285,43,357,384,264,303
202207,55,57,188,137,-216,82,-233,148,-22,69,223,128,297,15,243,45,151,94,84,221,107,527,345,207,307,387,337,-296,145,289,238,451
202208,-2,17,193,123,-217,207,-280,152,-9,70,188,139,303,20,247,83,175,128,95,219,86,511,402,249,336,370,327,-108,289,360,240,294
202209,-90,-37,189,121,-215,254,-335,160,-27,87,114,206,310,18,252,101,283,137,87,206,91,452,411,253,323,346,269,-175,245,312,184,131
202210,-90,-30,163,174,-207,279,-303,201,-14,79,148,214,313,16,253,97,202,116,78,207,100,417,375,220,310,324,226,-249,141,248,167,97
202211,-88,3,80,132,-224,235,-339,198,-28,81,111,112,300,0,265,112,-84,67,71,203,123,519,349,216,308,331,289,-159,200,281,239,305
202212,-69,129,66,77,-219,152,-268,254,-29,73,132,105,282,-5,249,101,55,68,56,192,107,522,341,215,292,331,304,-146,220,260,216,400
202213,-95,185,96,116,-220,-30,-247,372,-17,54,110,76,313,-3,216,62,103,85,70,189,66,533,368,221,273,312,273,-18,266,274,137,204
202214,-85,32,133,127,-223,-49,-234,297,-8,44,37,103,324,-5,206,7,106,93,64,189,96,540,395,233,285,321,300,-4,266,274,182,240
202215,-153,-50,72,70,-237,-51,-230,130,-21,33,45,118,281,-4,208,27,114,63,40,157,89,511,365,191,254,292,220,-78,193,217,112,103
202216,-190,-47,74,52,-253,-21,-306,83,-7,21,25,141,307,23,188,99,103,103,62,159,44,441,322,187,246,271,197,-116,171,187,46,33
202217,-226,-54,69,-2,-263,-20,-393,32,-22,9,39,56,296,12,151,82,44,80,55,167,15,412,222,159,230,246,204,-283,107,160,67,188
202218,-172,-31,47,-4,-235,-56,-324,-14,-22,33,74,41,275,2,183,75,6,20,48,169,30,404,259,164,249,277,201,-188,172,200,83,204
202219,-82,-83,44,2,-243,-5,-363,37,-31,38,68,88,232,12,181,38,22,-45,30,152,14,355,294,136,239,264,205,-144,156,202,77,200
202220,-111,-155,-2,23,-260,-6,-399,60,-50,12,4,10,214,8,159,-15,5,-44,37,164,22,400,307,138,250,259,206,-66,196,222,88,211
202221,-91,-174,11,40,-239,-60,-485,103,-35,10,-7,43,271,8,168,-30,20,40,50,176,27,382,338,182,275,268,219,37,237,259,116,242
202222,-94,-144,-9,24,-229,6,-528,111,-7,43,7,71,276,18,170,-22,-22,39,51,162,18,362,309,168,278,286,234,-113,189,252,140,302
202223,-126,-237,-2,-65,-235,0,-459,-22,-52,38,44,82,245,-1,168,-39,-51,9,59,164,9,347,278,152,253,279,248,-315,142,245,182,378
202224,-137,-223,24,-64,-228,63,-427,-22,-65,26,70,58,231,-2,132,9,-72,2,45,145,-32,289,260,124,234,236,181,-189,122,146,46,267
202225,-132,-112,35,-22,-216,82,-463,51,-36,21,15,90,265,2,122,46,8,40,48,135,-44,298,330,165,237,218,149,-50,152,151,25,224
202226,-119,-48,8,22,-244,162,-476,90,-34,26,63,57,275,4,162,-56,-122,10,51,142,-10,336,355,168,250,243,199,-41,184,202,99,353
202227,-144,91,11,54,-254,166,-382,77,-29,35,14,53,280,24,181,-41,-81,15,46,158,12,329,304,143,248,227,193,-194,102,106,23,397
202228,-189,100,0,5,-262,32,-317,62,-42,23,-61,36,270,20,155,-41,5,19,45,150,-9,302,314,154,256,207,131,-77,140,139,4,287
202229,-175,53,12,1,-246,-6,-310,90,-26,19,-86,13,264,2,170,-2,-26,25,38,151,-16,335,330,155,242,195,106,-11,157,123,-48,148
202230,-142,58,93,22,-217,-33,-250,108,-13,17,-41,30,270,-9,170,17,-42,-14,29,130,-41,330,216,82,205,145,22,-414,-54,-38,-195,-176
