,Fp1,Fp2,F7,F3,Fz,F4,F8,FC5,FC1,FC2,FC6,T7,C3,Cz,C4,T8,TP9,CP5,CP1,CP2,CP6,TP10,P7,P3,Pz,P4,P8,PO9,O1,Oz,O2,PO10
67995,496,328,550,317,-36,599,446,608,195,45,401,218,384,1,163,163,182,-1,-110,-253,88,404,299,-26,95,81,353,59,272,-33,-134,270
67996,506,342,666,306,-32,590,303,535,189,18,343,167,371,-15,154,134,271,-4,-133,-258,78,358,327,-15,83,76,365,107,306,-26,-128,136
67997,513,392,747,290,-34,679,273,366,165,58,371,145,365,-5,183,147,309,9,-135,-241,107,323,351,-5,88,92,325,118,328,-29,-127,120
67998,497,401,774,277,-33,657,275,320,151,53,379,141,350,-10,187,189,334,14,-140,-258,111,282,368,-14,86,86,326,127,336,-2,-99,205
67999,519,444,781,251,-27,542,274,322,168,49,347,174,351,-11,212,233,269,6,-133,-237,148,314,390,-2,101,113,426,60,359,49,-59,199
68000,562,459,793,218,-32,533,336,338,152,48,345,195,362,-9,212,215,273,33,-124,-208,191,506,400,34,124,163,540,46,374,77,-41,324
68001,563,471,755,216,-61,476,357,341,164,13,270,174,352,-27,180,175,270,29,-116,-215,140,548,419,38,107,159,473,170,400,84,-19,353
68002,587,518,741,230,-54,429,375,351,178,1,241,207,384,-23,163,138,244,58,-118,-225,107,536,447,46,117,116,366,158,403,55,-49,252
68003,529,476,696,220,-60,536,387,329,187,8,291,232,367,-2,167,-4,227,35,-137,-251,103,470,420,14,104,89,380,102,356,-40,-130,9
68004,456,520,619,216,-56,545,346,317,169,32,313,189,357,11,160,-120,234,19,-149,-243,131,455,385,1,100,125,408,163,369,7,-99,107
68005,452,425,560,234,-37,503,363,340,147,34,300,124,368,7,151,97,225,9,-127,-252,107,454,336,-1,90,83,311,153,360,13,-108,195
68006,427,454,572,231,-41,505,448,313,156,21,257,117,350,-9,135,276,148,-46,-150,-285,43,460,260,-52,46,27,261,-20,245,-78,-176,225
68007,398,485,565,232,-70,479,482,319,159,11,272,165,338,-22,113,248,129,-49,-148,-307,-8,459,284,-39,54,12,252,46,256,-52,-170,264
68008,451,457,573,241,-54,488,450,353,183,22,302,236,359,-13,138,192,138,-9,-124,-281,38,460,296,-21,72,39,254,35,256,-87,-201,195
68009,492,428,606,232,-69,476,411,394,184,14,312,225,375,-13,150,144,114,-15,-123,-273,61,424,257,-56,66,35,267,-8,219,-102,-212,200
68010,505,490,644,208,-87,493,432,372,170,14,293,173,371,-21,135,104,106,-46,-134,-283,47,434,234,-60,54,49,290,21,221,-110,-214,217
68011,536,512,638,214,-46,495,472,367,181,27,262,136,373,-3,143,95,184,-16,-132,-247,63,385,284,-25,74,58,310,42,243,-91,-212,258
68012,454,413,494,298,-70,505,433,371,184,18,228,114,360,-4,147,60,165,-38,-143,-264,81,264,269,-53,61,45,302,57,251,-100,-206,254
68013,453,387,489,275,-60,495,370,411,180,8,239,127,372,-10,169,-22,207,-23,-138,-273,85,172,275,-68,55,33,259,69,244,-111,-208,157
68014,405,399,472,269,-73,527,348,380,177,26,318,124,350,-23,173,86,241,-14,-144,-261,82,204,286,-65,32,30,258,32,227,-135,-233,108
68015,334,267,410,269,-80,699,367,409,180,49,407,112,356,-18,153,230,154,-38,-161,-285,15,294,298,-80,22,0,250,-53,219,-151,-252,119
68016,450,304,478,264,-59,594,349,437,188,35,287,131,378,-24,133,219,203,-4,-121,-268,26,434,375,-42,61,38,334,37,294,-52,-156,245
68017,522,322,581,265,-36,561,303,429,187,23,237,124,386,-11,163,154,182,-6,-112,-253,90,505,367,-21,91,87,420,60,310,-15,-124,312
68018,548,444,676,271,-22,570,289,372,197,38,230,136,364,-3,160,203,201,-10,-115,-248,99,456,350,-38,74,81,417,43,293,-49,-141,246
68019,587,503,744,232,-46,507,345,307,168,29,318,153,367,-8,162,214,261,-11,-130,-261,97,432,357,-43,48,57,365,30,245,-100,-223,83
68020,576,482,740,246,-50,524,312,290,162,29,382,138,364,1,192,209,174,-18,-133,-257,125,427,298,-56,54,58,355,9,213,-163,-270,46
68021,537,412,687,192,-78,509,243,279,156,24,328,147,346,-1,179,196,167,-29,-138,-252,116,376,335,-54,59,59,397,78,238,-135,-235,134
68022,440,375,606,169,-96,456,229,291,144,14,322,160,340,-1,167,198,133,-50,-149,-257,109,393,319,-66,57,48,372,73,239,-115,-233,153
68023,439,355,424,203,-78,464,266,392,162,18,364,175,354,-19,176,161,76,-60,-138,-252,90,346,252,-85,49,36,348,-72,187,-167,-269,128
68024,437,420,302,236,-77,494,316,476,161,31,360,101,353,-10,180,134,110,-86,-159,-261,77,371,245,-88,37,51,336,-88,193,-153,-218,168
68025,468,469,412,248,-54,503,382,483,174,29,287,109,350,-27,170,125,78,-80,-166,-274,55,335,244,-113,20,32,251,-91,148,-181,-253,73
68026,500,486,591,306,-23,508,438,499,198,31,234,239,388,-3,156,125,98,-42,-134,-268,49,359,237,-107,45,24,226,-89,144,-175,-264,74
68027,454,439,682,296,-51,504,450,422,189,15,257,216,381,0,155,98,155,-53,-152,-269,50,405,227,-105,46,26,242,19,165,-152,-257,102
68028,498,419,718,280,-57,464,379,316,181,20,296,98,336,-22,167,111,206,-87,-158,-273,62,454,237,-124,49,52,289,22,180,-119,-212,132
68029,556,384,699,278,-28,536,362,225,164,38,314,31,327,-8,205,153,216,-102,-167,-259,62,454,226,-118,55,67,337,-27,184,-124,-205,106
68030,504,393,656,251,-30,591,419,195,162,55,353,25,319,-10,208,174,153,-118,-176,-241,84,472,193,-119,53,90,392,-67,202,-81,-192,249
68031,507,386,630,215,-43,586,411,203,158,46,336,25,312,-8,191,174,129,-116,-175,-242,88,434,208,-115,68,78,361,7,215,-78,-174,315
68032,573,405,699,189,-69,544,392,225,134,22,308,40,291,-24,155,166,119,-141,-176,-275,68,408,185,-118,47,51,300,62,183,-115,-215,207
68033,580,443,730,206,-38,496,405,261,157,34,363,52,307,-4,210,210,107,-134,-147,-225,129,507,136,-117,69,82,373,-84,199,-73,-175,278
68034,572,368,671,202,-25,587,458,258,152,46,397,48,313,1,214,217,152,-94,-147,-230,140,477,225,-72,73,104,381,123,252,-33,-129,249
68035,564,366,527,157,-42,662,469,287,156,46,360,43,306,-19,205,171,140,-98,-173,-249,130,448,236,-67,66,98,381,128,257,-34,-129,281
68036,452,389,476,215,-48,620,462,371,153,46,346,50,305,-25,204,75,148,-100,-176,-254,140,402,215,-86,46,103,345,41,228,-52,-129,227
68037,311,420,442,279,-44,573,380,423,163,38,286,85,333,-14,205,-38,167,-78,-154,-240,155,410,256,-75,52,97,303,74,238,-53,-154,106
68038,290,398,436,269,-59,564,303,387,150,32,301,65,323,-19,222,98,179,-90,-164,-220,183,441,277,-69,85,115,341,95,267,1,-89,181
68039,388,349,436,229,-50,590,323,292,145,34,350,76,323,-19,199,328,221,-103,-166,-235,136,430,259,-83,88,117,320,82,274,6,-95,112
68040,508,485,541,264,-34,528,363,321,150,40,391,120,318,-11,184,269,209,-82,-157,-225,83,453,256,-63,67,106,299,39,254,-9,-111,106
68041,599,519,608,270,-24,504,428,315,161,57,358,173,326,-19,209,215,257,-62,-154,-231,123,502,276,-46,67,111,358,28,249,-25,-125,190
68042,547,525,617,241,-42,488,409,302,141,53,305,176,313,-25,181,193,203,-66,-164,-234,106,510,267,-67,67,101,361,6,226,-57,-149,203
68043,527,575,600,205,-55,466,384,311,142,26,311,198,311,-39,173,199,174,-56,-176,-244,114,478,275,-61,93,109,351,-37,248,-32,-105,249
68044,507,509,531,186,-56,450,399,298,135,6,290,211,297,-33,157,212,110,-85,-179,-248,119,433,250,-81,96,103,364,-106,238,-16,-104,274
68045,536,479,607,171,-60,418,418,302,143,6,286,244,319,-26,164,206,173,-53,-160,-243,138,412,302,-51,93,104,343,-70,277,-9,-99,236
68046,547,502,638,190,-50,408,409,307,132,-1,267,175,320,-50,169,220,97,-82,-174,-254,133,440,304,-58,75,109,351,-76,281,-11,-104,210
68047,574,471,636,209,-50,465,386,300,143,10,350,104,316,-26,180,215,105,-79,-172,-255,127,405,306,-52,87,98,326,-39,268,0,-115,129
68048,529,315,611,194,-55,597,397,274,130,50,439,50,279,-27,208,212,152,-91,-151,-232,156,498,293,-60,100,132,396,-18,282,27,-89,254
68049,484,244,613,185,-70,693,381,219,127,53,387,14,259,-36,224,119,149,-102,-166,-232,178,483,293,-61,83,154,411,34,301,49,-45,348
68050,511,288,663,189,-61,627,402,262,132,39,318,66,272,-29,214,-37,181,-88,-144,-223,201,461,300,-53,84,147,398,0,278,-10,-101,280
68051,546,311,658,214,-40,572,410,290,139,36,361,98,292,-24,206,69,212,-75,-148,-224,176,461,291,-64,83,138,376,-34,227,-78,-152,202
68052,535,326,632,200,-46,556,375,286,141,39,374,87,293,-22,214,291,153,-79,-140,-201,200,491,289,-35,112,142,411,60,250,-22,-111,119
68053,540,385,636,216,-31,507,424,326,146,18,314,94,296,1,205,341,160,-62,-146,-200,190,515,259,-33,107,154,493,110,269,-25,-139,-164
68054,529,452,618,231,-28,509,453,298,141,25,329,84,297,5,214,347,200,-81,-141,-207,207,465,251,-61,105,169,556,111,254,-68,-161,-29
68055,492,541,604,243,-63,432,394,308,147,3,287,113,311,-16,163,328,199,-79,-146,-239,176,476,252,-60,104,119,491,81,237,-59,-161,144
68056,453,570,614,292,-45,471,374,349,150,27,349,161,341,-9,196,288,152,-81,-137,-226,172,524,226,-49,82,126,432,68,229,-55,-178,233
68057,459,543,557,286,-48,527,414,347,146,34,371,168,326,-10,210,251,178,-64,-140,-213,177,574,253,-55,83,135,427,102,263,-25,-134,320
68058,445,516,424,276,-30,434,423,462,164,3,340,85,330,9,190,255,164,-69,-140,-247,150,538,250,-67,77,103,321,118,260,-66,-154,266
68059,404,409,330,260,-63,512,424,532,151,22,384,24,338,8,205,229,160,-97,-135,-238,135,515,253,-76,79,81,336,145,258,-58,-155,257
68060,440,414,402,259,-49,576,416,464,134,41,389,38,299,6,238,133,136,-123,-146,-233,171,508,204,-84,90,95,357,123,244,-61,-153,265
68061,493,460,507,292,-33,545,397,416,146,43,351,95,289,1,229,7,152,-118,-176,-223,190,471,186,-106,64,117,365,33,202,-105,-222,266
68062,556,470,599,267,-33,626,452,367,171,62,394,111,300,23,251,147,178,-100,-167,-215,207,483,207,-92,81,125,417,44,228,-51,-149,334
68063,535,387,638,233,-36,712,474,276,138,64,434,125,271,17,248,406,138,-125,-163,-219,155,541,183,-97,43,107,423,3,215,-60,-150,320
68064,481,493,634,228,-32,704,534,260,151,58,463,210,299,-5,216,365,127,-101,-161,-240,101,455,223,-88,28,56,369,44,203,-91,-178,254
68065,408,473,628,242,-26,563,471,286,154,27,458,211,304,-8,201,216,110,-89,-156,-237,102,413,232,-99,34,67,358,-3,223,-70,-190,217
68066,441,331,638,230,-48,503,416,255,125,12,386,98,296,-14,191,202,154,-106,-163,-246,120,398,231,-84,40,91,424,12,234,-65,-166,84
68067,407,301,601,245,-21,541,429,312,142,35,359,55,312,-10,194,285,165,-88,-151,-228,137,368,256,-65,68,109,465,37,233,-89,-187,91
68068,466,386,588,264,-37,536,418,405,151,29,307,83,338,-10,178,292,183,-48,-122,-232,136,438,279,-51,72,99,395,44,250,-69,-183,181
68069,523,529,595,226,-50,464,505,364,147,19,338,60,337,9,213,316,228,-30,-102,-205,200,457,305,-26,114,141,470,43,269,-47,-134,164
68070,521,611,579,221,-43,445,495,302,136,27,435,39,337,3,250,300,267,-13,-101,-168,229,561,335,2,136,199,567,96,327,32,-63,299
68071,508,544,579,188,-45,556,523,253,131,45,423,98,330,7,254,287,271,-12,-92,-171,218,648,339,13,139,191,541,69,333,45,-42,397
68072,473,413,579,172,-51,596,529,262,132,33,352,123,330,21,244,264,251,-2,-79,-164,200,602,385,29,148,184,473,91,344,61,-29,490
68073,455,472,578,195,-36,571,458,348,147,42,418,144,362,38,254,322,276,6,-56,-155,201,545,408,21,144,162,409,62,333,21,-55,372
68074,530,410,612,191,-22,622,404,406,167,49,448,159,364,30,239,296,287,10,-95,-202,142,505,407,-9,87,103,309,-26,243,-107,-201,80
68075,512,392,636,262,-57,584,392,431,141,43,351,135,364,7,201,252,279,22,-107,-216,143,511,475,13,86,81,353,57,292,-89,-180,184
68076,544,458,745,253,-48,526,463,368,161,21,363,148,365,10,213,230,319,34,-89,-218,157,541,482,11,98,98,395,119,320,-30,-137,310
68077,553,470,672,257,-20,515,507,397,186,21,332,189,390,15,197,205,266,59,-83,-215,131,563,448,20,117,111,402,-28,292,-44,-158,308
68078,523,525,548,268,-42,472,498,422,166,-3,292,235,386,15,172,168,184,36,-95,-245,95,532,381,3,87,78,374,-47,265,-71,-174,284
68079,484,572,632,318,-46,461,462,479,177,-3,277,286,403,28,172,189,168,35,-102,-245,99,498,330,-7,75,75,357,20,228,-77,-178,205
68080,439,460,643,326,-64,495,372,482,176,-17,285,237,401,8,160,166,221,28,-111,-252,71,488,366,-17,49,39,298,39,246,-87,-218,73
68081,494,372,682,272,-62,551,274,479,170,-3,363,169,392,3,166,160,306,17,-111,-264,53,423,430,-12,40,12,264,27,265,-117,-225,35
68082,495,253,677,191,-82,784,200,376,126,27,368,125,361,-4,158,178,217,-44,-136,-250,46,398,359,-40,39,27,291,-60,215,-143,-241,120
68083,520,297,712,217,-87,713,259,314,114,24,347,220,357,-2,159,100,175,-38,-131,-276,50,319,314,-39,47,22,260,-97,206,-125,-240,150
68084,541,461,798,249,-67,539,344,333,149,-2,298,334,391,0,139,104,192,4,-115,-279,63,350,361,-20,79,20,259,-14,245,-120,-202,145
68085,535,527,740,225,-51,459,376,318,157,-1,251,280,397,17,143,80,151,1,-85,-241,85,391,337,-16,83,49,286,49,256,-89,-174,174
68086,543,559,685,201,-59,410,389,293,155,-2,234,129,369,-2,162,-40,170,-35,-115,-240,140,423,278,-33,74,68,324,30,215,-86,-197,189
68087,561,550,650,215,-78,377,413,299,152,-10,204,37,347,6,160,26,215,-43,-121,-236,164,506,281,-35,77,101,377,69,240,-57,-173,289
68088,547,446,645,197,-82,402,422,301,158,-28,228,66,358,15,167,256,232,-40,-89,-221,149,512,300,-27,96,108,398,64,262,-31,-135,332
68089,548,421,646,166,-63,473,433,308,164,-7,268,126,374,22,152,284,243,2,-91,-215,76,533,308,-8,112,112,398,109,282,-18,-104,347
68090,528,305,653,172,-80,455,442,328,176,1,247,122,370,37,172,186,217,5,-79,-207,113,545,302,-16,100,117,412,142,261,-19,-138,339
68091,462,236,644,196,-59,456,425,343,177,-11,224,129,384,33,173,35,201,-13,-111,-213,143,438,305,-9,93,91,347,135,267,-78,-197,111
68092,407,311,562,192,-77,564,398,360,173,24,302,130,393,11,196,-43,237,-10,-109,-201,169,439,337,7,97,113,404,198,299,-60,-168,-85
68093,339,367,459,211,-97,477,400,414,161,14,309,112,400,25,204,174,257,1,-110,-194,176,460,376,-14,95,148,520,164,325,-16,-108,79
68094,322,448,435,251,-99,421,379,466,164,27,331,166,415,40,218,321,312,32,-105,-215,124,527,412,0,87,128,472,78,295,-38,-156,239
68095,337,483,436,271,-82,447,402,495,167,20,292,160,402,15,184,274,204,10,-126,-229,82,480,380,-34,76,81,338,-27,234,-96,-202,228
68096,420,457,517,286,-65,456,447,500,171,7,256,155,395,-5,197,225,208,-3,-113,-242,100,355,399,-15,78,62,283,-61,241,-110,-216,156
68097,468,405,532,265,-82,516,274,435,186,19,337,180,400,8,207,176,245,9,-120,-239,103,352,383,7,93,90,317,66,288,-54,-164,225
68098,463,376,546,242,-67,654,168,363,159,59,428,237,389,23,227,185,212,-11,-119,-216,137,407,369,-14,98,108,403,53,278,-48,-146,200
68099,336,376,533,213,-68,649,277,338,157,51,430,218,354,7,213,142,166,-33,-144,-240,140,404,298,-45,79,98,417,33,234,-79,-168,129
68100,280,357,551,191,-71,562,299,312,157,26,319,121,333,5,206,147,197,-56,-138,-230,124,460,266,-43,70,111,418,118,228,-44,-151,81
68101,393,353,582,223,-85,416,265,327,170,9,257,53,370,38,182,176,198,-60,-128,-219,131,512,280,-36,89,113,411,220,266,-34,-140,203
68102,498,289,523,219,-96,455,250,290,168,-1,191,44,361,45,162,87,185,-56,-116,-238,76,402,280,-39,63,58,289,318,294,-46,-167,149
68103,551,295,608,241,-77,466,277,293,192,-1,209,50,363,40,173,15,162,-64,-110,-232,37,334,255,-50,75,25,185,207,256,-83,-195,135
68104,467,318,618,207,-102,441,318,271,168,0,213,89,355,21,183,34,116,-86,-132,-230,84,428,219,-60,65,64,272,63,229,-86,-184,281
68105,488,400,692,174,-98,423,349,274,158,-7,202,207,365,28,167,4,138,-46,-124,-242,60,475,232,-54,39,51,278,32,215,-107,-203,208
68106,523,428,705,183,-99,406,361,285,171,-7,235,256,375,23,157,93,184,-13,-119,-256,51,438,284,-50,34,28,225,30,212,-158,-249,26
68107,583,415,775,164,-90,430,324,282,188,5,277,204,391,42,164,190,247,0,-101,-228,87,424,308,-29,79,52,258,87,249,-97,-179,66
68108,535,345,755,197,-89,470,307,290,201,16,291,98,408,41,172,157,289,0,-89,-227,117,407,313,-21,86,66,322,174,286,-57,-149,83
68109,528,388,766,225,-84,486,352,319,182,13,279,120,401,48,190,148,306,5,-82,-212,134,431,354,-13,97,87,391,236,292,-86,-185,55
68110,522,290,717,223,-76,529,369,300,158,26,246,149,374,39,182,29,284,6,-96,-218,160,429,361,-2,81,94,385,280,287,-84,-179,193
68111,468,243,610,216,-82,490,421,337,165,15,250,122,364,37,216,-6,237,-21,-119,-219,178,443,261,-36,75,97,368,-58,235,-63,-152,348
68112,412,318,528,189,-81,453,441,373,161,25,237,89,391,29,196,139,262,-24,-117,-229,138,369,321,-20,65,90,288,57,263,-69,-164,264
68113,410,332,526,200,-68,514,411,331,154,43,266,76,364,29,155,335,249,-14,-109,-229,74,354,349,-30,69,52,271,76,300,-72,-196,175
68114,387,288,538,255,-75,545,397,300,162,32,290,93,364,8,163,277,244,-21,-121,-259,25,377,340,-49,50,33,240,77,282,-88,-209,102
68115,370,316,488,256,-74,611,399,353,171,21,299,124,367,18,198,215,191,2,-122,-252,77,405,350,-36,65,55,253,116,299,-89,-185,73
68116,395,434,477,302,-47,598,434,434,181,45,347,149,378,26,209,183,136,-19,-126,-231,102,347,315,-54,71,49,258,0,251,-93,-197,96
68117,394,436,492,289,-45,532,451,396,167,41,339,101,356,17,221,202,197,-46,-137,-230,135,403,272,-74,54,83,302,-103,179,-115,-212,157
68118,374,421,510,249,-43,551,427,350,171,45,357,88,356,37,236,210,210,-59,-136,-206,133,397,242,-82,74,97,318,-24,190,-121,-224,188
68119,392,366,495,191,-64,498,384,322,139,34,353,133,342,18,206,174,165,-69,-147,-218,123,391,228,-87,57,83,328,-7,200,-102,-202,171
68120,401,375,443,159,-81,479,387,295,127,27,320,146,319,10,198,193,162,-78,-163,-232,156,495,234,-90,55,83,404,-90,169,-118,-221,214
68121,441,367,417,149,-75,526,300,292,121,48,358,167,322,9,219,215,155,-84,-172,-236,143,443,229,-117,29,81,416,-160,105,-158,-240,256
68122,438,268,358,195,-84,557,212,377,135,51,381,84,334,-13,193,209,168,-94,-185,-250,119,359,219,-126,16,47,370,-118,86,-162,-260,143
68123,408,244,334,251,-64,624,278,416,136,44,377,-6,334,-4,154,213,205,-98,-189,-284,110,362,235,-143,-17,0,331,-166,59,-271,-359,-119
68124,282,180,358,284,-49,674,298,414,163,40,346,47,348,2,154,171,205,-73,-179,-294,65,399,293,-133,-20,-18,224,-60,93,-293,-376,-68
68125,206,232,404,324,-56,569,332,475,180,18,338,130,385,-7,137,113,154,-28,-153,-288,40,322,307,-104,-6,-9,139,-22,145,-237,-342,-26
68126,325,394,482,310,-45,502,394,528,183,-5,283,133,400,3,146,128,131,-24,-132,-256,66,386,303,-103,1,2,222,-177,141,-211,-324,41
68127,417,519,624,269,-36,492,461,369,164,3,300,126,378,11,182,204,264,-36,-140,-239,138,420,329,-82,16,32,355,-229,120,-189,-293,23
68128,455,585,700,242,-32,416,353,209,153,1,308,123,336,-3,175,195,217,-49,-159,-243,137,446,294,-112,2,63,381,-201,113,-184,-286,61
68129,588,601,714,208,-25,366,316,194,161,11,347,113,354,-14,191,198,133,-63,-149,-228,141,521,298,-90,18,71,345,-150,151,-157,-255,199
68130,613,427,678,186,-41,509,463,223,144,37,407,129,344,-20,204,180,103,-60,-144,-244,123,469,314,-88,24,40,258,-85,173,-157,-241,173
68131,590,391,587,193,-43,576,403,266,138,54,416,161,360,3,225,187,146,-30,-154,-237,149,359,318,-69,22,52,289,-5,191,-136,-233,187
68132,500,464,600,220,-22,494,244,319,166,17,333,170,370,7,200,216,162,-45,-129,-245,121,354,276,-66,24,43,291,88,216,-148,-241,147
68133,497,396,569,200,-16,609,293,329,151,33,369,131,347,2,219,112,109,-77,-129,-236,138,352,203,-94,7,52,271,137,199,-138,-217,186
68134,439,385,562,242,-22,711,419,307,151,44,381,96,306,-19,231,-164,81,-119,-169,-252,161,295,163,-132,-2,25,234,63,142,-198,-287,109
68135,464,430,580,298,-11,621,425,329,167,23,264,91,313,-17,196,-199,88,-131,-190,-255,163,358,151,-128,-3,15,256,0,124,-231,-313,-141
68136,538,488,605,347,14,528,490,412,179,33,283,116,347,-10,183,252,156,-100,-146,-255,153,448,187,-129,22,48,394,-23,141,-193,-280,-124
68137,558,475,566,265,0,548,452,450,167,28,284,93,339,-29,147,399,196,-96,-172,-274,75,438,199,-117,9,23,364,2,147,-189,-296,22
68138,552,489,561,269,-3,488,520,423,170,14,288,78,361,-32,162,342,155,-74,-157,-272,75,483,186,-116,22,25,287,5,175,-166,-251,151
68139,561,519,534,284,-15,454,484,378,196,20,299,104,369,-23,190,245,132,-74,-165,-264,90,514,207,-107,47,68,311,56,193,-111,-209,267
68140,554,471,586,256,-35,510,466,333,180,19,318,136,347,-8,187,181,113,-79,-153,-249,101,461,217,-101,52,62,320,58,209,-76,-175,295
68141,554,443,667,225,-37,528,461,327,164,40,321,256,357,-15,166,130,155,-29,-128,-266,73,367,251,-76,47,20,213,114,247,-70,-190,154
68142,584,462,757,214,-34,535,466,325,166,40,359,297,362,-8,173,133,206,-12,-136,-264,52,389,275,-63,54,42,190,124,250,-77,-200,112
68143,548,405,699,200,-50,586,458,289,141,23,370,178,352,-7,175,160,211,-69,-136,-266,59,425,267,-85,36,27,224,116,217,-120,-222,120
68144,547,349,664,217,-35,569,462,305,166,41,320,157,368,9,175,166,233,-52,-136,-244,78,467,306,-66,82,59,278,85,226,-114,-201,53
