,Fp1,Fp2,F7,F3,Fz,F4,F8,FC5,FC1,FC2,FC6,T7,C3,Cz,C4,T8,TP9,CP5,CP1,CP2,CP6,TP10,P7,P3,Pz,P4,P8,PO9,O1,Oz,O2,PO10
65196,39,19,317,-1439,298,194,-232,265,-101,-361,-3,-10,151,-29,-1140,19,30,-227,444,-99,-367,-79,-6,-49,134,-322,89,-259,10,-161,-493,-300
65197,-26,-19,279,-1454,266,172,-222,232,-108,-352,60,-24,131,-32,-1127,110,36,-238,461,-108,-366,-32,16,-56,141,-325,82,-278,17,-168,-504,-324
65198,-38,-7,299,-1424,283,174,-279,227,-92,-334,53,-8,143,-10,-1123,99,101,-212,484,-101,-370,-17,77,-26,150,-302,38,-238,21,-175,-538,-468
65199,-42,-18,290,-1420,274,149,-323,223,-97,-364,21,-39,115,-40,-1139,49,78,-238,460,-109,-373,-7,28,-62,135,-309,30,-256,4,-183,-562,-406
65200,-56,-10,270,-1440,266,137,-314,208,-119,-374,-52,-74,94,-67,-1122,7,52,-269,426,-136,-355,-1,3,-65,136,-337,26,-262,0,-172,-567,-372
65201,-32,-17,289,-1433,274,122,-313,221,-98,-364,-88,-53,117,-47,-1138,-110,67,-242,452,-117,-343,-35,109,-36,151,-335,70,-279,19,-151,-487,-266
65202,-11,-5,296,-1436,294,157,-316,236,-88,-344,50,-41,135,-31,-1089,-173,69,-247,506,-80,-319,-8,39,-26,153,-304,142,-295,14,-142,-491,-213
65203,-38,-44,294,-1453,286,153,-351,222,-120,-382,38,-62,108,-57,-1112,-224,35,-277,467,-110,-372,-31,-85,-34,129,-307,121,-278,4,-133,-525,-368
65204,-17,-50,318,-1417,262,142,-415,231,-113,-387,15,-62,129,-36,-1149,-114,39,-257,457,-127,-397,-47,-74,-34,141,-335,70,-282,28,-110,-468,-409
65205,23,-14,344,-1416,280,145,-458,245,-98,-372,30,-53,116,-52,-1134,45,44,-261,461,-130,-397,-55,-74,-44,157,-325,76,-285,47,-80,-415,-366
65206,55,12,338,-1403,319,186,-427,266,-79,-343,43,-37,135,-53,-1136,168,72,-256,496,-117,-374,-14,-53,-41,164,-335,77,-267,30,-136,-485,-312
65207,14,11,299,-1409,304,170,-350,237,-92,-363,-5,-72,111,-55,-1156,196,27,-278,460,-153,-412,-9,-74,-79,111,-380,25,-295,-17,-248,-636,-367
65208,1,27,312,-1421,295,190,-286,242,-99,-356,-3,-71,122,-51,-1161,146,17,-263,441,-160,-422,-28,-85,-88,109,-382,12,-313,-37,-271,-666,-390
65209,-6,21,329,-1434,274,202,-253,244,-108,-367,-2,-78,101,-54,-1159,14,18,-276,451,-178,-425,-85,-97,-85,96,-388,4,-301,-50,-247,-631,-413
65210,-10,-11,304,-1471,275,196,-262,217,-95,-371,0,-78,101,-52,-1148,-19,34,-276,443,-160,-399,-47,-84,-86,95,-389,-17,-293,-36,-229,-600,-390
65211,-14,-15,308,-1500,274,170,-333,214,-113,-386,9,-85,110,-35,-1130,66,0,-302,444,-164,-390,-43,-74,-79,98,-384,-19,-272,-12,-210,-586,-344
65212,-60,-35,278,-1486,257,165,-375,212,-126,-369,-12,-70,107,-34,-1172,147,11,-299,447,-165,-385,-20,-52,-62,92,-364,-2,-246,2,-173,-584,-352
65213,-37,-36,279,-1454,262,163,-355,211,-110,-360,-16,-54,106,-29,-1166,150,41,-276,449,-163,-400,-29,-26,-50,105,-342,-13,-222,20,-170,-579,-418
65214,-19,-40,319,-1457,269,167,-335,191,-117,-394,-11,-49,88,-61,-1179,93,19,-295,430,-184,-423,-50,-47,-84,80,-376,-35,-255,-23,-204,-594,-411
65215,-40,-14,290,-1450,273,188,-322,198,-116,-383,30,-75,70,-63,-1181,93,18,-310,416,-168,-419,-17,-77,-106,81,-363,-8,-268,-39,-202,-569,-378
65216,-73,-13,269,-1435,297,212,-310,171,-110,-372,55,-110,71,-51,-1138,34,-15,-316,421,-154,-389,1,-91,-112,91,-348,6,-283,-43,-196,-557,-378
65217,-43,-27,268,-1467,291,195,-336,164,-123,-375,11,-142,63,-68,-1147,-34,-34,-317,419,-142,-383,-9,-95,-103,94,-342,6,-285,-35,-197,-530,-335
65218,-61,-23,225,-1482,291,192,-326,174,-132,-360,23,-161,66,-62,-1170,-7,-19,-334,418,-161,-393,-23,-79,-111,92,-339,40,-281,-19,-189,-549,-322
65219,-49,0,255,-1463,288,197,-289,169,-140,-365,29,-134,51,-35,-1165,0,-26,-355,417,-155,-372,18,-88,-124,100,-330,15,-314,-40,-218,-580,-354
65220,-32,8,244,-1454,284,199,-241,175,-145,-395,-11,-135,49,-57,-1176,2,-41,-344,416,-163,-403,-25,-97,-126,85,-363,-40,-330,-62,-228,-588,-453
65221,-35,26,243,-1484,276,169,-235,160,-139,-381,3,-158,54,-59,-1154,31,-46,-367,418,-141,-395,-39,-115,-134,95,-353,-26,-319,-49,-197,-561,-415
65222,-84,0,208,-1487,267,168,-294,160,-140,-370,5,-160,53,-57,-1177,119,-21,-387,437,-131,-405,-1,-135,-153,91,-358,-28,-310,-60,-244,-601,-458
65223,-69,-2,194,-1489,277,202,-323,150,-137,-379,9,-163,52,-48,-1146,171,-15,-374,441,-123,-390,-9,-128,-134,107,-321,21,-309,-34,-211,-548,-383
65224,-86,-33,215,-1475,264,195,-360,146,-137,-370,21,-172,45,-47,-1107,92,-51,-378,442,-127,-361,-56,-125,-123,119,-302,34,-315,-22,-165,-493,-319
65225,-74,-33,231,-1506,274,187,-381,138,-135,-357,19,-167,39,-33,-1134,-64,-77,-374,445,-133,-374,-92,-150,-154,76,-328,13,-323,-64,-204,-548,-409
65226,-66,-45,251,-1486,268,183,-411,137,-133,-368,14,-167,43,-27,-1132,-98,-30,-380,447,-111,-338,-28,-156,-143,88,-299,82,-313,-48,-178,-506,-363
65227,-40,-32,252,-1507,267,177,-385,107,-143,-396,-22,-191,47,-48,-1150,-99,-37,-385,453,-113,-339,-21,-153,-152,75,-311,116,-338,-24,-153,-427,-317
65228,-48,-8,228,-1486,286,160,-302,118,-142,-400,-5,-180,63,-37,-1152,-9,-63,-376,438,-110,-348,-34,-156,-145,77,-320,67,-345,-38,-182,-460,-370
65229,-71,-22,198,-1482,257,143,-353,142,-130,-390,-28,-209,55,-28,-1198,14,-84,-377,423,-135,-392,-56,-163,-137,66,-341,53,-332,-56,-215,-529,-362
65230,-73,1,222,-1475,230,162,-406,146,-133,-374,-35,-170,79,-55,-1193,-81,-44,-356,436,-147,-451,-44,-125,-124,49,-370,21,-309,-57,-260,-632,-395
65231,-57,10,263,-1466,246,142,-369,162,-139,-374,-27,-128,83,-53,-1146,-86,-23,-342,475,-154,-462,-40,-106,-110,68,-384,-1,-309,-51,-303,-706,-396
65232,-55,-40,225,-1475,240,125,-406,144,-123,-401,-52,-139,81,-54,-1184,-38,-37,-339,458,-166,-487,-147,-113,-118,56,-400,-36,-326,-61,-304,-715,-421
65233,-107,-86,195,-1503,229,150,-397,133,-136,-386,-5,-158,61,-64,-1213,27,-36,-349,448,-169,-476,-105,-86,-113,40,-406,-50,-335,-57,-289,-670,-472
65234,-121,-86,183,-1493,245,185,-431,159,-137,-371,15,-155,76,-34,-1177,101,-47,-344,472,-149,-441,-59,-69,-113,74,-380,6,-329,-66,-283,-661,-462
65235,-91,-42,192,-1493,258,173,-340,166,-135,-354,13,-150,103,-35,-1158,134,-47,-337,482,-136,-430,-45,-85,-119,58,-346,20,-333,-84,-271,-617,-410
65236,-53,-10,205,-1492,253,129,-335,166,-119,-362,4,-125,92,-43,-1171,104,-22,-328,489,-138,-419,-27,-125,-128,56,-337,3,-324,-69,-273,-613,-398
65237,-40,-9,251,-1466,245,133,-325,200,-114,-391,-36,-100,93,-53,-1174,87,-5,-321,468,-156,-413,-44,-140,-139,65,-360,42,-304,-59,-263,-619,-404
65238,-46,-21,238,-1451,270,138,-329,196,-115,-376,-39,-89,98,-39,-1166,97,-11,-327,462,-128,-388,-38,-115,-121,81,-345,60,-308,-28,-221,-568,-403
65239,-72,-25,192,-1481,270,140,-387,175,-118,-374,-28,-103,92,-40,-1180,-4,-11,-326,475,-124,-381,-41,-49,-99,90,-339,66,-309,-8,-170,-525,-355
65240,-104,-78,192,-1497,237,104,-442,180,-132,-384,-41,-77,96,-64,-1168,-82,-11,-293,448,-154,-412,-57,33,-100,80,-347,47,-352,-29,-190,-493,-313
65241,-70,-42,233,-1477,260,125,-394,206,-128,-378,-28,-13,108,-72,-1145,-14,-25,-288,458,-153,-434,-43,-52,-123,79,-350,63,-329,-47,-219,-522,-310
65242,-51,-28,229,-1458,260,154,-357,222,-131,-383,-61,-19,113,-51,-1172,-64,-32,-289,461,-140,-421,4,-137,-111,79,-364,82,-266,-18,-197,-521,-328
65243,-62,-65,226,-1465,265,125,-415,215,-127,-394,-78,-49,109,-60,-1194,-55,-28,-294,476,-156,-441,-58,-145,-117,71,-371,13,-279,-25,-236,-585,-457
65244,-97,-57,199,-1489,276,138,-397,192,-116,-380,-11,-125,106,-44,-1158,5,-20,-310,502,-127,-401,-104,-114,-105,109,-345,-22,-272,-26,-231,-628,-402
65245,-113,-39,185,-1488,280,165,-370,183,-112,-354,2,-167,102,-26,-1135,20,-42,-319,488,-115,-380,-71,-80,-96,123,-332,20,-280,-24,-198,-569,-311
65246,-103,-38,182,-1486,278,152,-373,161,-132,-372,-32,-131,114,-32,-1149,4,-15,-304,485,-127,-358,-26,-56,-94,123,-326,67,-286,-10,-188,-575,-336
65247,-36,0,219,-1484,292,136,-407,170,-126,-379,-162,-77,115,-34,-1172,79,49,-285,496,-138,-338,-50,-39,-105,134,-324,25,-256,1,-194,-611,-493
65248,-54,21,222,-1499,303,163,-340,166,-126,-352,-27,-94,109,-30,-1105,96,32,-289,503,-108,-320,-7,-48,-98,125,-293,32,-275,-19,-205,-551,-440
65249,-66,-17,224,-1498,279,168,-273,171,-129,-356,80,-102,91,-18,-1071,-64,-25,-286,496,-103,-359,4,-78,-116,114,-312,68,-310,-46,-248,-593,-434
65250,-88,-55,217,-1507,274,152,-260,168,-133,-375,44,-88,101,-25,-1062,-111,-8,-275,497,-114,-348,20,-56,-94,110,-307,59,-295,-23,-229,-586,-404
65251,-117,-69,209,-1511,266,139,-270,166,-121,-374,21,-106,105,-30,-1079,-34,20,-291,502,-112,-335,44,-33,-101,111,-285,91,-283,-8,-211,-548,-344
65252,-112,-21,220,-1498,258,170,-271,170,-115,-365,35,-104,98,-31,-1073,-89,-2,-292,501,-108,-337,-18,-65,-116,111,-302,121,-264,-20,-204,-537,-316
65253,-96,-14,223,-1490,261,173,-311,156,-127,-382,27,-93,108,-36,-1098,-113,-3,-290,467,-116,-345,-31,-78,-110,96,-323,128,-269,-25,-185,-563,-350
65254,-40,11,251,-1468,284,188,-327,169,-124,-369,28,-85,114,-27,-1110,71,1,-292,460,-130,-365,-9,-59,-116,75,-342,102,-268,-24,-210,-557,-342
65255,-46,10,243,-1462,305,197,-291,180,-96,-345,30,-73,117,-7,-1118,191,8,-295,495,-127,-350,24,-49,-109,91,-314,107,-246,-14,-211,-531,-262
65256,-108,-50,194,-1507,274,170,-341,164,-128,-376,-3,-89,105,-28,-1126,192,-3,-297,460,-140,-378,10,-69,-111,80,-317,122,-301,-34,-220,-548,-263
65257,-117,-42,206,-1503,267,168,-329,158,-143,-379,-3,-65,117,-37,-1131,200,-12,-293,446,-140,-392,13,-70,-119,81,-336,141,-325,-53,-238,-570,-341
65258,-67,-7,229,-1486,292,201,-340,174,-122,-372,9,-47,112,-9,-1132,191,-52,-296,483,-142,-366,5,-73,-116,86,-349,145,-339,-55,-247,-563,-377
65259,-107,-13,199,-1521,258,181,-379,161,-126,-388,-25,-89,87,-35,-1136,120,-63,-319,463,-167,-423,-22,-104,-136,69,-380,85,-371,-96,-295,-615,-399
65260,-110,-41,220,-1498,256,159,-358,161,-124,-389,-58,-91,88,-53,-1147,82,-34,-337,450,-160,-433,-56,-96,-149,54,-418,51,-379,-115,-306,-617,-372
65261,-116,-56,199,-1526,247,173,-416,144,-150,-377,7,-135,80,-48,-1168,62,-26,-337,440,-176,-410,-59,-85,-150,30,-369,74,-346,-104,-271,-572,-227
65262,-161,-64,152,-1563,238,176,-466,128,-165,-390,28,-131,69,-32,-1167,119,-43,-322,424,-179,-398,-27,-91,-170,28,-356,100,-358,-96,-258,-544,-138
65263,-159,-48,148,-1541,233,167,-441,135,-139,-382,-27,-103,72,-34,-1167,68,-21,-338,409,-155,-422,-80,-84,-165,32,-414,-15,-354,-132,-341,-676,-517
65264,-127,-42,201,-1524,241,166,-426,162,-117,-383,-33,-92,103,-28,-1153,56,-16,-298,454,-152,-401,-94,-47,-120,70,-363,1,-303,-71,-251,-594,-448
65265,-138,-81,203,-1514,260,144,-391,163,-104,-393,-53,-81,120,-23,-1143,66,-30,-291,471,-129,-423,-60,-38,-100,88,-358,55,-266,-45,-232,-592,-421
65266,-129,-131,207,-1530,242,112,-406,147,-110,-376,-83,-81,111,-41,-1163,-1,-8,-308,465,-155,-451,-58,-50,-120,25,-395,-18,-272,-107,-329,-715,-603
65267,-119,-124,216,-1504,242,116,-377,166,-109,-393,-73,-93,96,-41,-1138,-45,16,-298,468,-168,-458,-101,-40,-128,56,-402,-30,-252,-103,-362,-760,-559
65268,-142,-90,216,-1505,223,147,-316,168,-98,-380,-38,-102,98,-48,-1138,-21,19,-311,473,-151,-418,-83,-41,-114,57,-377,-2,-239,-62,-301,-672,-469
65269,-146,-41,235,-1496,243,150,-289,176,-91,-373,-10,-102,75,-42,-1137,-38,13,-321,457,-148,-387,-36,-44,-122,55,-351,23,-266,-41,-229,-637,-412
65270,-148,-38,226,-1487,235,136,-316,168,-116,-400,-15,-124,57,-66,-1146,-169,-27,-333,418,-171,-394,-18,-89,-162,30,-355,36,-329,-86,-238,-617,-413
65271,-133,-35,216,-1465,248,154,-307,168,-125,-386,15,-108,75,-55,-1129,-304,-32,-342,416,-141,-366,-10,-110,-171,47,-347,34,-346,-97,-253,-600,-370
65272,-136,-52,204,-1468,253,173,-332,174,-110,-397,61,-118,68,-55,-1109,-334,-34,-335,425,-128,-342,-24,-101,-152,62,-337,15,-310,-105,-302,-640,-382
65273,-132,-65,224,-1487,245,172,-362,164,-116,-409,59,-117,45,-63,-1143,-188,-18,-338,405,-144,-375,-17,-70,-153,51,-361,-21,-304,-116,-351,-712,-484
65274,-137,-52,235,-1479,252,185,-291,166,-139,-398,20,-113,57,-73,-1136,-9,5,-336,425,-160,-380,-47,-74,-172,76,-351,28,-285,-88,-283,-635,-416
65275,-104,-36,256,-1443,287,193,-294,199,-110,-382,33,-72,72,-54,-1137,135,49,-324,447,-119,-354,2,-49,-128,104,-309,90,-259,-54,-249,-582,-353
65276,-107,-23,267,-1470,275,182,-276,194,-113,-386,36,-68,83,-47,-1112,225,21,-307,443,-106,-351,31,-28,-129,112,-312,115,-280,-33,-227,-574,-313
65277,-100,-10,237,-1468,276,195,-254,166,-113,-373,1,-68,91,-43,-1135,162,21,-285,475,-127,-358,30,-4,-130,98,-307,114,-242,-25,-207,-573,-323
65278,-92,-39,271,-1461,280,173,-325,189,-99,-381,-42,-58,96,-38,-1172,-39,5,-278,458,-140,-400,-10,26,-116,67,-347,78,-292,-59,-265,-622,-413
65279,-96,-73,284,-1446,275,175,-409,191,-111,-396,-20,-63,76,-75,-1186,-82,-22,-311,430,-172,-435,-40,-21,-176,35,-394,-1,-357,-157,-351,-710,-460
65280,-143,-105,222,-1478,257,167,-452,149,-143,-403,-22,-113,29,-78,-1216,-3,-54,-355,398,-181,-458,-88,-174,-206,7,-421,-62,-352,-167,-363,-685,-504
65281,-128,-94,216,-1454,265,168,-455,162,-130,-390,-16,-118,44,-70,-1199,80,-55,-366,397,-173,-454,-109,-206,-216,-4,-420,-60,-333,-141,-321,-676,-500
65282,-138,-113,243,-1441,269,141,-464,184,-129,-403,-55,-97,64,-67,-1190,110,-67,-346,410,-192,-465,-171,-152,-199,5,-442,-76,-379,-181,-342,-682,-521
65283,-138,-100,232,-1443,280,133,-416,189,-110,-403,-65,-84,74,-56,-1174,84,-55,-351,412,-194,-474,-193,-139,-166,7,-454,-126,-397,-185,-362,-707,-545
65284,-137,-115,230,-1466,269,105,-420,168,-115,-423,-94,-95,58,-68,-1197,57,-81,-364,386,-201,-489,-159,-170,-176,12,-430,-118,-393,-148,-327,-634,-492
65285,-126,-123,238,-1447,273,112,-414,181,-105,-405,-81,-101,64,-55,-1230,45,-62,-343,391,-191,-479,-139,-144,-166,12,-434,-131,-392,-140,-330,-674,-543
65286,-144,-119,240,-1446,263,72,-419,177,-127,-427,-92,-114,47,-93,-1252,14,-77,-349,386,-201,-506,-130,-150,-195,1,-449,-136,-398,-145,-312,-687,-521
65287,-145,-119,232,-1418,267,92,-388,193,-117,-427,-108,-107,70,-78,-1238,3,-49,-332,408,-196,-492,-149,-147,-205,-5,-445,-102,-407,-161,-380,-730,-499
65288,-127,-135,240,-1436,281,136,-384,205,-90,-403,-74,-85,75,-51,-1219,20,-34,-313,426,-169,-473,-146,-115,-173,29,-412,-44,-363,-126,-343,-704,-408
65289,-127,-168,218,-1465,262,115,-404,203,-107,-429,-69,-64,77,-74,-1190,30,-35,-338,394,-168,-460,-110,-126,-178,31,-394,-36,-342,-135,-338,-708,-446
65290,-180,-141,245,-1455,251,111,-401,200,-125,-419,-51,-18,68,-84,-1201,-15,-44,-329,401,-171,-468,-79,-115,-176,5,-407,-74,-318,-151,-396,-773,-512
65291,-154,-95,243,-1454,253,122,-365,187,-146,-401,-37,-16,63,-91,-1215,-26,-76,-314,404,-185,-450,-91,-108,-178,-7,-428,-65,-319,-122,-375,-780,-524
65292,-132,-84,224,-1455,264,149,-357,199,-138,-389,17,-48,55,-84,-1194,-41,-80,-329,412,-178,-432,-83,-102,-162,-8,-395,-18,-329,-124,-326,-728,-457
65293,-156,-119,223,-1429,281,162,-413,184,-119,-394,40,-129,63,-93,-1169,-12,-73,-333,416,-158,-418,-58,-102,-181,6,-372,32,-310,-133,-330,-715,-433
65294,-129,-94,219,-1451,306,167,-401,171,-120,-382,10,-154,51,-101,-1182,-6,-41,-347,402,-175,-385,-50,-106,-209,10,-368,4,-324,-121,-349,-724,-465
65295,-144,-79,220,-1438,297,178,-342,168,-141,-386,-25,-114,45,-92,-1171,10,-36,-346,369,-202,-383,-13,-112,-231,-6,-390,-30,-340,-122,-332,-704,-435
65296,-142,-105,251,-1444,290,147,-347,175,-166,-389,-29,-105,53,-102,-1175,49,-1,-333,380,-196,-404,-32,-93,-214,-13,-390,-9,-296,-127,-320,-666,-430
65297,-107,-72,267,-1446,294,163,-349,204,-157,-362,-49,-76,65,-107,-1198,46,38,-319,390,-194,-405,-20,-74,-199,-18,-390,9,-283,-91,-322,-650,-406
65298,-115,-93,271,-1430,293,150,-331,187,-131,-358,-16,-60,66,-112,-1183,64,54,-308,402,-196,-387,-44,-47,-188,9,-368,61,-266,-62,-279,-602,-341
65299,-141,-115,250,-1432,286,170,-298,171,-136,-366,20,-67,44,-97,-1156,131,41,-315,392,-168,-386,-7,-66,-164,36,-362,107,-273,-38,-202,-512,-299
65300,-155,-129,253,-1448,276,167,-327,150,-149,-380,20,-71,47,-102,-1158,94,32,-304,413,-167,-368,-11,-74,-151,41,-356,123,-267,-36,-174,-456,-315
65301,-119,-103,270,-1443,292,174,-322,163,-149,-367,41,-69,46,-88,-1170,-3,67,-288,425,-164,-355,-16,-53,-159,19,-360,129,-272,-51,-190,-475,-290
65302,-102,-84,295,-1452,289,191,-335,185,-150,-374,52,-66,43,-105,-1194,-130,60,-305,407,-202,-386,-28,-73,-185,-13,-418,64,-279,-116,-339,-681,-384
65303,-116,-98,301,-1462,282,204,-364,179,-164,-377,65,-70,40,-117,-1196,-109,26,-323,411,-202,-420,-6,-80,-192,-40,-441,-20,-258,-141,-413,-825,-468
65304,-145,-102,266,-1445,312,201,-380,188,-138,-364,112,-73,61,-93,-1160,28,38,-315,397,-175,-394,-10,-63,-182,-10,-416,21,-244,-99,-332,-689,-351
65305,-130,-51,250,-1455,314,211,-396,171,-129,-370,98,-81,47,-87,-1142,72,41,-324,408,-160,-365,-16,-78,-165,19,-399,56,-272,-72,-275,-639,-249
65306,-123,-43,262,-1453,331,215,-389,190,-119,-397,49,-28,82,-99,-1167,4,40,-303,411,-175,-402,-8,-61,-143,-2,-417,29,-270,-66,-295,-663,-379
65307,-131,-42,258,-1437,317,195,-328,203,-130,-401,20,-47,69,-106,-1201,18,17,-314,377,-206,-430,-27,-84,-187,-17,-422,4,-282,-111,-317,-687,-426
65308,-109,-63,285,-1433,305,192,-306,206,-122,-399,-8,-33,74,-106,-1191,73,28,-299,395,-206,-452,-40,-87,-178,-35,-439,-46,-319,-160,-391,-772,-576
65309,-118,-67,287,-1428,312,187,-286,200,-121,-373,-8,-7,89,-83,-1162,102,57,-293,390,-189,-450,-7,-61,-144,-4,-421,-23,-301,-137,-356,-732,-518
65310,-150,-50,250,-1457,295,192,-235,175,-142,-375,13,-26,74,-84,-1182,4,11,-329,400,-189,-418,-3,-46,-158,7,-420,7,-318,-123,-319,-685,-449
65311,-161,-68,242,-1454,288,197,-214,187,-124,-378,41,-45,85,-93,-1191,-107,32,-311,428,-163,-410,-40,-22,-151,22,-398,33,-303,-90,-283,-623,-337
65312,-125,-39,261,-1425,301,211,-257,198,-131,-376,33,-19,90,-74,-1152,-23,34,-291,438,-155,-381,-61,-33,-132,43,-358,90,-252,-42,-238,-545,-194
65313,-151,-40,205,-1462,308,206,-299,187,-134,-378,39,-32,70,-53,-1160,105,15,-296,458,-127,-375,-5,-56,-120,53,-335,78,-259,-33,-247,-588,-308
65314,-184,-72,204,-1460,291,204,-312,196,-116,-371,65,1,94,-43,-1125,161,11,-271,480,-106,-352,11,-57,-113,62,-330,78,-228,-28,-266,-636,-410
65315,-178,-134,218,-1455,274,176,-294,199,-121,-364,19,14,116,-31,-1121,132,45,-230,479,-107,-362,-13,-24,-95,63,-330,118,-198,-18,-226,-583,-397
65316,-194,-77,218,-1480,274,171,-261,211,-125,-359,9,19,114,-26,-1153,117,104,-204,511,-92,-356,17,49,-71,88,-326,142,-212,13,-174,-559,-386
65317,-157,-59,248,-1473,271,177,-233,239,-115,-374,39,35,134,-51,-1137,95,96,-213,526,-97,-332,-1,92,-53,114,-320,126,-240,42,-135,-516,-346
65318,-127,-33,265,-1456,294,200,-227,260,-110,-355,75,44,151,-31,-1111,102,108,-190,498,-72,-319,33,55,-54,131,-302,140,-176,90,-100,-438,-244
65319,-89,-4,285,-1446,282,200,-255,263,-120,-359,94,48,142,-35,-1087,107,97,-185,490,-92,-283,56,1,-72,109,-278,147,-159,67,-113,-432,-210
65320,-92,-26,274,-1428,279,199,-263,266,-106,-368,74,61,136,-44,-1103,168,115,-172,480,-99,-295,55,24,-53,82,-314,160,-149,27,-230,-558,-272
65321,-55,27,288,-1412,296,249,-175,283,-98,-349,115,82,159,-26,-1112,211,154,-164,495,-75,-291,90,61,-52,105,-315,161,-120,47,-257,-617,-321
65322,-78,40,327,-1404,310,247,-156,276,-101,-333,119,95,159,-38,-1123,158,172,-177,514,-74,-308,52,90,-31,119,-309,88,-107,55,-192,-572,-381
65323,-81,46,307,-1410,301,234,-202,280,-110,-328,127,118,153,-34,-1117,51,201,-169,514,-93,-329,35,110,-9,150,-293,111,-48,83,-135,-518,-334
65324,-48,89,310,-1417,304,244,-281,287,-102,-345,144,101,174,-25,-1124,36,183,-166,530,-80,-319,39,119,-5,149,-255,190,-43,144,-79,-420,-215
65325,-65,63,331,-1412,316,242,-290,279,-84,-337,98,84,191,-1,-1108,133,187,-148,549,-43,-270,84,164,21,188,-209,240,-67,179,-10,-328,-174
65326,-76,-1,286,-1446,306,231,-337,256,-95,-344,67,77,185,-4,-1104,231,151,-151,559,-42,-264,102,171,15,202,-200,251,-92,129,-54,-376,-244
65327,-41,18,303,-1424,295,241,-287,269,-101,-336,122,64,180,-14,-1066,250,139,-172,559,-39,-241,110,81,6,182,-209,280,-123,113,-49,-343,-208
65328,-58,39,303,-1450,293,249,-211,252,-95,-331,161,49,163,-5,-1065,179,134,-191,535,-42,-285,118,24,-18,174,-231,254,-198,55,-133,-440,-251
65329,-116,22,267,-1470,281,227,-235,227,-116,-337,122,32,134,-15,-1085,4,105,-222,546,-82,-325,117,9,-49,133,-278,201,-215,-12,-226,-585,-312
65330,-106,24,252,-1480,267,209,-248,205,-112,-367,79,-1,113,-33,-1109,-43,64,-252,507,-103,-341,53,-5,-94,109,-337,163,-210,-10,-254,-645,-390
65331,-61,28,287,-1476,282,229,-294,229,-111,-363,82,-2,125,-31,-1099,119,49,-255,495,-97,-350,53,-10,-106,87,-334,139,-212,-10,-276,-702,-496
65332,-121,-18,285,-1468,253,200,-283,245,-118,-364,15,-35,121,-47,-1095,233,43,-269,460,-109,-331,109,-20,-117,80,-324,155,-204,-8,-256,-680,-416
65333,-130,-17,256,-1470,256,204,-253,210,-127,-364,73,-72,91,-56,-1070,126,15,-313,428,-127,-351,41,-83,-147,50,-348,122,-262,-35,-252,-636,-353
65334,-128,-15,248,-1479,274,217,-313,202,-121,-355,140,-99,78,-48,-1059,15,-3,-317,459,-129,-364,20,-111,-161,45,-365,133,-301,-68,-276,-634,-383
65335,-121,-14,230,-1503,280,222,-372,192,-116,-352,153,-100,80,-45,-1070,61,-65,-325,476,-124,-351,4,-93,-161,34,-341,147,-301,-59,-300,-669,-414
65336,-118,-8,216,-1504,285,212,-306,199,-129,-342,117,-103,108,-50,-1079,84,-50,-336,461,-153,-372,-38,-103,-142,18,-383,69,-310,-58,-306,-672,-457
65337,-109,-16,239,-1480,280,187,-272,204,-118,-353,61,-46,96,-38,-1068,133,-9,-321,482,-141,-371,-6,-112,-143,55,-380,31,-288,-32,-243,-625,-434
65338,-112,0,216,-1471,288,174,-230,187,-110,-371,41,-24,94,-26,-1047,162,-4,-314,473,-122,-350,12,-132,-146,51,-350,60,-318,-31,-222,-599,-377
65339,-117,-43,223,-1479,272,167,-206,215,-110,-371,39,-17,109,-12,-1051,159,-28,-296,491,-116,-344,-35,-95,-123,69,-353,17,-296,-45,-242,-594,-328
65340,-153,-32,246,-1526,252,154,-232,195,-131,-390,3,-38,71,-48,-1109,130,-78,-344,462,-146,-395,-61,-145,-161,30,-433,-108,-342,-122,-378,-744,-557
65341,-146,3,231,-1521,252,170,-242,175,-115,-375,37,-57,85,-29,-1132,141,-83,-361,472,-127,-404,-26,-146,-163,40,-384,-69,-344,-113,-341,-704,-455
65342,-120,32,245,-1508,277,199,-183,184,-115,-368,85,-115,104,0,-1128,193,-62,-329,487,-90,-365,2,-122,-145,82,-315,36,-329,-54,-227,-582,-300
65343,-115,17,221,-1518,271,207,-183,163,-119,-352,141,-183,83,-29,-1129,187,-81,-333,471,-110,-385,-12,-137,-146,82,-339,30,-360,-69,-270,-611,-365
65344,-123,-17,233,-1507,275,191,-318,175,-113,-356,90,-155,104,-24,-1125,169,-65,-329,496,-102,-409,-20,-126,-134,74,-358,-45,-353,-83,-287,-641,-537
65345,-113,16,255,-1481,277,194,-360,177,-106,-345,49,-85,123,-9,-1112,112,-24,-267,545,-98,-398,-65,-63,-105,103,-362,-20,-323,-91,-323,-678,-470
