,Fp1,Fp2,F7,F3,Fz,F4,F8,FC5,FC1,FC2,FC6,T7,C3,Cz,C4,T8,TP9,CP5,CP1,CP2,CP6,TP10,P7,P3,Pz,P4,P8,PO9,O1,Oz,O2,PO10
112007,-124,-575,363,293,-13,348,147,348,64,51,43,-100,199,703,196,1,-153,-334,132,88,49,26,-46,93,294,243,247,-107,10,-22,-8,164
112008,-48,-549,378,330,17,350,267,367,69,59,79,-98,194,717,210,-83,-186,-375,130,88,86,63,-57,88,294,256,280,-129,26,9,22,229
112009,40,-478,427,364,50,393,258,361,95,58,57,-93,222,712,182,-237,-172,-311,147,54,51,71,6,86,278,196,177,-132,3,-69,-124,-211
112010,9,-396,418,336,39,379,170,317,86,24,-1,-139,205,689,130,-273,-197,-321,104,6,-34,50,-54,67,246,146,113,-140,-17,-79,-126,-330
112011,-60,-409,358,340,18,380,123,286,45,9,-6,-174,213,687,138,-241,-214,-334,119,15,-39,130,-92,72,258,170,214,-167,-1,2,-3,18
112012,-166,-462,357,342,38,401,94,318,72,35,-1,-152,245,700,125,-267,-166,-297,165,26,-31,86,-78,115,274,187,300,-112,55,40,9,70
112013,-138,-451,404,332,36,385,103,294,52,43,-23,-164,214,677,95,-426,-184,-288,120,-20,-62,2,-102,87,239,128,218,-114,12,-55,-138,-55
112014,-24,-415,362,283,27,400,109,248,33,30,34,-161,187,670,120,-640,-215,-306,105,-29,63,-57,-121,69,231,137,232,-149,-12,-10,-62,71
112015,64,-399,358,263,44,426,151,274,31,43,28,-105,206,682,123,-186,-205,-291,108,-52,39,-38,-103,55,191,89,172,-217,-63,-106,-151,-21
112016,92,-433,354,268,24,428,160,311,1,29,-7,-64,228,661,52,295,-144,-268,90,-118,-239,-84,-34,70,160,-45,-81,-143,-80,-257,-372,-433
112017,16,-473,361,271,30,405,100,317,19,46,12,-58,229,662,81,125,-138,-231,101,-102,-252,-85,55,116,182,-42,-83,-137,-34,-168,-309,-428
112018,11,-452,432,288,46,438,70,316,57,77,82,-60,250,717,174,138,-137,-200,136,-42,-98,-65,127,183,227,29,22,-257,29,-106,-180,-188
112019,20,-446,451,264,23,445,176,273,60,66,51,-92,264,697,97,18,-126,-234,117,-77,-159,-41,70,121,196,1,-16,-150,-5,-133,-232,-265
112020,24,-471,453,274,32,433,230,296,53,46,15,-78,263,715,-6,-9,-107,-218,142,-100,-241,-26,-10,96,175,-60,-79,-45,-15,-176,-333,-474
112021,-55,-485,436,273,30,399,95,314,46,35,18,-97,258,723,58,8,-140,-230,147,-71,-188,-53,-32,122,200,-20,-43,-77,18,-118,-261,-352
112022,-87,-525,400,231,8,381,18,104,6,39,-4,-456,173,713,87,8,-174,-334,124,-44,-133,-69,-25,134,213,14,32,-125,66,-73,-203,-226
112023,-152,-570,377,235,-9,376,-15,178,28,22,10,-400,185,684,82,-15,-163,-301,129,-44,-136,-89,31,146,226,21,39,-116,77,-44,-183,-227
112024,-188,-561,313,252,18,369,-28,301,76,28,-40,-23,248,717,77,-64,-113,-187,140,-48,-141,-99,90,158,231,22,19,26,78,-12,-156,-216
112025,-155,-526,344,283,31,384,-10,231,78,45,-45,-266,220,703,98,-57,-123,-243,100,-24,-110,-73,58,122,229,33,58,12,76,-2,-156,-155
112026,-131,-552,421,318,15,353,6,255,51,31,-12,-241,197,684,123,-59,-176,-266,98,-15,-80,-44,29,115,233,88,85,-80,60,13,-69,-1
112027,-156,-569,328,307,17,343,6,234,41,45,-13,-231,222,718,186,-224,-148,-207,126,42,28,-40,95,159,278,158,161,-113,111,87,43,223
112028,-202,-600,286,317,3,308,-30,260,40,44,-73,-103,243,721,238,-406,-110,-151,150,81,159,-53,209,204,316,203,174,-139,168,111,66,159
112029,-165,-579,344,305,-12,284,16,319,35,29,-27,0,203,710,197,-419,-80,-324,113,57,190,-92,110,143,282,183,91,-57,109,28,-112,-276
112030,-111,-555,373,295,-21,265,53,335,53,30,-44,-34,247,714,134,-465,-57,-263,128,54,120,-101,194,145,286,180,121,59,118,24,-141,-347
112031,-80,-554,394,310,-27,327,99,329,37,85,17,-186,248,736,232,-49,-52,-261,159,115,-21,13,220,182,347,227,235,71,210,164,59,13
112032,-123,-569,345,287,-11,392,152,258,46,95,119,-139,225,729,251,167,-82,-311,140,127,-11,129,170,161,333,245,221,36,195,144,47,133
112033,-186,-629,210,244,-48,332,53,-56,24,57,14,-281,246,705,205,113,-173,-365,125,105,55,170,-54,123,293,255,278,76,141,67,0,240
112034,-193,-643,236,249,-24,327,104,-129,30,54,4,-329,304,726,199,103,-167,-384,139,108,64,191,-109,99,312,252,270,57,96,30,-54,90
112035,-254,-599,294,283,-28,343,135,413,7,52,-10,-131,190,718,212,153,-108,-385,116,97,42,159,-73,87,283,216,155,-60,23,-43,-170,-370
112036,-325,-611,309,215,-62,376,91,489,-21,71,79,-132,40,705,237,117,-104,-417,75,100,69,151,-83,54,282,239,202,-115,10,-25,-106,-226
112037,-305,-697,163,210,-54,380,85,277,0,93,79,-198,155,732,284,146,-150,-369,123,144,171,153,-98,84,329,316,317,-113,35,61,-2,-8
112038,-202,-728,230,237,-37,387,99,326,10,111,134,-97,192,761,300,141,-84,-327,145,153,178,178,-49,106,344,308,316,-55,42,22,-89,-185
112039,-154,-643,263,197,-77,383,99,257,-3,100,188,-111,186,760,312,169,-101,-352,129,157,189,165,-42,82,335,303,314,-80,32,-18,-72,-149
112040,-135,-607,305,203,-61,400,124,281,30,107,118,-102,234,785,310,84,-136,-300,169,159,188,104,54,146,344,339,289,-107,101,53,25,-14
112041,-207,-596,289,216,-46,382,104,284,41,108,62,-122,206,764,286,-246,-153,-326,155,156,202,141,49,131,350,334,277,71,114,103,76,142
112042,-238,-613,227,204,-61,367,53,261,25,93,22,-120,199,747,269,-449,-171,-298,131,141,218,109,116,104,329,312,263,209,90,73,14,136
112043,-209,-616,242,222,-39,324,84,255,22,78,14,-114,220,738,220,167,-169,-304,125,105,142,91,65,87,284,259,212,0,34,20,-88,34
112044,-201,-631,279,238,-54,343,101,214,33,88,37,-126,213,732,197,265,-175,-347,127,67,20,28,-83,69,287,243,193,-223,-10,54,8,191
112045,-171,-630,343,252,-54,348,53,263,20,80,-20,-121,190,721,210,-139,-179,-374,86,22,37,-109,-147,7,219,169,59,-398,-138,-132,-223,-285
112046,-106,-594,387,233,-26,362,60,296,33,75,24,-133,158,695,193,-236,-190,-385,45,-8,-13,-92,-124,-54,150,68,-89,-414,-232,-350,-516,-828
112047,-141,-607,334,264,-29,339,83,290,23,59,-38,-153,157,698,148,-27,-200,-356,51,-21,-123,-94,-90,-17,176,58,-62,-260,-146,-223,-340,-527
112048,-153,-578,367,309,-6,340,95,312,70,38,-31,-220,229,708,53,-98,-170,-334,78,-35,-154,-125,-86,35,209,75,11,-234,-82,-111,-219,-252
112049,-132,-570,352,293,-4,330,113,330,52,38,17,-258,268,711,75,-9,-210,-284,103,-55,-112,-145,-62,46,199,73,7,-390,-110,-163,-272,-250
112050,-106,-596,333,285,-5,317,39,277,34,33,-24,-493,222,686,59,10,-188,-312,75,-65,-154,-156,-83,27,149,9,-61,-365,-171,-263,-388,-479
112051,-133,-567,347,301,11,346,10,391,32,49,-87,-29,237,679,52,-60,-139,-280,53,-83,-193,-179,-118,9,136,-25,-97,-225,-156,-242,-410,-558
112052,-260,-595,363,314,3,317,-75,454,12,51,-155,139,250,689,48,-161,-179,-278,56,-77,-210,-168,-125,45,150,-19,-84,-246,-95,-167,-320,-377
112053,-290,-606,350,298,-10,324,-93,228,3,30,-119,-122,180,666,28,-211,-230,-309,41,-118,-217,-181,-82,33,132,-44,-116,-220,-108,-164,-332,-334
112054,-174,-589,391,323,2,327,-102,296,41,35,-182,-66,238,674,5,-253,-196,-227,72,-127,-277,-221,11,50,137,-87,-185,-224,-109,-199,-397,-502
112055,-137,-600,427,310,12,309,-88,348,71,36,-192,-73,250,680,-10,-263,-138,-267,62,-133,-274,-206,-3,42,130,-93,-192,-312,-102,-209,-388,-512
112056,-186,-592,382,291,17,283,-131,311,59,41,-189,-20,218,671,-29,-405,-138,-264,75,-116,-292,-268,87,85,138,-111,-204,-350,-67,-168,-351,-413
112057,-193,-610,334,332,19,264,-132,373,61,44,-236,32,269,695,-12,-609,-121,-222,100,-95,-230,-359,114,94,176,-100,-204,-222,-41,-120,-274,-359
112058,-169,-645,238,280,-1,225,-122,326,50,25,-216,-85,243,681,9,-788,-175,-279,79,-90,-169,-292,-37,79,187,-90,-178,-198,-29,-83,-219,-321
112059,-132,-651,283,261,-7,177,-168,225,42,29,-237,-311,209,711,82,-542,-173,-271,111,-46,-138,-225,-101,113,231,-29,-114,-153,35,-17,-141,-236
112060,-109,-649,325,269,-19,180,-159,233,36,32,-193,-328,209,724,120,-295,-201,-234,117,-46,-317,-229,-56,116,234,-32,-119,-151,55,15,-136,-210
112061,-144,-730,276,235,-47,225,-165,240,39,39,-120,-172,221,721,96,-252,-212,-192,117,-47,-272,-252,-18,115,223,-51,-94,-162,29,-54,-260,-273
112062,-156,-817,303,240,-59,239,-137,222,30,9,-111,-94,190,716,-5,-163,-195,-333,103,-89,-389,-237,-64,98,199,-105,-101,-158,43,-27,-233,-363
112063,-165,-899,293,236,-74,247,-134,193,15,13,-119,-135,154,694,8,-247,-200,-440,71,-80,-365,-336,-77,70,198,-82,-160,-193,62,7,-177,-284
112064,-185,-773,260,236,-49,278,-130,202,31,34,-88,-196,192,731,69,-192,-244,-313,113,-32,-263,-274,-28,113,253,-11,-113,-195,75,64,-96,-76
112065,-231,-727,252,219,-61,272,-98,252,17,12,-165,-206,182,737,69,-605,-237,-340,123,-19,-187,-228,-44,94,253,0,-70,-162,57,8,-171,-103
112066,-289,-754,253,211,-101,244,-137,263,21,5,-162,-198,190,736,98,-917,-241,-342,95,-17,-98,-278,-63,88,214,-20,-87,-152,41,-75,-293,-411
112067,-249,-740,315,245,-82,251,-101,107,51,22,-120,-225,311,749,103,-108,-225,-287,136,-17,-143,-203,23,126,221,-45,-149,-263,33,-139,-389,-588
112068,-213,-695,311,248,-77,277,-21,-124,76,39,-89,-291,354,756,89,275,-182,-266,157,-12,-346,-97,109,153,246,-56,-178,-192,73,-67,-293,-382
112069,-208,-700,304,241,-58,270,0,316,31,25,-82,-100,247,753,110,-110,-126,-287,144,7,-177,-94,-18,131,264,16,-81,19,87,-13,-223,-266
112070,-163,-662,356,213,-44,320,20,587,-19,61,-46,-31,109,768,179,-207,-109,-307,167,75,-8,-31,-9,189,342,134,76,126,234,134,-43,35
112071,-213,-681,357,237,-64,317,12,344,-7,60,-79,-124,216,746,153,100,-164,-294,181,97,-6,11,2,222,354,165,115,32,277,196,45,183
112072,-253,-670,284,232,-66,315,9,338,2,63,1,-136,230,740,145,188,-159,-278,190,72,-81,-62,40,223,345,126,18,25,254,134,-73,-131
112073,-253,-657,252,213,-61,313,10,287,-12,78,24,-159,220,729,191,-136,-195,-298,184,74,-52,-111,53,190,332,107,-21,-18,180,73,-154,-390
112074,-290,-666,259,213,-67,337,-29,233,-13,101,13,-237,215,736,257,-174,-253,-331,157,81,34,-68,2,140,290,125,46,-188,54,-50,-160,-200
112075,-276,-639,283,206,-42,370,37,203,13,110,11,-456,207,720,237,-59,-249,-339,162,69,64,-5,34,159,301,149,144,-242,63,-40,-136,-67
112076,-268,-647,294,194,-44,376,96,146,-3,87,35,-560,204,698,122,-4,-173,-320,153,42,-5,28,113,153,313,133,126,-128,90,-9,-152,-117
112077,-395,-687,196,223,-50,339,45,280,-2,70,28,66,248,715,148,31,-188,-235,164,39,14,35,120,184,301,166,182,-199,120,51,-26,203
112078,-540,-664,237,242,-42,336,67,283,16,88,17,-143,241,726,211,-1,-178,-249,188,74,100,49,128,215,341,263,299,-174,179,140,114,542
112079,-540,-633,165,236,-38,352,129,194,18,100,95,-187,202,695,222,95,-176,-305,162,67,74,118,18,145,313,224,222,-23,130,47,-45,76
112080,-381,-583,128,268,-10,392,183,196,0,93,152,-126,224,705,235,129,-115,-305,161,50,68,131,-18,140,296,153,87,19,97,-72,-317,-690
112081,-266,-568,159,274,-28,402,200,253,-1,74,193,-176,236,723,252,168,-40,-295,160,69,107,130,39,166,312,184,112,22,125,-27,-268,-614
112082,-168,-569,200,258,-39,381,156,259,-1,73,147,-146,249,724,255,219,-35,-274,180,117,186,169,77,177,357,273,262,33,181,94,-58,-155
112083,-137,-548,261,275,-13,390,230,306,-2,62,132,-70,262,724,261,146,0,-212,190,117,189,190,111,201,356,279,219,47,193,70,-43,-130
112084,-152,-550,327,280,0,392,247,238,22,55,113,-56,267,732,268,-53,33,-179,200,116,244,204,241,231,353,307,242,144,224,103,-26,-48
112085,-169,-579,291,303,-25,401,185,250,31,74,152,-33,261,728,285,-238,4,-173,201,123,311,116,282,243,358,317,236,-16,211,91,-54,-175
112086,-172,-624,203,293,-33,395,173,279,15,64,192,-46,253,725,301,280,-19,-215,198,152,248,112,158,225,373,331,344,8,184,91,-15,-121
112087,-118,-642,337,327,-22,391,229,358,56,68,182,28,292,746,263,557,43,-190,228,139,65,217,125,243,387,319,406,174,196,68,-34,-11
112088,-125,-728,373,312,-36,396,269,319,43,86,256,-85,304,765,318,413,38,-179,218,170,224,213,153,235,419,368,448,114,197,78,9,133
112089,-69,-615,432,321,-30,364,250,340,48,71,138,-165,305,776,284,188,53,-107,257,185,219,215,187,281,457,413,427,140,254,175,128,401
112090,-86,-525,418,276,-45,370,291,333,30,66,124,-75,299,765,265,59,66,-33,265,174,194,237,220,305,448,407,390,179,278,211,170,329
112091,-79,-513,416,260,-28,362,306,359,41,63,104,83,342,772,320,-178,112,-20,271,184,237,183,262,322,441,380,316,178,266,118,13,-161
112092,-53,-532,499,299,-43,314,215,462,42,54,37,195,323,776,323,-583,135,-176,234,166,261,121,270,279,397,336,266,116,229,65,-58,-261
112093,-84,-562,482,295,-43,282,145,429,34,72,80,120,311,757,262,-139,134,-187,226,157,274,211,229,248,392,364,392,256,257,148,70,112
112094,-111,-558,516,297,-47,341,213,381,24,58,129,70,298,740,182,587,92,-121,213,126,154,214,247,266,375,327,371,271,281,161,86,69
112095,-131,-533,511,296,-46,390,241,396,9,71,179,99,285,743,204,331,83,-121,185,88,49,125,285,258,341,271,268,204,241,114,48,-83
112096,-108,-565,464,309,-15,406,240,373,28,85,177,68,301,746,260,-14,91,-103,199,102,138,78,299,270,369,306,333,228,273,198,122,87
112097,-106,-626,449,300,-40,366,123,113,38,79,110,-134,360,718,253,-170,5,-122,168,89,172,-12,178,237,335,274,353,54,178,104,39,72
112098,-142,-637,415,278,-34,399,18,-12,57,101,89,-215,415,742,266,-98,-61,-137,156,70,87,84,117,193,297,196,269,-173,59,-9,-45,-80
112099,-209,-634,376,296,-25,383,86,476,35,89,26,39,298,723,209,36,15,-131,140,54,11,118,202,220,291,191,243,-37,119,23,6,154
112100,-283,-589,476,310,2,377,145,636,0,62,38,142,117,704,103,235,60,-205,92,20,-70,179,186,215,282,187,288,123,188,98,70,413
112101,-264,-578,445,273,-6,341,99,355,9,53,48,-133,186,675,101,143,-9,-176,92,-20,-119,37,183,184,222,116,155,106,120,-15,-106,93
112102,-177,-602,416,300,19,314,85,399,29,63,8,-13,240,698,129,-18,46,-140,104,-8,-114,-10,265,202,224,86,78,126,147,-44,-190,-263
112103,-131,-641,307,296,12,308,78,399,8,39,-12,229,213,649,78,-62,-33,-242,35,-60,-154,-34,150,137,178,37,31,20,53,-114,-267,-428
112104,-101,-620,342,292,27,314,80,359,21,44,-16,13,185,638,98,-110,-28,-264,38,-60,-131,8,68,120,162,35,29,13,44,-109,-233,-424
112105,-162,-643,372,306,10,309,51,362,10,42,-15,-4,181,657,120,-105,-31,-237,58,-45,-102,16,142,121,185,81,101,-103,57,-22,-100,-132
112106,-273,-656,378,296,-10,293,1,326,-7,33,-19,-73,162,652,113,-104,-116,-280,40,-39,-110,-24,117,86,176,78,111,-194,12,-48,-113,-51
112107,-265,-676,395,303,-5,275,-30,325,-1,24,-21,-57,168,667,125,-35,-153,-298,52,1,-60,-21,87,93,219,117,132,-109,53,-32,-111,0
112108,-137,-657,427,309,4,298,28,337,24,41,-20,-30,175,686,156,-70,-161,-325,53,34,-45,-18,43,71,232,140,110,-3,93,-27,-124,-89
112109,-89,-700,403,280,9,314,26,315,21,49,0,-79,161,684,191,-90,-185,-359,65,48,15,-1,-42,57,248,168,165,-94,70,43,11,134
112110,-52,-715,447,293,-2,299,17,322,16,36,-12,-150,158,692,177,-149,-216,-386,47,26,-9,9,-72,47,244,133,123,-125,3,-41,-91,171
112111,-63,-669,459,323,8,318,25,386,22,36,-44,-85,173,702,162,-370,-188,-384,35,9,-9,-6,-22,43,213,93,0,-110,-31,-161,-330,-352
112112,-60,-638,400,320,16,313,43,345,17,26,-44,-84,171,698,144,-440,-205,-413,28,0,37,-30,-45,13,188,61,-59,-184,-85,-233,-435,-670
112113,-55,-641,377,315,15,339,80,315,20,53,107,-188,178,688,190,-14,-204,-417,36,-9,-49,-66,-122,12,191,82,-7,-223,-98,-225,-347,-458
112114,-88,-636,338,306,15,340,77,368,29,37,54,-260,193,679,143,8,-248,-388,53,-21,-206,-43,-170,4,201,44,20,-254,-100,-196,-306,-381
112115,-110,-658,349,317,-2,312,61,341,27,24,-46,-258,201,686,120,-201,-280,-363,66,1,-113,-59,-82,33,238,70,54,-331,-91,-180,-274,-341
112116,-90,-637,366,290,-25,338,72,169,8,52,-5,-291,144,692,150,-79,-285,-404,48,12,-99,-60,-73,41,223,90,24,-363,-42,-130,-254,-279
112117,-123,-636,341,308,-14,332,52,229,17,27,12,-252,133,679,162,-105,-273,-455,48,10,-83,-72,-155,-11,211,85,-22,-137,-57,-101,-248,-272
112118,-163,-646,348,311,1,315,-19,268,14,56,46,-162,184,708,198,-511,-196,-414,79,38,13,-118,-8,33,245,126,30,-108,-30,-89,-212,-264
112119,-169,-752,332,269,-24,350,14,231,2,64,12,-155,190,725,209,-409,-192,-363,79,48,99,-96,54,66,276,168,100,-213,10,-84,-212,-203
112120,-169,-759,302,275,-16,360,47,260,-1,57,68,-134,185,722,215,238,-185,-349,109,62,59,-31,30,91,285,167,109,-200,29,-46,-182,-176
112121,-233,-665,341,274,-26,387,159,276,12,45,171,-152,172,727,230,224,-187,-404,101,50,-13,27,-115,60,283,153,85,-99,1,3,-117,-101
112122,-281,-580,365,303,9,414,195,264,36,60,111,-168,207,715,212,-1,-112,-381,105,53,8,60,-79,79,305,179,96,-148,25,-21,-160,-184
112123,-291,-549,288,277,0,420,195,200,19,76,66,-130,200,707,257,-80,-30,-337,145,83,88,85,30,109,327,230,137,1,144,62,-89,-174
112124,-212,-577,331,257,-5,431,207,218,19,82,116,-135,195,714,341,-51,-59,-314,141,109,200,129,80,137,354,298,249,43,197,145,48,27
112125,-108,-525,346,274,-6,441,157,252,9,87,157,-193,212,720,312,226,-19,-241,156,123,189,200,136,186,380,326,321,84,236,196,157,271
112126,-67,-544,289,242,-16,444,186,249,27,86,210,-219,234,740,245,296,36,-143,169,127,107,219,230,237,414,332,376,151,292,290,236,435
112127,-121,-608,280,247,-24,411,144,289,29,91,128,-59,273,752,291,75,91,-74,210,135,154,215,266,243,408,340,344,46,205,199,123,210
112128,-171,-634,304,289,-14,398,141,295,54,104,164,20,296,778,354,101,153,-149,226,165,189,229,278,266,410,313,280,138,246,162,-21,-174
112129,-228,-698,243,257,-53,344,183,238,41,90,131,8,291,754,367,234,134,-198,223,195,231,275,305,297,437,376,375,175,311,261,142,184
112130,-228,-668,247,261,-66,330,225,289,33,54,91,45,324,757,295,166,178,-96,239,184,220,296,368,350,457,397,428,106,353,313,240,344
112131,-102,-548,327,325,-15,405,349,333,48,72,198,66,298,753,285,-47,220,-178,204,164,263,275,336,313,409,365,366,119,326,224,69,-45
112132,56,-384,312,349,24,450,419,295,48,77,226,-284,260,728,317,-71,225,-188,174,146,298,264,297,268,376,329,342,290,293,166,-33,-251
112133,123,-366,266,363,29,450,398,370,40,60,217,10,308,705,282,366,213,-121,183,119,157,262,326,301,372,287,289,290,283,153,-32,-97
112134,108,-366,356,352,48,435,385,424,70,54,181,259,349,716,247,480,192,-73,203,112,35,239,365,332,369,252,234,257,310,183,30,85
112135,1,-369,392,332,46,412,386,362,71,53,193,25,302,742,274,324,155,-141,189,135,173,237,319,312,394,305,352,171,330,250,150,316
112136,-118,-470,286,315,10,391,301,160,54,50,142,-71,304,730,230,247,136,-172,192,107,128,171,302,302,380,280,302,213,341,272,155,238
112137,-74,-478,273,303,24,408,279,-113,59,56,157,-161,349,714,228,224,110,-176,166,87,86,174,280,284,337,223,208,154,267,171,13,-143
112138,-37,-482,258,301,18,429,308,149,67,54,203,-60,323,712,203,167,81,-167,154,71,69,175,276,249,329,206,215,122,233,108,-52,-170
112139,4,-410,370,307,36,448,315,630,14,59,212,90,125,699,193,66,119,-190,123,70,38,163,284,235,329,211,207,127,240,126,-38,-115
112140,-54,-432,418,296,37,425,245,404,2,62,205,12,166,705,188,-34,100,-188,111,48,38,123,274,240,292,181,153,123,251,138,-42,-172
112141,-25,-423,383,304,50,442,263,333,17,44,138,-9,224,699,159,-197,79,-200,112,43,88,101,254,236,305,177,143,130,231,112,-47,-111
112142,-54,-453,365,283,44,438,270,336,-6,41,94,-12,202,693,142,-289,49,-212,105,36,150,107,226,206,272,162,154,136,230,99,-58,-80
112143,-69,-491,357,286,56,436,221,331,-6,34,122,-59,208,682,167,181,35,-209,104,-1,23,134,227,197,254,130,135,180,234,120,-67,-90
112144,-25,-459,385,320,60,461,248,349,15,38,162,-100,216,662,130,317,1,-175,95,-21,-180,96,262,184,244,103,86,193,213,116,-67,-91
112145,-20,-455,339,330,54,454,287,316,12,37,114,-89,198,657,117,-251,-62,-226,60,-37,-44,131,172,130,220,98,84,-21,139,49,-94,-75
112146,-96,-471,382,361,67,470,309,364,29,47,123,21,212,657,160,-471,-24,-270,79,0,60,157,87,153,239,139,118,-39,161,107,-29,12
112147,-149,-510,384,337,50,486,234,379,30,39,121,32,219,662,168,-39,-19,-265,82,7,32,172,146,185,261,171,176,73,232,187,65,184
112148,-18,-555,403,371,75,500,241,455,56,41,146,36,232,686,165,-22,-34,-221,118,13,-61,182,243,238,283,184,264,-110,257,230,145,400
112149,13,-624,441,383,60,491,250,506,50,41,154,54,242,681,207,49,-61,-229,89,28,40,149,187,205,291,209,342,40,239,253,170,513
112150,78,-466,548,383,60,501,240,439,22,56,168,22,210,657,199,179,-21,-283,58,37,52,110,118,140,256,190,285,193,216,174,24,160
112151,173,-328,588,418,99,537,331,439,50,75,186,15,216,661,207,276,35,-270,66,13,41,152,145,161,251,161,150,239,215,68,-158,-416
112152,170,-313,632,420,95,552,369,464,47,88,189,45,214,664,238,358,-3,-253,66,27,83,197,156,154,244,193,216,188,205,96,-55,-224
112153,198,-311,624,417,85,536,347,435,31,82,177,68,173,643,200,142,-19,-239,46,17,52,219,203,128,238,179,219,57,150,57,-90,-39
112154,268,-270,653,448,97,545,399,495,33,98,249,188,205,667,232,179,25,-228,64,36,81,275,208,157,266,202,217,74,166,78,-80,-23
112155,302,-245,777,485,130,552,402,574,35,93,251,133,227,678,242,136,68,-245,68,28,90,263,191,179,257,208,198,48,200,108,-60,-68
112156,248,-280,716,462,120,532,318,503,34,105,217,67,228,669,302,-101,42,-251,71,48,163,202,142,168,267,230,212,71,206,150,1,12
