,Fp1,Fp2,F7,F3,Fz,F4,F8,FC5,FC1,FC2,FC6,T7,C3,Cz,C4,T8,TP9,CP5,CP1,CP2,CP6,TP10,P7,P3,Pz,P4,P8,PO9,O1,Oz,O2,PO10
30035,-355,-534,-306,-192,-291,-10,-258,-33,73,-13,-262,-379,202,299,-30,-220,-327,-281,-15,-154,-213,-314,-98,77,224,133,-210,-254,-116,-120,-217,-414
30036,-361,-506,-410,-187,-283,-16,-248,31,76,-16,-223,-378,206,292,-13,-189,-316,-285,-4,-166,-185,-275,-54,70,235,139,-101,-290,-102,-127,-226,-504
30037,-434,-512,-480,-184,-287,94,-285,94,66,-16,-177,-394,201,303,4,-219,-352,-290,-4,-158,-150,-168,-61,68,240,169,6,-323,-131,-135,-246,-487
30038,-536,-540,-441,-143,-294,93,-479,197,68,-16,-207,-380,228,290,-26,-334,-322,-279,13,-177,-207,-196,-57,78,233,131,-115,-277,-138,-134,-233,-263
30039,-560,-678,-418,-148,-299,200,-598,120,60,7,-127,-359,193,280,-8,-354,-398,-285,-15,-191,-238,-211,-106,50,202,105,-276,-283,-143,-122,-232,-41
30040,-502,-881,-344,-148,-283,301,-581,-33,54,26,-75,-311,162,282,10,-307,-410,-291,-13,-180,-242,-232,-150,57,224,115,-298,-276,-139,-118,-225,-69
30041,-428,-680,-312,-199,-279,309,-470,-58,39,50,-41,-259,180,289,26,-273,-349,-271,-8,-164,-247,-237,-80,97,241,113,-301,-199,-102,-116,-208,-182
30042,-292,-471,-300,-199,-252,161,-360,-50,58,24,-83,-297,197,306,51,-259,-282,-255,1,-178,-219,-169,-40,125,250,130,-256,-173,-79,-112,-213,-207
30043,-284,-424,-340,-179,-283,140,-266,-55,68,1,-221,-351,206,295,9,-283,-271,-269,-2,-169,-220,-121,-32,113,247,138,-234,-217,-76,-89,-199,-191
30044,-328,-353,-364,-195,-295,63,-220,-14,62,-21,-280,-381,193,255,-33,-322,-285,-282,-19,-199,-240,-156,-40,81,207,116,-233,-301,-102,-92,-193,-218
30045,-346,-348,-316,-177,-289,31,-184,-49,64,-32,-277,-334,215,289,-16,-230,-263,-263,5,-181,-204,-279,-20,92,226,149,-190,-245,-62,-57,-132,-179
30046,-331,-312,-241,-179,-288,-28,-150,-85,40,-45,-258,-264,214,308,11,-190,-215,-242,13,-138,-164,-269,26,116,261,205,-105,-251,-45,-27,-112,-365
30047,-334,-328,-275,-151,-282,-68,-148,-9,78,-25,-213,-248,220,303,33,-265,-160,-188,22,-121,-103,-61,78,143,286,216,34,-315,-29,-24,-123,-337
30048,-314,-325,-359,-149,-286,-70,-184,40,91,-33,-239,-254,237,300,4,-508,-133,-167,25,-154,-149,-22,176,152,280,171,-133,-372,7,-25,-137,-83
30049,-344,-288,-377,-118,-291,-64,-208,47,84,-45,-272,-275,253,297,-1,-434,-190,-177,33,-151,-181,-27,221,158,269,150,-169,-289,-8,-50,-137,-131
30050,-337,-256,-310,-107,-273,-26,-175,3,103,-31,-271,-292,245,324,10,-164,-215,-177,33,-133,-193,-79,205,187,282,168,-162,-166,11,-36,-142,-153
30051,-294,-227,-255,-102,-287,18,-132,-34,101,-35,-269,-294,228,304,-5,-191,-212,-211,26,-149,-248,-135,60,140,270,136,-203,-274,-32,-68,-156,-179
30052,-310,-299,-208,-106,-267,16,-152,-5,98,-29,-281,-265,247,312,12,-397,-217,-201,39,-140,-169,-182,51,134,263,163,-133,-310,-46,-49,-147,-228
30053,-285,-332,-189,-147,-262,22,-223,-14,79,-9,-272,-285,236,309,26,-286,-241,-208,36,-148,-147,-162,20,133,254,172,-88,-177,-34,-27,-119,-208
30054,-232,-344,-158,-160,-255,74,-260,-33,68,-15,-219,-284,222,280,-4,-66,-315,-241,-2,-184,-256,-196,-44,114,216,114,-181,-204,-76,-71,-169,-257
30055,-218,-393,-267,-216,-254,167,-317,-12,77,0,-156,-304,210,287,-12,-151,-355,-265,1,-163,-300,-168,-71,105,239,117,-197,-229,-67,-63,-167,-187
30056,-267,-490,-403,-174,-265,189,-254,8,68,15,-114,-325,240,303,29,-295,-349,-252,21,-154,-228,-159,-54,114,262,150,-132,-157,-36,-28,-127,-154
30057,-362,-677,-392,-97,-260,153,-327,28,73,-11,-138,-288,233,283,22,-287,-404,-263,-1,-163,-195,-94,-85,112,233,167,-91,-179,-27,-26,-135,-120
30058,-383,-628,-340,-129,-256,177,-381,46,77,7,-120,-272,219,290,40,-266,-406,-259,7,-137,-163,-105,-69,116,246,161,-128,-201,-27,-14,-103,-1
30059,-370,-488,-360,-150,-282,135,-413,17,56,6,-141,-307,212,274,29,-215,-311,-244,3,-147,-204,-173,-10,122,236,132,-246,-228,-37,-22,-117,-93
30060,-367,-388,-316,-118,-259,82,-461,-14,88,2,-191,-332,214,289,4,-239,-254,-239,-8,-161,-234,-238,29,105,230,103,-220,-333,-92,-124,-222,-476
30061,-339,-317,-290,-151,-280,178,-443,-62,69,12,-64,-359,186,283,51,-281,-301,-273,-32,-150,-213,-220,14,82,217,111,-142,-384,-132,-162,-254,-388
30062,-291,-351,-314,-155,-273,176,-407,-43,47,27,-84,-358,183,286,57,-278,-297,-274,-23,-154,-222,-204,11,84,219,112,-246,-292,-88,-68,-139,-26
30063,-318,-395,-322,-128,-276,180,-360,30,47,9,-219,-409,198,279,24,-315,-307,-290,-23,-192,-242,-225,-24,75,203,90,-303,-348,-113,-86,-182,-85
30064,-301,-365,-376,-176,-253,120,-223,30,49,7,-200,-394,199,295,48,-280,-327,-297,-21,-157,-185,-215,-43,81,208,124,-173,-279,-103,-79,-173,-193
30065,-309,-403,-398,-216,-272,46,-213,-56,46,-14,-235,-425,180,277,50,-238,-371,-318,-40,-164,-157,-261,-78,81,218,155,-55,-235,-110,-44,-142,-211
30066,-341,-323,-398,-186,-269,12,-190,-66,52,4,-245,-381,183,273,41,-219,-347,-329,-42,-159,-142,-251,-87,92,214,165,-26,-207,-98,-12,-137,-142
30067,-342,-315,-396,-206,-265,72,-178,-46,40,0,-250,-348,171,267,14,-245,-332,-321,-42,-159,-173,-230,-121,66,206,140,-124,-168,-96,-51,-136,-64
30068,-369,-247,-395,-154,-271,117,-214,-11,67,0,-204,-334,187,276,5,-267,-282,-283,-20,-179,-211,-229,-86,78,218,101,-254,-75,-34,-69,-150,-116
30069,-423,-247,-425,-107,-268,116,-268,-1,72,8,-193,-302,215,263,5,-268,-274,-257,-3,-197,-219,-229,43,125,227,107,-255,-48,3,-54,-146,-128
30070,-412,-305,-458,-96,-268,93,-238,23,49,4,-215,-317,208,281,-3,-255,-264,-257,-29,-199,-219,-243,51,131,209,110,-200,-239,-25,-64,-177,-201
30071,-337,-352,-433,-84,-249,82,-170,82,71,-12,-220,-294,209,274,-19,-260,-248,-264,-27,-203,-226,-248,26,96,191,96,-272,-319,-66,-78,-186,-314
30072,-299,-295,-358,-94,-238,68,-162,25,63,-21,-240,-284,183,251,-8,-226,-299,-263,-39,-217,-210,-202,-7,76,157,105,-269,-234,-65,-94,-202,-294
30073,-314,-310,-269,-118,-237,102,-175,-29,50,-18,-206,-235,184,268,-14,-247,-362,-272,-58,-218,-200,-286,-29,86,177,106,-210,-191,-64,-87,-178,-334
30074,-292,-414,-189,-162,-232,207,-171,-26,59,5,-129,-198,189,265,26,-420,-395,-277,-58,-201,-142,-241,-4,89,178,114,-140,-489,-99,-96,-195,-372
30075,-270,-459,-212,-181,-244,154,-205,-67,53,-16,-238,-225,179,257,14,-477,-235,-232,-63,-212,-152,-191,115,100,163,80,-148,-543,-107,-109,-210,-344
30076,-287,-431,-253,-190,-250,142,-296,-107,46,-9,-241,-277,162,262,2,-231,-326,-242,-59,-211,-187,-243,74,77,161,103,-133,-480,-77,-95,-181,-332
30077,-311,-368,-290,-198,-263,77,-328,-105,33,-10,-208,-334,156,251,-41,-87,-336,-231,-44,-220,-272,-207,89,94,166,77,-206,-522,-99,-110,-218,-252
30078,-288,-319,-396,-184,-268,88,-361,-79,36,-9,-241,-371,162,267,-40,-245,-207,-236,-43,-235,-308,-237,140,107,175,61,-369,-467,-84,-145,-232,-280
30079,-297,-312,-375,-185,-251,116,-405,-50,50,11,-225,-333,181,281,-1,-331,-232,-215,-24,-205,-263,-314,164,142,188,66,-389,-208,-34,-141,-219,-348
30080,-316,-305,-361,-173,-263,46,-366,-24,44,-10,-193,-334,177,258,-2,-344,-329,-214,-62,-206,-259,-311,95,97,191,69,-345,-449,-61,-124,-240,-289
30081,-314,-361,-342,-183,-282,33,-349,-16,36,-9,-213,-317,171,260,3,-325,-452,-293,-67,-199,-231,-274,-60,52,193,77,-233,-358,-114,-134,-246,-458
30082,-350,-394,-344,-219,-292,81,-335,-61,35,-11,-211,-371,146,263,-2,-324,-526,-360,-74,-216,-225,-311,-209,8,151,97,-150,-154,-150,-134,-227,-486
30083,-369,-370,-320,-191,-266,85,-346,-44,53,4,-216,-429,159,285,-5,-281,-512,-365,-43,-206,-245,-244,-236,22,160,73,-279,-41,-119,-99,-197,-117
30084,-385,-394,-372,-216,-283,68,-317,-65,51,-19,-266,-484,142,277,-13,-278,-491,-395,-55,-202,-220,-148,-283,19,162,92,-229,-79,-142,-100,-208,-275
30085,-336,-343,-406,-123,-258,38,-244,4,63,-31,-337,-434,192,282,-11,-269,-314,-326,-21,-172,-170,-127,-198,70,206,158,-88,-11,-83,-65,-176,-208
30086,-293,-343,-384,-159,-252,1,-161,-7,64,-24,-283,-389,195,265,-8,-303,-350,-319,-27,-180,-230,-173,-177,62,201,106,-183,-145,-137,-126,-225,-138
30087,-244,-352,-388,-151,-271,59,-203,48,76,-5,-258,-369,196,281,7,-273,-453,-326,-26,-192,-218,-210,-222,69,194,103,-235,-234,-151,-121,-229,-104
30088,-303,-392,-373,-167,-278,44,-313,32,47,-14,-248,-373,177,281,6,-240,-389,-312,-33,-183,-168,-192,-148,68,202,127,-69,-257,-124,-91,-209,-195
30089,-401,-468,-310,-137,-292,134,-363,39,31,-1,-248,-357,176,281,8,-291,-431,-308,-38,-188,-177,-235,-150,65,172,131,-26,-269,-137,-122,-222,-303
30090,-468,-491,-374,-124,-286,170,-371,9,43,18,-251,-388,179,294,14,-481,-442,-310,-37,-195,-183,-209,-152,57,162,121,-145,-223,-143,-121,-199,-264
30091,-446,-540,-446,-102,-277,79,-345,-23,63,7,-183,-357,199,302,17,-374,-406,-292,-20,-187,-179,-154,-58,65,184,133,-174,-228,-107,-88,-170,-124
30092,-402,-630,-356,-102,-259,193,-301,13,58,4,-182,-269,182,273,-12,-178,-301,-262,-27,-187,-230,-166,-7,66,161,94,-176,-356,-131,-128,-240,-127
30093,-350,-591,-325,-113,-266,193,-292,42,47,3,-223,-241,204,276,-9,-166,-297,-237,-55,-223,-286,-164,64,74,173,60,-232,-276,-103,-161,-260,-170
30094,-304,-467,-298,-129,-275,110,-247,42,47,2,-228,-225,224,280,-2,-195,-242,-223,-36,-197,-264,-123,97,101,210,102,-233,-312,-106,-142,-231,-96
30095,-302,-276,-232,-144,-277,39,-191,-47,38,-3,-243,-290,196,263,0,-178,-261,-261,-26,-188,-185,-78,48,78,186,109,-218,-401,-161,-166,-268,-61
30096,-240,-213,-185,-164,-270,56,-256,-107,46,-5,-186,-266,193,292,34,-191,-260,-264,-19,-178,-186,-58,-18,75,191,121,-212,-188,-163,-178,-283,-152
30097,-195,-204,-215,-181,-275,17,-369,-83,29,-11,-146,-235,190,293,33,-196,-295,-257,-32,-185,-179,-60,-59,52,182,123,-166,-210,-173,-173,-272,-313
30098,-263,-325,-254,-183,-280,53,-329,-96,31,4,-122,-339,192,291,38,-210,-343,-288,-28,-177,-152,-134,-117,35,203,134,-43,-263,-172,-169,-267,-413
30099,-351,-414,-370,-191,-306,97,-319,-101,21,-7,-25,-443,176,280,46,-244,-295,-325,-48,-181,-184,-245,-159,15,173,113,-115,-224,-197,-188,-281,-207
30100,-318,-412,-419,-161,-287,79,-259,-30,36,8,-73,-417,189,295,42,-169,-249,-313,-49,-195,-203,-299,-119,32,157,84,-258,-270,-211,-215,-305,-164
30101,-310,-470,-407,-186,-280,128,-270,74,48,-13,-213,-348,219,281,-30,-165,-297,-283,-41,-224,-257,-241,-89,35,156,56,-254,-259,-190,-206,-303,-177
30102,-344,-489,-426,-147,-294,144,-286,127,50,-17,-248,-334,232,295,-44,-284,-338,-258,-15,-200,-280,-180,-80,61,174,58,-221,-245,-189,-200,-283,-170
30103,-364,-469,-505,-137,-273,126,-299,119,68,11,-223,-309,236,305,11,-334,-302,-272,3,-169,-271,-162,-91,67,190,86,-278,-146,-148,-174,-279,-222
30104,-289,-372,-386,-138,-254,119,-269,105,73,9,-216,-244,255,332,13,-302,-255,-198,24,-153,-273,-279,-5,118,210,86,-338,-30,-105,-166,-262,-214
30105,-252,-307,-262,-150,-276,80,-231,43,46,0,-225,-287,241,314,26,-421,-350,-233,-7,-163,-212,-234,-40,77,209,104,-268,-288,-166,-147,-239,-174
30106,-223,-275,-230,-147,-276,81,-153,-23,57,2,-251,-323,218,319,42,-414,-387,-275,-5,-172,-151,-260,-75,71,215,155,-173,-270,-157,-123,-213,-277
30107,-258,-320,-202,-157,-280,75,-197,-78,62,-6,-255,-322,220,320,34,-216,-312,-233,-5,-156,-159,-250,26,104,218,151,-76,-179,-72,-103,-178,-256
30108,-265,-303,-190,-169,-259,112,-129,-91,51,22,-207,-287,215,297,17,-33,-240,-235,-27,-181,-220,-76,70,94,211,121,-74,-237,-67,-93,-193,-120
30109,-281,-308,-232,-166,-244,120,-93,-85,46,26,-182,-286,215,300,23,-93,-216,-242,-12,-179,-231,-124,32,85,190,121,-163,-213,-72,-91,-196,-16
30110,-279,-286,-267,-165,-254,63,-120,-66,59,3,-204,-303,205,289,7,-161,-267,-263,-37,-195,-219,-104,-17,43,166,91,-229,-323,-164,-172,-270,-148
30111,-238,-314,-226,-137,-286,42,-173,-28,53,-32,-253,-252,223,271,-6,-190,-198,-226,-35,-204,-230,-121,45,66,166,91,-153,-333,-149,-170,-269,-230
30112,-303,-409,-267,-141,-289,37,-225,60,57,-23,-254,-256,227,277,6,-179,-195,-210,-26,-184,-172,-101,107,98,187,129,24,-337,-102,-157,-233,-280
30113,-369,-413,-390,-135,-296,76,-267,141,54,0,-184,-324,239,277,23,-170,-313,-235,-34,-177,-146,-57,34,72,164,147,42,-311,-118,-174,-248,-233
30114,-407,-475,-410,-125,-289,167,-379,174,55,12,-136,-310,244,282,15,-278,-297,-254,-27,-205,-222,-55,-12,60,147,99,-173,-210,-141,-188,-281,-286
30115,-400,-522,-329,-198,-288,159,-352,91,38,2,-174,-255,228,269,5,-299,-288,-249,-38,-212,-246,-116,-39,64,157,74,-232,-114,-131,-187,-282,-546
30116,-459,-475,-372,-127,-271,130,-322,78,65,28,-177,-263,225,293,34,-220,-280,-258,-35,-205,-178,-111,-96,40,165,117,-56,-175,-163,-202,-297,-515
30117,-503,-531,-406,-58,-284,104,-364,56,71,15,-181,-339,220,269,0,-287,-281,-283,-58,-215,-239,-193,-92,25,147,75,-142,-161,-164,-192,-300,-154
30118,-392,-531,-366,-144,-288,74,-291,12,57,5,-171,-318,204,282,-26,-318,-318,-296,-63,-216,-269,-237,-137,19,132,43,-258,-196,-186,-224,-320,-16
30119,-409,-531,-322,-156,-312,54,-388,-9,39,-11,-186,-287,193,290,-6,-392,-314,-302,-61,-199,-279,-225,-148,15,140,60,-327,-144,-137,-177,-275,64
30120,-398,-468,-341,-166,-309,70,-425,2,62,3,-210,-253,184,295,1,-399,-405,-326,-43,-208,-273,-175,-163,19,140,40,-332,-189,-135,-171,-279,-30
30121,-283,-361,-304,-184,-272,85,-366,42,66,17,-151,-239,189,298,1,-307,-408,-301,-56,-219,-277,-177,-131,18,139,25,-358,-230,-191,-221,-328,-197
30122,-281,-346,-332,-214,-283,53,-256,62,47,-16,-263,-248,182,267,-46,-272,-342,-292,-97,-272,-307,-94,-141,-10,85,0,-334,-186,-237,-261,-350,-188
30123,-471,-381,-533,-170,-284,80,-223,160,81,-29,-364,-319,200,258,-90,-311,-261,-289,-97,-304,-300,-120,-73,-13,59,-14,-306,-137,-220,-278,-369,-198
30124,-542,-395,-596,-166,-279,103,-278,128,69,-41,-249,-373,187,221,-91,-358,-253,-309,-116,-303,-299,-155,-15,-2,41,-27,-262,-142,-197,-278,-394,-296
30125,-405,-381,-476,-140,-264,105,-345,54,74,-11,-151,-375,177,234,-40,-293,-340,-311,-113,-277,-250,-121,-55,-6,56,10,-158,-338,-235,-278,-379,-282
30126,-350,-378,-358,-109,-267,106,-394,31,63,-7,-239,-393,164,240,-51,-268,-391,-342,-112,-303,-269,-157,-102,-47,45,-16,-194,-418,-305,-320,-413,-262
30127,-293,-429,-318,-168,-250,154,-340,-31,42,1,-189,-388,157,255,-15,-253,-335,-325,-114,-263,-244,-194,-101,-27,58,-16,-207,-293,-262,-316,-400,-295
30128,-340,-496,-264,-176,-270,147,-223,-76,38,-6,-198,-375,157,247,-8,-305,-271,-308,-105,-254,-244,-212,-25,9,91,31,-214,-263,-209,-276,-362,-221
30129,-329,-495,-182,-172,-281,141,-169,-120,38,0,-229,-348,146,274,0,-574,-298,-310,-75,-227,-159,-272,-50,15,126,81,-181,-240,-194,-209,-299,-130
30130,-291,-506,-180,-183,-275,101,-171,-132,23,2,-245,-397,139,263,25,-509,-311,-282,-87,-201,-96,-285,-42,22,139,117,-81,-197,-148,-162,-259,-241
30131,-248,-415,-196,-221,-295,87,-216,-130,20,-11,-227,-398,133,260,8,-107,-269,-297,-91,-211,-125,-161,-11,29,128,109,20,-343,-195,-189,-284,-161
30132,-214,-308,-170,-188,-271,27,-314,-83,18,-36,-206,-309,163,261,-63,-29,-232,-280,-90,-258,-338,-200,35,12,93,-9,-228,-416,-228,-235,-337,-165
30133,-251,-301,-204,-146,-260,9,-411,-12,46,-23,-169,-273,210,266,-62,-227,-242,-252,-80,-274,-388,-356,83,16,98,-39,-336,-564,-221,-284,-378,-416
30134,-352,-379,-340,-173,-284,20,-411,45,37,-23,-176,-320,212,286,0,-188,-180,-196,-50,-233,-214,-400,241,78,121,44,-70,-523,-140,-259,-364,-555
30135,-550,-432,-375,-160,-303,79,-425,96,32,-23,-178,-387,173,265,-34,-187,-357,-266,-86,-282,-259,-431,81,18,85,-15,-204,-466,-228,-403,-513,-667
30136,-618,-495,-338,-149,-306,102,-381,31,36,-15,-166,-384,139,271,-39,-268,-378,-320,-99,-267,-282,-413,-64,-38,88,-18,-291,-710,-273,-337,-434,-661
30137,-539,-583,-341,-123,-304,145,-279,-66,30,-9,-218,-369,115,265,-18,-231,-451,-378,-133,-246,-226,-309,-195,-83,71,4,-119,-986,-413,-408,-499,-782
30138,-366,-496,-398,-201,-310,59,-216,-107,0,-32,-269,-327,106,272,-28,-234,-464,-342,-116,-254,-241,-229,-142,-70,72,-17,-194,-675,-369,-415,-524,-483
30139,-353,-571,-444,-241,-324,117,-219,-108,-7,-17,-243,-359,98,278,-15,-263,-501,-355,-112,-235,-223,-333,-156,-30,85,4,-250,-304,-246,-285,-390,-452
30140,-521,-603,-520,-238,-316,141,-253,-67,8,-13,-131,-409,97,277,21,-179,-420,-394,-142,-215,-122,-418,-187,-75,67,53,-37,-359,-307,-324,-432,-835
30141,-628,-781,-590,-271,-301,331,-436,-21,-4,37,8,-444,89,264,39,-169,-388,-408,-166,-224,-118,-570,-153,-122,29,49,119,-474,-346,-370,-475,-893
30142,-504,-777,-628,-251,-323,280,-461,11,5,11,-170,-468,93,240,-22,-327,-385,-377,-149,-256,-228,-532,38,-82,35,-3,-141,-592,-293,-324,-406,-400
30143,-475,-792,-581,-179,-307,239,-421,-14,22,6,-288,-478,87,252,-64,-434,-549,-447,-169,-283,-358,-333,-159,-140,14,-70,-504,-313,-346,-365,-455,-88
30144,-521,-686,-462,-188,-303,165,-430,-105,8,0,-337,-452,80,255,-106,-465,-590,-456,-194,-301,-398,-371,-342,-161,-8,-79,-566,-337,-356,-387,-484,-291
30145,-398,-346,-368,-118,-276,8,-327,-44,64,8,-333,-370,133,269,-75,-405,-508,-420,-167,-264,-317,-377,-270,-101,47,-31,-394,-347,-324,-358,-455,-447
30146,-302,-252,-362,-179,-278,-5,-288,-58,41,-33,-300,-359,115,265,-39,-335,-506,-445,-157,-255,-284,-314,-320,-125,51,-26,-385,-184,-316,-331,-427,-177
30147,-275,-181,-321,-157,-283,0,-214,-39,22,-2,-213,-355,132,266,-10,-322,-349,-411,-154,-230,-294,-259,-245,-93,59,-28,-540,-265,-278,-309,-404,-20
30148,-247,-141,-214,-135,-277,-9,-142,-28,18,-4,-249,-335,142,254,1,-284,-299,-354,-145,-220,-226,-113,-120,-54,78,35,-296,-464,-281,-295,-400,-156
30149,-189,-110,-178,-125,-260,-37,-117,-26,42,-21,-354,-285,152,269,-42,-312,-275,-338,-111,-239,-246,-79,-111,-42,90,53,-190,-501,-292,-264,-373,-154
30150,-217,-157,-188,-145,-267,1,-136,-17,41,-7,-310,-250,153,257,-19,-353,-376,-366,-127,-252,-273,-178,-244,-56,66,40,-349,-389,-283,-242,-334,-6
30151,-353,-177,-118,-140,-267,55,-191,2,47,8,-259,-210,168,255,0,-364,-484,-379,-113,-233,-271,-164,-337,-68,73,29,-457,-180,-271,-238,-344,55
30152,-419,-322,-161,-153,-270,47,-326,-5,25,3,-219,-272,170,263,-16,-324,-432,-390,-115,-237,-296,-147,-320,-60,73,22,-407,-236,-236,-216,-312,-29
30153,-311,-361,-209,-150,-259,68,-312,-51,8,2,-188,-385,134,241,-46,-342,-398,-411,-139,-266,-341,-246,-256,-58,62,0,-439,-241,-237,-220,-324,-36
30154,-231,-363,-168,-182,-277,108,-299,-95,-2,-1,-202,-426,120,240,-44,-329,-437,-443,-151,-250,-325,-354,-288,-61,61,13,-442,-196,-241,-233,-345,-103
30155,-177,-378,-172,-208,-264,166,-251,-115,11,23,-235,-415,113,242,-37,-317,-427,-423,-155,-262,-329,-290,-235,-61,58,5,-429,-264,-237,-261,-339,-186
30156,-173,-311,-225,-200,-256,107,-290,-83,34,8,-265,-377,130,250,-51,-360,-356,-348,-147,-249,-335,-197,-31,-36,81,-7,-344,-472,-229,-302,-396,-227
30157,-204,-240,-227,-173,-238,22,-284,-26,37,-11,-292,-354,154,263,-11,-352,-344,-307,-103,-219,-221,-166,90,-1,109,57,-101,-774,-231,-245,-332,-543
30158,-253,-299,-225,-142,-262,56,-283,51,66,0,-254,-328,190,295,17,-362,-380,-318,-78,-183,-119,-150,23,-1,124,121,-5,-926,-270,-223,-301,-293
30159,-249,-383,-232,-168,-276,162,-323,30,46,14,-108,-342,165,276,3,-303,-275,-316,-100,-210,-218,-346,36,-2,86,17,-293,-774,-272,-290,-387,-236
30160,-239,-414,-227,-178,-272,202,-357,12,35,26,-67,-343,156,284,14,-66,-232,-331,-101,-206,-257,-254,-74,-23,85,52,-145,-258,-248,-296,-377,-547
30161,-358,-558,-380,-225,-281,236,-364,-14,10,15,-185,-424,128,260,-5,-187,-510,-438,-119,-212,-251,-252,-366,-65,90,72,-25,78,-263,-243,-343,-370
30162,-418,-646,-426,-144,-271,200,-320,33,27,11,-208,-517,125,261,-16,-303,-659,-482,-123,-213,-251,-359,-476,-89,82,62,-120,15,-236,-219,-324,-75
30163,-418,-760,-393,-111,-265,158,-361,38,60,-2,-281,-459,144,265,-33,-370,-539,-427,-108,-234,-312,-267,-343,-46,90,11,-421,-98,-192,-212,-309,4
30164,-382,-650,-370,-127,-256,114,-320,33,54,7,-252,-451,168,261,-23,-405,-477,-403,-91,-210,-312,-132,-361,-22,129,40,-417,10,-173,-180,-275,1
30165,-352,-417,-464,-139,-268,39,-230,67,58,-23,-232,-444,178,268,-10,-390,-417,-401,-87,-215,-292,-171,-375,-25,134,53,-391,75,-157,-175,-280,13
30166,-340,-340,-448,-123,-283,-3,-195,97,57,-47,-292,-322,202,264,-28,-352,-372,-356,-84,-224,-297,-239,-279,-38,102,27,-416,-230,-259,-273,-375,-16
30167,-317,-373,-369,-126,-279,15,-205,74,69,-43,-388,-229,223,271,-48,-279,-375,-293,-50,-219,-276,-248,-142,-6,115,17,-351,-149,-231,-281,-395,-124
30168,-335,-295,-368,-141,-273,48,-239,-2,62,-28,-347,-310,201,277,-52,-203,-412,-339,-54,-207,-236,-305,-267,-36,133,53,-204,-128,-255,-282,-371,-332
30169,-442,-235,-270,-88,-261,60,-259,12,71,-10,-264,-322,218,278,-27,-240,-240,-296,-49,-186,-216,-223,-228,-9,123,81,-157,-66,-235,-262,-361,-356
30170,-534,-267,-210,-92,-263,55,-329,46,76,-10,-226,-317,237,276,-12,-321,-147,-254,-23,-195,-238,-136,-149,27,142,69,-204,-58,-176,-190,-300,-49
30171,-465,-371,-248,-34,-277,120,-374,92,79,11,-184,-321,249,293,16,-320,-301,-256,2,-176,-223,-195,-182,40,181,99,-142,-113,-157,-137,-234,70
30172,-286,-381,-270,-106,-281,155,-254,49,62,23,-119,-289,229,282,50,-209,-343,-298,-23,-160,-123,-345,-227,11,161,132,79,-173,-223,-225,-324,-504
30173,-291,-374,-240,-126,-288,122,-199,-2,37,14,-144,-267,224,284,89,-65,-210,-243,-18,-138,-7,-286,-58,40,178,164,291,-325,-198,-275,-372,-595
30174,-247,-402,-185,-77,-269,129,-235,74,52,13,-206,-187,282,273,39,-186,-1,-143,19,-195,-187,-386,213,149,175,44,-285,-209,-110,-304,-409,-181
30175,-140,-352,-169,-112,-257,79,-332,51,57,-7,-235,-203,258,267,5,-314,-166,-163,7,-185,-270,-287,97,127,191,37,-466,-225,-137,-220,-322,-47
30176,-120,-321,-160,-146,-266,128,-330,39,52,2,-237,-224,262,282,8,-313,-145,-179,4,-175,-255,-207,42,94,195,90,-299,-259,-127,-163,-254,-225
30177,-173,-487,-215,-157,-274,171,-316,61,49,10,-190,-242,241,296,15,-262,-190,-211,-1,-166,-203,-118,9,64,189,84,-171,-470,-171,-176,-285,-376
30178,-199,-431,-272,-137,-277,121,-264,79,57,3,-210,-292,229,288,21,-174,-316,-252,-9,-160,-148,-91,-99,63,193,105,-135,-126,-145,-156,-271,-115
30179,-254,-336,-296,-157,-275,119,-276,41,62,-5,-227,-365,216,285,23,-156,-289,-277,-12,-149,-134,-328,-171,52,201,131,-65,50,-131,-133,-225,-242
30180,-457,-406,-311,-126,-294,63,-378,79,60,-16,-156,-310,215,290,10,-326,-169,-269,-5,-143,-190,-225,-197,55,204,143,-115,150,-141,-104,-198,-32
30181,-485,-429,-388,-107,-297,13,-369,134,62,-33,-265,-266,244,287,-13,-357,-338,-285,-9,-161,-263,-96,-255,57,192,104,-248,127,-144,-127,-223,107
30182,-361,-384,-388,-136,-284,54,-355,141,58,-15,-285,-205,255,286,-14,-333,-335,-257,-2,-181,-289,-144,-248,51,179,55,-375,22,-186,-196,-296,-112
30183,-385,-420,-322,-144,-297,152,-350,139,61,0,-233,-170,258,302,-7,-364,-304,-215,0,-186,-298,-226,-104,78,170,56,-299,54,-181,-271,-383,-480
30184,-465,-378,-243,-121,-281,107,-295,15,42,-13,-232,-250,237,295,-16,-302,-268,-226,5,-180,-268,-265,-65,67,184,66,-206,-165,-162,-192,-291,-254
