,Fp1,Fp2,F7,F3,Fz,F4,F8,FC5,FC1,FC2,FC6,T7,C3,Cz,C4,T8,TP9,CP5,CP1,CP2,CP6,TP10,P7,P3,Pz,P4,P8,PO9,O1,Oz,O2,PO10
91665,321,156,291,-511,-206,-60,-251,58,-37,-23,49,13,245,-106,47,-31,201,118,-158,-110,-149,222,195,45,172,136,183,56,258,104,14,93
91666,220,56,141,-491,-183,118,-200,-46,-23,18,86,75,255,-77,74,0,258,125,-136,-86,-92,38,194,64,226,165,272,86,285,143,67,191
91667,203,148,144,-406,-225,8,-274,55,-20,-53,-6,154,295,-120,8,-72,186,150,-157,-128,-163,31,112,41,185,152,194,72,285,147,66,130
91668,263,225,104,-403,-225,-15,-318,-3,-23,-47,12,281,295,-99,14,-86,203,214,-128,-118,-167,2,96,52,190,145,162,102,306,149,42,109
91669,334,241,57,-359,-201,-12,-470,-43,6,-34,51,366,294,-77,39,-45,251,187,-105,-108,-136,1,110,87,212,187,153,112,310,158,70,116
91670,382,194,58,-435,-216,-23,-485,-92,-12,-26,-19,363,283,-92,45,20,321,136,-119,-87,-129,14,106,82,224,201,186,132,332,186,79,130
91671,313,-68,110,-424,-252,149,-384,13,-47,-10,-14,124,269,-115,29,90,284,104,-137,-97,-132,55,99,59,216,188,205,129,331,175,61,27
91672,292,99,89,-588,-228,79,-298,-15,-30,26,65,212,311,-70,91,71,275,193,-92,-43,-83,114,213,106,269,255,276,174,388,235,100,-26
91673,137,163,-51,-430,-213,-61,-345,46,-5,21,55,162,329,-49,85,4,272,197,-77,-35,-105,48,264,123,262,231,262,84,375,195,82,-13
91674,-5,-77,-55,-290,-229,-25,-390,174,5,1,43,174,330,-63,55,-9,261,202,-101,-72,-124,71,264,117,238,198,233,33,352,149,48,94
91675,106,-102,-17,-299,-214,199,-341,128,-3,3,44,319,291,-82,47,149,297,217,-128,-87,-123,96,279,85,221,183,242,70,317,144,32,158
91676,307,0,108,-356,-220,41,-292,195,-7,-26,55,56,281,-119,40,69,339,126,-165,-113,-140,8,225,38,174,143,217,-26,240,108,17,89
91677,313,111,279,-482,-227,67,-302,-126,-40,-17,63,187,270,-109,28,-115,284,163,-144,-118,-159,55,296,76,199,162,222,39,276,116,46,-30
91678,169,281,372,-534,-197,-8,-292,-120,-66,-13,94,405,265,-118,59,-112,243,184,-147,-101,-152,36,243,65,195,167,237,107,278,126,44,-108
91679,311,329,372,-387,-219,-195,-274,64,-28,-51,60,309,285,-114,26,-5,174,154,-149,-136,-154,68,143,41,173,153,230,82,239,102,28,-40
91680,409,272,352,-408,-232,-139,-190,25,-21,-47,8,326,279,-126,5,-8,209,136,-166,-165,-167,38,114,10,154,106,204,90,235,65,-2,18
91681,398,250,324,-402,-211,-89,-133,-65,-38,-45,36,335,258,-113,21,34,230,128,-153,-142,-158,26,130,24,170,121,167,123,276,96,-8,99
91682,194,280,373,-324,-190,-259,-105,33,-1,-34,43,329,289,-82,10,68,226,160,-115,-145,-142,61,218,73,184,135,152,51,284,113,7,159
91683,80,284,305,-434,-223,-212,-120,40,-31,-44,33,316,263,-94,-10,-69,221,171,-148,-161,-166,95,245,60,160,129,144,54,284,112,20,109
91684,240,253,222,-483,-205,-79,-135,35,-15,-31,61,341,256,-92,9,-54,167,136,-141,-159,-166,87,173,56,167,140,153,109,308,137,29,106
91685,319,135,222,-497,-202,-47,-182,57,-12,-23,-8,309,246,-107,0,-27,170,123,-152,-156,-173,64,125,44,173,124,135,127,265,126,-24,65
91686,357,81,191,-560,-192,84,-230,43,-35,-6,15,189,218,-121,-4,8,163,104,-180,-157,-186,104,78,1,143,87,103,80,240,73,-29,5
91687,298,143,126,-494,-207,120,-457,11,-35,7,53,143,216,-126,9,121,139,96,-174,-176,-176,27,58,-17,129,81,123,7,219,39,-69,-82
91688,87,106,-52,-452,-206,233,-586,-175,-28,36,115,363,228,-114,39,195,224,134,-160,-143,-154,84,32,5,155,100,155,-25,216,34,-68,-58
91689,-76,146,-50,-470,-195,127,-568,-36,-52,0,49,311,227,-138,1,165,127,100,-192,-163,-188,124,13,-12,144,87,92,-61,151,0,-85,-79
91690,40,269,87,-438,-190,177,-458,-71,-28,22,161,156,243,-113,54,-20,113,75,-173,-135,-153,-19,80,-6,165,136,135,-67,149,16,-73,-201
91691,197,196,83,-473,-195,137,-333,-115,-34,21,104,90,259,-110,56,-2,152,101,-144,-106,-128,6,153,30,183,161,151,-54,169,29,-58,-163
91692,383,200,122,-527,-189,-54,-158,-20,-18,17,121,0,325,-82,88,28,174,183,-109,-71,-99,96,201,82,222,193,172,-19,203,71,-40,-9
91693,484,133,142,-599,-195,5,-170,102,-12,21,120,-13,340,-91,85,52,233,190,-101,-74,-102,138,181,66,233,198,178,9,210,100,-30,34
91694,400,141,82,-475,-205,-115,-187,159,-5,6,109,182,314,-115,58,32,253,169,-118,-87,-122,141,134,47,206,194,174,43,230,72,-18,-24
91695,348,194,130,-408,-182,84,-152,157,32,22,78,327,298,-114,93,85,214,172,-118,-81,-99,136,153,39,214,174,181,33,209,40,-35,-109
91696,343,215,113,-395,-167,135,-162,150,23,13,52,301,297,-132,65,95,178,148,-152,-114,-116,72,182,47,168,159,133,-78,154,2,-100,-179
91697,400,197,199,-376,-191,-37,-268,139,-9,-14,108,275,278,-156,24,55,152,133,-169,-147,-152,36,172,18,144,119,103,-188,124,-20,-152,-140
91698,353,176,298,-395,-171,52,-256,45,16,-2,139,254,259,-147,45,61,135,109,-158,-144,-153,-13,124,0,136,101,92,-144,129,-27,-133,-90
91699,382,246,182,-440,-176,-38,-217,-144,-16,-22,76,252,247,-157,18,3,105,107,-181,-166,-206,-18,100,-7,110,55,56,-57,120,-38,-132,-34
91700,375,374,74,-453,-200,-92,-201,-338,-42,-41,41,319,214,-161,-19,75,161,82,-201,-189,-240,-2,108,-18,92,38,45,4,130,-33,-143,-25
91701,368,378,248,-415,-208,-81,-327,-157,-24,-43,66,236,237,-140,-16,164,234,86,-192,-172,-223,-15,118,-12,107,61,59,26,172,-25,-153,-64
91702,359,216,393,-473,-181,48,-295,31,-14,-9,62,147,247,-113,3,53,240,78,-183,-161,-198,10,123,4,108,72,79,-3,171,-23,-151,-161
91703,214,118,356,-444,-188,47,-210,93,1,-12,29,178,260,-107,15,2,176,114,-171,-165,-205,48,117,5,118,65,91,-30,146,-33,-158,-195
91704,192,329,217,-350,-206,161,-419,118,-2,-1,118,209,290,-105,30,47,199,136,-157,-142,-185,91,97,-10,123,73,60,-37,140,-64,-176,-146
91705,120,309,-11,-262,-197,-35,-537,50,16,-6,76,51,295,-90,27,129,268,181,-145,-151,-168,-63,130,5,130,57,65,-44,149,-49,-153,-126
91706,-80,-27,-108,-435,-198,332,-515,-77,-28,36,79,92,222,-98,41,57,295,145,-164,-157,-206,-50,127,10,96,48,66,-130,119,-51,-167,-351
91707,-69,-60,-53,-366,-211,195,-360,19,-48,-17,37,22,236,-136,8,-27,159,55,-201,-175,-218,-121,75,-56,73,43,124,-143,80,-102,-205,-436
91708,33,-215,38,-219,-186,166,-163,42,-5,-16,65,23,281,-101,13,18,55,142,-167,-151,-196,-213,78,-28,114,71,158,-44,132,-61,-165,-287
91709,96,-73,134,-316,-169,110,-124,-84,-1,11,35,199,295,-89,8,-8,32,176,-131,-147,-185,-69,58,8,154,92,143,70,197,23,-101,-119
91710,305,207,272,-478,-181,-151,-134,-16,-30,-25,18,197,295,-120,-35,-119,-6,137,-171,-162,-201,-78,37,-5,128,96,100,55,181,20,-105,37
91711,436,159,298,-503,-181,-9,-136,139,-27,-19,95,190,320,-102,-7,-105,57,157,-162,-163,-214,-80,65,2,145,90,113,-7,180,7,-93,66
91712,548,38,198,-519,-189,206,-108,168,-22,0,96,264,327,-109,16,-44,177,202,-135,-154,-172,34,95,25,164,105,138,-22,199,31,-59,50
91713,568,269,236,-502,-196,82,-42,101,-17,-7,104,300,314,-116,26,15,275,179,-120,-113,-123,74,176,59,174,134,201,0,215,84,-49,60
91714,497,478,335,-421,-184,-145,-12,27,8,-35,86,290,314,-99,31,46,323,175,-106,-108,-105,113,257,97,219,146,235,7,260,113,-18,97
91715,565,481,396,-520,-182,-111,-76,39,1,-28,95,184,319,-91,28,64,304,185,-88,-119,-113,124,298,115,234,157,192,1,298,149,8,116
91716,555,446,461,-521,-173,-129,-274,170,33,-13,89,176,357,-89,15,77,202,231,-77,-107,-120,74,292,120,223,147,152,-49,313,151,10,59
91717,391,408,459,-477,-201,-179,-534,132,4,-44,40,291,301,-112,-39,14,196,200,-115,-133,-173,71,270,108,178,117,132,-12,312,126,-27,0
91718,280,314,404,-469,-224,-128,-520,99,-11,-77,1,317,273,-117,-63,12,217,136,-135,-165,-209,82,168,77,154,90,125,1,268,87,-21,-22
91719,461,305,363,-472,-196,-86,-413,110,17,-39,28,359,311,-89,-29,80,250,161,-108,-137,-171,92,153,85,173,132,145,94,297,114,-27,0
91720,594,333,377,-489,-182,-120,-258,178,22,-29,34,323,328,-69,-9,43,243,155,-85,-124,-130,113,126,104,211,153,163,191,347,134,-18,-173
91721,532,286,393,-476,-203,-103,-125,1,-1,-39,22,382,336,-66,-13,-1,238,201,-74,-118,-119,97,158,120,221,167,205,183,355,149,4,-324
91722,419,300,307,-453,-205,-201,-115,-90,20,-48,43,427,372,-64,-7,-5,230,232,-65,-87,-119,136,206,129,229,174,263,114,332,135,9,-138
91723,222,225,208,-395,-225,-97,-176,11,3,-33,12,393,335,-78,-30,123,256,214,-88,-109,-151,144,214,133,214,154,236,105,343,125,-1,59
91724,80,172,58,-324,-221,35,-196,0,3,-22,40,186,327,-70,-6,52,240,228,-91,-108,-139,140,247,141,217,135,192,88,347,155,29,194
91725,128,82,-33,-271,-193,220,-280,102,33,7,68,-89,344,-74,23,12,254,221,-82,-102,-141,111,209,121,210,117,177,53,325,130,0,75
91726,279,85,-134,-207,-201,-8,-502,75,13,-13,-46,4,321,-86,0,171,240,183,-104,-136,-133,112,193,89,183,109,202,53,274,89,-48,-55
91727,-72,-72,-203,-114,-186,234,-589,75,-6,0,59,241,283,-131,-10,-81,162,123,-169,-194,-218,137,134,35,122,43,104,-22,202,20,-110,-120
91728,-282,-276,-204,-86,-160,361,-601,5,-3,20,-18,345,281,-136,-51,-108,139,129,-191,-218,-282,148,53,-12,76,5,58,-1,181,-8,-130,-141
91729,34,-229,-165,-178,-175,16,-458,-199,-27,1,-3,291,256,-123,-25,-5,323,164,-190,-204,-218,-93,46,-4,87,39,144,161,225,40,-72,-61
91730,45,-253,120,-248,-199,11,-430,-32,-43,-30,0,-20,224,-141,-54,-16,325,64,-214,-220,-220,-20,2,-34,95,41,146,173,215,37,-67,-18
91731,16,37,325,-394,-174,-46,-434,16,-17,-26,-7,-179,268,-126,-48,-3,187,69,-177,-188,-200,58,109,7,122,62,110,163,265,52,-39,136
91732,294,293,442,-627,-186,-33,-295,3,-38,-8,47,1,272,-107,-1,74,176,128,-168,-148,-146,66,216,57,151,100,122,178,275,103,1,206
91733,371,490,501,-600,-198,-75,-169,50,-36,0,100,290,285,-111,-8,165,156,188,-151,-156,-146,134,271,64,151,99,139,196,290,123,15,220
91734,343,531,535,-615,-185,-106,-138,74,-24,-9,73,385,285,-124,-27,188,220,213,-141,-160,-151,228,297,75,140,111,159,113,294,88,-1,268
91735,395,442,501,-595,-197,-90,-43,-163,-48,-5,108,487,276,-136,-6,-13,372,225,-151,-154,-127,282,337,85,150,118,198,47,295,95,15,221
91736,496,315,490,-653,-191,8,32,-83,-32,14,136,566,290,-128,23,-86,381,242,-154,-148,-120,215,337,84,155,108,229,48,252,86,17,168
91737,408,302,489,-512,-210,71,36,142,-29,-5,149,470,275,-172,2,24,255,182,-190,-183,-157,210,214,25,105,98,213,35,207,42,-3,126
91738,319,432,495,-487,-188,-18,62,167,-14,-5,152,386,291,-155,-9,92,250,174,-180,-185,-128,257,214,22,103,108,228,96,222,63,-24,144
91739,386,379,442,-453,-171,77,-6,150,-3,3,122,322,270,-150,2,84,221,128,-191,-182,-129,209,160,17,96,90,219,157,202,67,-41,90
91740,467,390,382,-464,-181,185,-78,141,-17,4,127,232,247,-167,13,123,209,109,-209,-174,-114,218,106,-12,111,105,224,150,230,66,-47,36
91741,448,359,282,-455,-209,-46,-79,131,-17,-12,114,-134,245,-159,0,125,318,69,-208,-180,-137,219,16,-36,96,102,194,122,222,45,-78,9
91742,439,349,152,-347,-183,-97,-67,99,-1,2,141,-70,244,-136,35,141,371,95,-176,-169,-107,236,43,-12,119,89,224,128,227,43,-53,93
91743,403,341,44,-368,-201,-138,-128,113,-20,-18,121,270,246,-143,16,114,347,95,-196,-164,-119,218,36,-35,88,70,196,109,200,28,-82,81
91744,201,257,107,-230,-193,-38,-219,146,5,-12,104,386,311,-127,9,116,261,127,-173,-172,-148,156,71,-14,90,76,173,89,166,18,-121,-62
91745,111,200,98,-233,-152,106,-274,94,26,10,130,376,306,-110,31,112,209,141,-165,-177,-146,159,116,-15,94,66,180,42,147,-18,-151,-86
91746,199,109,-9,-234,-172,124,-332,91,13,0,89,332,253,-110,3,76,178,126,-209,-192,-165,106,149,-50,74,46,134,-53,89,-74,-194,-49
91747,207,-26,116,-245,-184,244,-409,146,-4,9,23,314,220,-120,-11,82,180,74,-215,-193,-170,107,121,-82,69,37,122,-109,64,-94,-198,-63
91748,228,117,293,-252,-183,53,-511,177,-2,-4,1,312,222,-92,1,191,181,65,-203,-176,-163,178,58,-93,72,48,102,-29,86,-100,-193,-128
91749,220,215,225,-146,-189,94,-612,207,14,2,58,135,243,-77,35,203,235,9,-212,-168,-131,237,-3,-98,84,44,121,18,89,-96,-165,-277
91750,324,181,181,-304,-197,-34,-457,79,-15,0,89,-87,255,-78,58,179,265,21,-201,-144,-83,25,4,-74,97,92,215,43,102,-74,-161,-273
91751,454,-95,228,-397,-202,228,-160,-87,-29,11,88,95,247,-92,42,63,208,85,-196,-141,-120,-3,58,-58,107,66,238,25,110,-70,-170,-134
91752,497,-13,409,-401,-203,111,0,100,3,19,72,282,287,-92,16,-10,203,157,-171,-151,-157,78,147,-47,122,66,193,-17,134,-57,-170,4
91753,371,99,422,-435,-189,83,24,148,16,22,140,301,321,-64,49,-34,216,187,-156,-129,-139,43,202,3,127,97,139,-12,174,-18,-136,-29
91754,396,319,413,-480,-185,-34,10,122,6,7,142,379,302,-74,71,49,216,188,-159,-113,-106,111,198,25,154,142,186,4,207,-3,-81,-21
91755,358,554,463,-478,-172,-47,-14,13,-5,22,169,482,298,-67,89,152,279,219,-157,-81,-58,168,202,33,180,170,207,36,228,34,-56,56
91756,580,473,500,-494,-154,2,-45,-152,-6,48,188,571,318,-85,96,222,365,275,-121,-74,-61,152,258,67,199,176,195,134,267,72,-29,20
91757,481,323,474,-361,-155,2,-112,-75,15,27,179,536,322,-119,64,225,340,292,-115,-93,-85,143,254,78,215,184,218,171,281,68,-9,55
91758,214,522,386,-235,-154,-37,-185,221,42,12,211,352,362,-138,46,186,349,250,-132,-95,-106,156,121,57,197,168,212,160,267,64,-33,91
91759,262,463,363,-238,-173,-27,-173,267,27,-2,103,241,398,-119,23,112,323,238,-128,-119,-124,153,136,73,186,140,192,76,243,56,-70,123
91760,350,355,341,-353,-176,-19,-184,239,34,-9,87,311,401,-112,13,44,363,267,-110,-132,-128,219,319,125,193,148,185,85,293,90,-49,164
91761,223,336,367,-516,-164,40,-106,228,35,6,101,407,369,-108,29,56,368,273,-91,-104,-102,264,357,144,228,160,211,156,341,144,9,202
91762,354,334,329,-395,-165,0,-107,264,80,15,59,460,379,-72,12,65,312,280,-78,-95,-98,226,354,161,226,175,244,169,349,157,39,173
91763,408,332,217,-388,-175,-47,-146,235,78,-14,-2,449,390,-73,-12,78,316,293,-77,-107,-100,207,350,160,221,175,257,154,336,150,36,129
91764,278,327,222,-412,-167,-99,-150,185,55,4,52,529,349,-58,20,173,363,277,-58,-99,-78,242,356,156,246,195,296,216,364,182,43,124
91765,172,329,328,-417,-188,-14,-170,90,40,4,63,560,340,-41,16,262,386,264,-52,-86,-56,254,296,143,245,215,325,273,376,185,63,111
91766,144,255,365,-388,-178,56,-193,141,30,5,71,358,348,-36,6,66,342,234,-86,-86,-82,243,236,119,226,182,286,236,326,161,34,82
91767,152,-87,322,-414,-195,223,-464,52,7,10,60,212,304,-68,20,-27,325,167,-129,-103,-101,208,155,43,208,129,243,163,270,137,-1,33
91768,258,-138,256,-396,-219,277,-667,-65,5,14,34,80,305,-65,38,204,326,149,-133,-104,-82,146,150,40,187,151,210,145,262,127,-5,-6
91769,338,-63,264,-274,-206,330,-654,90,28,33,1,-212,333,-57,16,404,374,132,-131,-120,-87,244,127,67,190,176,193,193,317,163,34,-35
91770,285,-36,58,-245,-207,300,-587,90,8,35,105,-35,296,-73,20,63,465,99,-152,-148,-176,143,82,40,147,100,124,184,332,132,-14,-49
91771,320,-125,-68,-284,-210,62,-465,113,10,1,112,69,295,-78,7,-37,397,105,-150,-149,-172,65,61,26,158,92,116,126,263,98,-55,39
91772,404,-107,43,-221,-206,96,-276,99,41,7,96,174,324,-64,25,-27,255,150,-146,-124,-151,37,95,50,179,121,173,122,290,127,0,99
91773,341,144,225,-210,-229,-78,-179,-19,26,-11,78,339,349,-51,11,-47,218,222,-88,-112,-140,21,208,95,202,131,216,140,318,155,28,92
91774,274,407,197,-356,-216,-275,-114,-211,12,-12,77,475,355,-22,39,6,381,265,-58,-95,-66,124,311,141,243,212,347,187,361,226,82,88
91775,210,439,193,-365,-229,-166,-50,-23,28,-38,68,512,379,-37,53,18,384,304,-82,-82,-54,138,341,143,233,197,373,118,330,178,68,18
91776,298,469,299,-364,-232,-192,-6,149,37,-29,89,485,390,-36,44,57,361,306,-79,-82,-55,163,391,142,223,183,325,56,313,146,21,77
91777,257,420,383,-396,-214,-306,-75,120,13,-22,55,386,370,-72,-2,116,364,285,-77,-99,-95,140,440,132,190,163,210,80,315,142,6,58
91778,250,346,460,-433,-197,-175,-146,33,9,-31,56,355,379,-79,5,240,402,340,-81,-115,-109,160,436,141,194,149,179,169,327,127,-28,-65
91779,148,326,417,-419,-199,-178,-258,147,-3,-34,39,206,380,-102,8,28,354,335,-135,-113,-138,180,287,84,167,136,196,187,295,95,-19,-26
91780,319,335,375,-371,-198,-110,-233,167,16,-16,54,204,376,-93,20,-89,413,262,-143,-128,-118,167,204,62,160,122,186,243,283,110,6,162
91781,219,188,290,-389,-215,-90,-158,98,13,-16,83,343,309,-123,26,-14,397,165,-167,-138,-124,135,159,41,137,120,163,191,268,123,11,231
91782,-93,250,295,-402,-188,-35,-99,109,12,-1,93,393,280,-111,39,52,385,146,-157,-123,-116,163,158,27,145,151,157,174,269,116,0,50
91783,-282,247,134,-184,-207,37,-176,117,42,-1,60,306,297,-107,10,27,277,142,-141,-146,-162,154,105,-5,109,96,132,82,205,19,-85,-81
91784,-35,254,52,-176,-208,26,-183,-9,39,4,130,366,314,-104,12,52,238,154,-157,-119,-148,160,90,2,130,101,130,124,199,36,-115,-47
91785,295,189,143,-196,-191,21,-167,-69,38,9,86,289,304,-71,21,45,174,165,-139,-132,-156,135,123,21,146,109,98,98,215,55,-88,30
91786,525,263,293,-313,-201,3,-192,53,32,7,53,-52,322,-70,11,52,175,148,-128,-122,-156,134,103,17,151,100,103,41,203,42,-102,46
91787,598,352,486,-498,-241,44,-203,112,-6,-1,81,-255,315,-78,25,75,241,125,-132,-125,-172,132,88,2,134,109,96,-11,194,10,-113,23
91788,576,324,570,-524,-238,63,-220,133,8,25,73,-227,338,-31,26,169,275,119,-115,-106,-148,168,40,9,149,124,130,-106,171,23,-77,32
91789,585,207,483,-563,-219,52,-344,102,-8,41,89,-85,313,-39,13,162,277,100,-128,-106,-131,207,42,2,163,123,159,-96,154,-8,-109,-16
91790,449,100,341,-575,-242,47,-396,-143,-14,14,43,114,300,-47,14,130,180,157,-124,-118,-142,149,95,32,157,118,126,-83,156,-16,-137,-68
91791,291,33,256,-616,-241,256,-315,-63,-33,17,40,273,284,-60,11,72,66,107,-144,-153,-210,112,35,-6,108,56,27,-77,93,-62,-176,-155
91792,272,8,171,-590,-217,200,-468,16,-7,44,103,548,309,-43,9,81,110,167,-131,-158,-199,62,39,16,115,38,6,-31,118,-63,-174,-275
91793,278,-324,134,-509,-236,272,-725,-49,-11,42,117,412,264,-75,2,80,65,112,-179,-174,-234,-23,0,-27,78,1,28,-74,95,-78,-197,-326
91794,140,-337,-16,-483,-234,303,-845,106,-16,20,54,310,251,-81,-28,-107,64,85,-187,-189,-260,-32,-17,-56,77,11,60,-130,103,-97,-208,-273
91795,33,-212,-101,-411,-241,206,-930,-6,1,0,-81,377,289,-62,-33,-121,99,116,-166,-177,-249,-3,39,-32,95,26,85,-94,136,-52,-177,-231
91796,-72,-447,-171,-357,-249,535,-755,12,24,27,-76,298,301,-61,-27,124,37,131,-159,-173,-257,-65,38,-23,118,32,79,-78,157,-33,-149,-105
91797,195,-117,-136,-388,-256,34,-346,43,14,-17,-6,161,278,-87,-53,-72,50,124,-185,-187,-286,-114,21,-14,92,23,10,-76,166,-28,-149,3
91798,270,73,145,-408,-253,100,-91,-89,-16,-12,-22,-66,267,-91,-37,-102,103,102,-192,-203,-254,-103,35,-15,104,39,18,-55,201,-2,-140,23
91799,-89,233,211,-277,-240,-172,42,-94,1,-47,-10,-72,245,-113,-54,-142,142,69,-198,-220,-251,-83,52,-39,94,29,-5,-139,154,-58,-205,-126
91800,-71,325,361,-281,-226,-305,38,0,35,-58,-25,152,284,-97,-65,-160,107,125,-178,-207,-254,-37,80,-27,72,6,-14,-216,72,-141,-259,-248
91801,92,359,399,-427,-242,-310,-44,-61,16,-62,-21,215,314,-96,-81,-135,44,155,-176,-210,-241,-22,94,0,78,15,23,-149,114,-123,-261,-202
91802,153,347,386,-395,-253,-228,-92,-47,30,-45,1,120,328,-91,-50,-71,48,155,-164,-191,-210,-6,43,-28,86,53,70,-55,164,-98,-224,-217
91803,233,396,473,-576,-250,-275,-76,8,17,-36,18,2,314,-80,-32,-33,99,104,-154,-176,-172,39,50,-24,98,63,126,-93,185,-82,-178,-207
91804,93,351,317,-536,-261,-271,-90,-188,5,-11,11,136,282,-51,-22,-31,159,103,-132,-159,-147,85,65,26,129,82,146,-155,203,-55,-165,-222
91805,63,323,294,-590,-258,-203,-135,-327,-20,-6,10,316,270,-61,-1,-20,189,155,-153,-164,-159,73,116,58,148,108,162,-163,191,-44,-140,-225
91806,99,286,254,-449,-256,-193,-202,58,13,-31,-7,203,312,-68,-23,-52,125,151,-135,-172,-190,36,133,43,134,60,132,-131,160,-29,-132,-219
91807,233,233,179,-419,-241,-174,-208,206,16,10,-13,-5,324,-64,-21,-45,137,95,-138,-172,-204,49,48,15,125,62,121,-31,177,-8,-136,-252
91808,411,254,262,-421,-241,-140,-182,115,0,1,6,-1,302,-57,-22,-13,141,43,-169,-183,-199,57,-31,-22,103,78,109,58,166,-49,-147,-291
91809,549,283,353,-451,-224,-89,-185,0,-2,5,54,104,273,-52,-12,11,98,62,-181,-162,-173,84,9,-33,121,76,134,26,167,-43,-132,-344
91810,569,245,348,-535,-226,-35,-178,-12,-10,32,84,242,280,-64,0,-4,171,81,-184,-152,-165,85,96,1,139,91,192,-2,155,-48,-129,-193
91811,582,249,349,-634,-227,3,-204,-8,-32,37,74,397,286,-53,0,-11,233,145,-161,-142,-169,157,209,42,146,90,186,71,183,-20,-111,57
91812,385,258,351,-553,-207,-38,-168,62,-13,44,78,353,322,-33,5,28,284,230,-141,-128,-142,192,248,62,150,122,188,126,213,27,-83,154
91813,200,221,203,-442,-181,31,-130,152,18,52,97,209,343,-49,8,39,310,227,-136,-140,-159,129,211,41,138,95,151,123,216,3,-120,124
91814,-104,111,58,-290,-207,51,-174,226,26,35,89,230,342,-84,-20,7,297,191,-171,-193,-201,104,171,5,115,35,92,111,186,-35,-157,76
