,Fp1,Fp2,F7,F3,Fz,F4,F8,FC5,FC1,FC2,FC6,T7,C3,Cz,C4,T8,TP9,CP5,CP1,CP2,CP6,TP10,P7,P3,Pz,P4,P8,PO9,O1,Oz,O2,PO10
112202,52,121,514,381,825,487,156,495,713,266,355,-197,497,240,-30,274,257,454,511,383,582,1116,468,505,753,732,331,-460,39,327,479,-303
112203,50,129,553,400,849,523,202,543,730,270,378,-133,523,227,-29,305,277,497,497,378,585,1201,555,546,735,710,311,-425,67,347,456,-229
112204,78,170,600,402,866,532,205,562,720,293,356,-102,496,237,-2,325,322,478,504,377,580,1259,575,544,745,709,350,-379,124,368,464,-209
112205,72,160,595,417,863,540,149,541,716,321,346,-99,485,223,37,252,330,474,477,374,582,1192,615,552,761,731,313,-305,174,442,530,-211
112206,36,130,569,415,870,550,165,506,715,329,393,-91,497,239,45,230,326,475,471,398,632,1181,653,566,763,743,348,-308,198,450,524,-272
112207,31,128,560,392,870,526,169,503,713,278,331,-97,490,243,-18,219,243,480,471,398,637,1210,618,560,763,731,356,-298,171,428,534,-255
112208,0,75,531,358,857,501,160,499,715,275,307,-119,465,226,-34,140,233,460,473,361,575,1186,587,507,693,667,270,-462,53,368,452,-290
112209,1,123,569,387,861,524,207,508,717,281,331,-96,460,230,-31,157,231,432,454,338,552,1106,560,445,662,636,238,-502,29,294,401,-364
112210,-73,86,527,358,838,524,174,467,689,271,340,-144,444,211,-26,205,163,432,428,320,515,1071,533,437,671,630,256,-507,26,296,416,-377
112211,-77,53,554,356,839,493,208,470,678,246,287,-151,442,230,-43,190,45,405,429,321,509,1080,452,445,688,642,236,-510,77,328,451,-339
112212,-29,92,573,389,859,499,198,466,677,246,310,-138,438,235,-21,222,116,367,424,335,536,1098,472,463,707,659,220,-557,61,327,473,-303
112213,49,214,541,416,890,513,208,471,713,250,298,-114,454,246,0,243,200,387,434,350,553,1131,492,501,715,665,277,-559,22,344,448,-284
112214,80,238,553,380,880,504,239,478,704,240,306,-110,461,270,-19,73,233,430,443,344,525,1130,462,496,704,664,283,-535,-14,295,425,-311
112215,23,143,523,347,836,461,161,452,672,205,278,-122,445,243,-63,101,232,430,456,334,521,1132,493,489,724,656,298,-490,47,320,486,-300
112216,34,172,433,335,838,476,176,408,679,211,266,-159,442,238,-45,194,216,422,459,358,557,1141,516,506,750,679,343,-455,75,376,524,-272
112217,-10,105,413,320,825,468,156,399,662,228,254,-156,431,243,-8,213,204,431,454,357,582,1082,508,519,788,689,348,-466,113,411,570,-205
112218,41,171,450,359,844,496,170,383,669,255,269,-197,397,243,1,226,152,379,442,372,581,1118,469,487,779,688,334,-538,48,366,518,-257
112219,73,223,476,366,859,532,256,415,676,253,309,-180,427,277,-9,270,159,395,442,382,616,1213,517,504,792,707,363,-539,44,344,499,-280
112220,70,217,591,360,852,511,225,451,675,254,316,-143,449,269,-5,267,262,425,459,376,594,1169,507,538,798,721,364,-546,94,368,507,-278
112221,0,219,529,349,855,501,251,456,672,265,368,-119,481,276,45,320,281,450,485,401,654,1198,549,585,835,786,409,-463,192,476,584,-199
112222,88,221,533,384,879,532,277,499,704,291,398,-95,490,300,67,355,292,475,497,421,671,1206,567,581,854,786,455,-419,193,487,592,-256
112223,199,302,550,384,862,550,296,443,665,265,364,-148,425,242,15,306,232,424,467,369,610,1203,550,525,804,737,394,-498,106,429,551,-265
112224,177,342,542,391,861,564,344,455,681,250,400,-167,432,226,30,264,144,404,438,348,616,1203,554,500,772,731,376,-580,33,377,519,-221
112225,139,264,561,399,869,563,192,505,680,269,379,-135,452,233,20,228,179,411,430,343,624,1173,454,499,760,722,372,-498,64,385,539,-269
112226,137,199,586,396,863,546,29,520,655,271,349,-109,449,234,-3,265,204,444,426,328,605,1115,528,516,761,724,374,-530,82,407,552,-309
112227,190,315,620,436,890,508,348,497,669,277,338,-110,456,255,-5,298,219,444,444,368,616,1091,546,532,781,761,460,-489,130,458,613,-198
112228,326,438,659,474,947,549,300,528,689,288,344,-107,463,263,24,299,257,435,449,358,640,1125,506,550,812,766,506,-400,140,484,628,-206
112229,331,425,674,504,947,569,287,577,702,273,353,-65,485,232,-3,246,238,490,435,341,603,1156,586,555,796,724,376,-437,145,469,593,-219
112230,355,416,719,526,959,552,310,596,728,280,335,-47,478,230,-19,196,189,485,417,328,559,1153,545,550,780,698,288,-535,67,392,539,-182
112231,396,447,700,533,945,580,277,572,730,294,351,-108,453,229,-29,247,223,443,401,330,566,1147,490,523,758,675,332,-517,35,366,517,-256
112232,404,460,706,519,949,573,300,568,711,292,347,-146,451,217,-44,263,196,449,408,325,557,1100,547,520,772,660,306,-515,49,362,492,-361
112233,399,494,696,481,952,568,332,551,705,272,323,-183,425,218,-42,135,133,386,400,309,551,1043,483,483,763,650,303,-504,42,327,458,-389
112234,387,474,684,452,920,571,313,493,662,274,350,-160,378,209,-36,-29,120,327,368,283,526,1004,474,446,738,601,192,-590,-37,236,395,-391
112235,390,477,684,465,917,578,301,473,677,261,318,-227,391,218,-56,74,110,361,359,266,482,1030,472,445,739,604,177,-578,-29,236,394,-327
112236,403,493,692,456,910,580,280,529,661,267,284,-228,375,222,-29,146,146,331,343,257,487,960,495,421,734,599,206,-635,-55,220,395,-366
112237,446,524,693,441,926,584,319,548,665,266,352,-303,373,201,10,231,119,338,323,237,500,993,401,386,726,577,217,-748,-138,190,359,-440
112238,464,524,692,457,943,587,359,472,667,267,436,-294,353,220,-40,173,134,321,332,241,480,1036,342,380,716,585,201,-661,-129,176,366,-416
112239,504,536,746,471,934,558,316,465,681,273,333,-231,370,216,-79,9,196,337,349,255,474,1054,403,430,730,596,148,-623,-62,211,403,-367
112240,464,512,610,455,925,544,313,493,654,255,325,-194,374,217,-66,-48,4,368,324,253,453,991,415,416,718,559,112,-605,-60,228,362,-408
112241,504,563,747,447,949,571,338,500,685,255,355,-138,404,247,-37,89,35,398,365,275,501,970,479,451,726,585,178,-618,-43,237,379,-423
112242,502,548,772,464,931,560,310,493,686,270,357,-153,402,257,-43,166,68,374,381,268,503,1001,409,472,735,606,162,-536,44,322,430,-379
112243,497,526,732,456,931,554,350,518,698,280,347,-149,427,263,-63,138,144,389,380,278,460,1045,485,495,758,607,132,-527,62,350,426,-389
112244,509,551,771,479,929,568,353,506,679,271,330,-191,411,234,-69,186,184,383,363,284,451,1061,543,484,745,589,147,-587,10,309,395,-421
112245,576,613,782,513,957,607,416,546,697,287,356,-142,426,234,-45,191,171,428,382,286,469,1106,558,466,742,589,213,-588,1,287,389,-384
112246,638,632,838,554,976,637,439,623,739,283,402,-92,476,239,-43,167,192,441,399,290,478,1104,471,451,759,603,231,-544,-37,243,398,-351
112247,609,639,837,535,970,632,443,576,728,277,357,-128,460,229,-12,184,207,437,403,319,523,1145,469,451,752,649,335,-551,-49,253,439,-230
112248,597,630,778,517,974,629,418,535,704,294,407,-153,436,225,28,180,162,401,388,323,562,1166,441,462,763,669,439,-589,-51,259,470,-247
112249,615,647,807,527,985,622,461,585,728,260,446,-168,446,231,-39,271,252,402,410,332,532,1137,496,491,781,679,302,-458,12,293,461,-358
112250,621,666,857,529,979,608,492,581,736,256,398,-160,466,232,-82,283,266,442,420,296,495,1087,513,480,799,650,141,-487,14,286,418,-335
112251,571,613,745,506,969,589,430,552,712,262,387,-153,456,226,-50,156,169,434,410,313,533,1058,506,453,807,646,234,-540,-4,271,415,-349
112252,524,598,768,504,972,598,404,539,720,275,356,-144,448,226,-34,157,126,396,412,323,545,1079,526,461,815,640,281,-487,40,313,428,-333
112253,535,598,758,502,966,594,386,536,703,268,195,-137,421,215,-18,178,173,373,373,302,516,1090,530,468,831,626,233,-363,84,339,439,-336
112254,518,552,752,461,974,566,288,527,691,283,230,-207,401,204,-8,81,144,347,370,296,501,1101,581,456,828,607,195,-420,63,347,445,-280
112255,520,539,793,485,997,585,330,549,736,300,420,-198,423,244,-7,116,156,372,408,330,543,1184,540,466,830,667,289,-520,41,361,507,-191
112256,485,535,753,490,982,585,358,509,734,293,495,-150,444,266,-21,177,210,417,456,345,589,1173,469,499,862,706,351,-490,47,409,547,-191
112257,449,455,758,469,955,538,228,528,719,269,443,-184,450,267,0,201,241,414,435,342,573,1066,470,473,839,661,247,-540,-26,322,443,-391
112258,432,434,788,484,946,513,246,571,746,244,342,-108,486,290,-46,196,292,426,427,332,490,1055,514,490,813,592,151,-519,-43,232,384,-453
112259,440,427,732,501,958,522,324,539,725,258,314,-121,485,272,-61,191,191,410,458,321,501,1103,431,503,824,590,156,-534,-27,225,331,-364
112260,428,426,723,459,939,545,294,520,719,274,375,-192,456,252,-17,204,127,385,444,322,527,1073,437,493,802,611,215,-492,-7,230,348,-419
112261,422,434,731,462,933,556,265,516,711,275,338,-127,461,256,-38,168,155,437,444,318,517,1062,516,511,788,600,191,-531,-30,210,334,-466
112262,373,405,714,465,937,547,269,503,714,271,349,-104,457,260,-38,213,172,422,442,322,502,1109,473,494,784,596,180,-584,-58,213,352,-415
112263,361,428,662,460,925,562,314,543,712,269,356,-91,454,254,-36,213,204,418,421,304,469,1089,455,479,779,589,132,-618,-69,202,346,-401
112264,335,411,641,440,924,568,311,541,691,269,372,-134,443,278,-13,115,238,404,428,321,499,1137,465,480,792,631,141,-570,-25,252,403,-372
112265,338,421,669,438,934,565,317,531,692,267,368,-133,457,298,7,169,227,418,437,346,513,1157,506,497,815,652,183,-460,58,360,459,-322
112266,340,429,663,465,923,567,294,565,700,270,371,-74,454,244,8,179,216,448,432,344,518,1119,594,508,798,649,190,-463,65,343,456,-358
112267,396,465,697,477,948,640,325,575,720,289,423,-68,477,232,49,255,255,457,458,378,586,1146,580,525,806,699,236,-428,87,363,434,-327
112268,387,447,745,464,951,626,271,552,725,291,437,-45,483,250,48,296,226,485,470,380,600,1129,556,534,807,706,315,-394,126,388,450,-299
112269,351,408,716,476,921,540,342,552,722,267,393,-59,475,290,26,307,314,479,470,389,614,1120,526,541,814,725,333,-412,125,413,494,-286
112270,298,407,564,461,936,594,327,545,704,285,395,-125,451,299,54,277,367,433,455,400,605,1190,472,530,830,742,308,-451,94,434,517,-260
112271,270,399,614,467,951,591,310,550,704,287,374,-118,465,277,54,282,363,450,454,396,629,1177,485,552,855,769,307,-450,106,453,557,-237
112272,254,374,742,447,923,560,269,551,691,272,357,-116,441,268,65,200,299,433,467,390,583,1179,524,548,856,767,340,-483,118,500,628,-181
112273,230,347,665,447,937,543,245,572,703,289,345,-117,460,293,77,37,180,426,491,411,544,1202,559,562,891,777,328,-504,158,560,666,-115
112274,206,311,626,437,912,533,219,576,715,288,362,-163,457,287,40,67,115,451,488,391,537,1131,529,541,864,723,300,-497,89,451,577,-190
112275,189,300,583,408,912,568,104,531,695,294,464,-133,437,285,-18,126,165,458,476,352,554,1093,576,550,847,706,333,-558,29,363,450,-324
112276,252,309,668,430,942,521,227,555,700,270,306,-116,450,315,-10,120,241,439,472,364,570,1172,546,556,823,718,415,-472,65,329,443,-304
112277,212,279,665,417,921,503,230,562,697,251,315,-121,458,313,-38,126,244,441,474,368,579,1146,503,543,814,744,415,-419,120,369,478,-363
112278,188,268,634,410,907,520,182,543,688,257,324,-141,454,323,2,222,253,457,486,378,590,1123,578,556,843,780,376,-462,145,421,527,-388
112279,163,264,549,391,906,537,215,502,674,239,348,-200,430,313,3,286,233,392,457,348,572,1183,436,515,793,755,278,-450,172,478,560,-199
112280,142,252,523,391,928,537,211,467,675,254,344,-120,399,320,-25,266,175,389,451,348,548,1260,464,489,807,729,299,-495,96,432,560,-172
112281,126,235,511,387,896,527,187,441,659,253,313,-146,384,329,3,201,174,356,425,352,552,1224,464,495,833,725,314,-514,84,414,557,-162
112282,85,197,477,362,878,501,126,448,644,230,288,-216,371,295,-16,161,192,313,421,342,561,1211,383,481,812,724,336,-446,119,448,552,-180
112283,62,161,454,337,869,492,103,444,641,230,276,-245,363,299,-35,167,214,326,414,326,564,1281,427,468,810,739,362,-483,92,430,548,-190
112284,90,221,509,372,908,527,156,448,660,260,315,-186,385,301,-8,187,265,374,405,343,583,1250,468,496,835,748,362,-475,112,433,574,-165
112285,100,221,521,355,911,533,169,435,668,256,291,-142,388,302,6,217,290,407,432,366,604,1258,594,528,852,782,399,-456,158,462,621,-134
112286,85,180,497,336,896,511,162,447,653,250,300,-171,370,300,-1,212,301,374,431,381,628,1267,558,518,839,784,410,-472,183,484,647,-129
112287,64,178,501,345,902,503,153,452,653,238,269,-203,354,304,-24,242,278,307,412,390,609,1260,417,471,812,770,416,-438,174,499,625,-129
112288,14,164,483,332,871,474,126,426,650,226,240,-193,346,312,-26,212,243,351,393,388,598,1263,486,449,810,762,434,-435,149,463,607,-136
112289,-3,155,463,343,872,481,102,410,676,241,261,-220,350,347,27,125,210,363,404,390,628,1225,535,469,806,749,384,-460,99,364,546,-158
112290,15,166,468,342,869,470,67,433,695,247,245,-201,372,336,24,56,202,337,418,381,612,1184,460,442,816,724,357,-516,27,302,481,-226
112291,33,160,497,327,854,452,74,422,692,208,235,-249,353,311,-82,91,232,304,413,362,562,1163,417,436,820,677,337,-470,44,311,468,-283
112292,-6,126,414,277,830,446,59,375,667,184,218,-252,349,303,-87,115,261,333,414,362,543,1165,480,464,828,648,275,-390,128,372,484,-262
112293,-15,98,413,275,833,439,50,385,668,212,197,-237,343,303,-79,111,212,321,413,360,532,1133,496,490,830,625,267,-393,145,385,482,-321
112294,-63,79,395,280,822,452,64,373,674,226,257,-240,348,291,-68,0,146,322,434,345,505,1106,507,476,836,626,250,-410,163,398,479,-302
112295,-21,91,327,311,842,471,45,384,666,209,210,-191,358,297,-76,-15,134,330,421,323,494,1117,510,468,816,622,248,-477,112,344,450,-318
112296,2,111,409,328,844,470,50,434,657,221,224,-208,360,298,-100,103,181,307,388,313,493,1122,453,432,766,588,244,-566,-8,231,400,-378
112297,-29,128,470,349,853,481,54,439,669,230,263,-221,355,305,-71,52,235,281,388,312,512,1110,439,418,787,609,258,-594,-36,226,394,-389
112298,-33,158,453,351,875,491,92,460,671,236,283,-223,349,322,-73,88,187,300,407,304,517,1121,435,416,804,618,236,-628,-75,238,418,-362
112299,-42,124,433,304,852,463,73,414,645,208,258,-256,309,308,-103,143,133,288,392,291,496,1095,418,401,748,604,170,-612,-98,200,391,-324
112300,-26,125,445,325,885,479,79,395,662,226,265,-269,331,327,-86,167,144,274,398,308,528,1139,382,394,763,603,229,-637,-86,199,390,-319
112301,-21,117,445,338,901,473,105,396,684,247,275,-248,351,318,-65,199,200,305,398,344,539,1164,419,422,788,614,290,-562,-47,217,394,-361
112302,-26,110,419,331,884,467,107,388,680,219,258,-259,347,285,-92,160,154,306,401,305,484,1126,474,445,783,592,254,-560,-25,217,389,-355
112303,-41,104,399,333,869,444,50,383,660,196,211,-280,351,277,-104,131,77,309,387,292,444,1089,380,411,742,534,184,-566,-27,230,391,-377
112304,-59,90,419,328,878,443,43,415,682,233,224,-275,344,279,-83,70,106,269,372,286,434,1091,323,410,740,529,102,-580,-46,213,373,-355
112305,-69,88,433,341,869,456,66,418,679,227,222,-272,358,303,-90,25,150,285,391,307,444,1147,407,410,734,547,153,-668,-74,181,353,-345
112306,-80,108,386,299,845,433,50,360,652,205,216,-295,363,292,-106,18,124,312,384,307,427,1107,434,410,708,523,159,-685,-77,193,347,-388
112307,-79,115,403,300,851,454,51,391,665,235,247,-242,380,284,-101,68,136,317,420,296,441,1042,413,438,711,507,127,-580,-24,191,339,-438
112308,-79,101,397,295,868,500,70,383,676,233,301,-290,377,321,-35,134,161,284,425,312,471,1093,371,439,718,537,142,-488,1,228,376,-333
112309,-136,69,313,251,844,472,50,382,658,235,239,-350,383,330,-28,124,108,332,439,320,495,1110,384,458,763,549,180,-505,24,301,464,-195
112310,-139,66,354,290,852,463,95,387,664,248,207,-306,380,336,-15,140,34,327,461,349,496,1117,365,449,792,568,204,-624,-30,306,455,-303
112311,-92,80,396,310,868,496,81,402,675,251,216,-300,361,318,-17,177,80,296,428,311,457,1087,323,417,768,548,193,-690,-82,209,370,-439
112312,-103,62,428,301,857,482,-86,376,667,257,229,-330,366,309,-29,195,108,279,419,305,442,1087,328,398,749,546,204,-743,-109,185,335,-519
112313,-68,106,468,342,901,476,129,433,693,235,302,-311,404,322,-57,152,141,290,454,332,484,1154,360,438,769,549,154,-640,-71,218,327,-440
112314,-97,97,405,334,871,498,146,412,678,252,246,-230,406,320,-20,46,107,364,453,351,516,1151,415,462,790,573,194,-639,-41,254,362,-440
112315,-168,34,305,312,850,489,-74,367,660,264,43,-252,376,320,-7,-114,91,337,439,355,479,1117,379,459,796,570,174,-646,-37,273,376,-499
112316,-163,46,319,293,863,423,44,366,681,277,82,-268,387,328,-2,12,79,316,451,367,528,1146,333,439,802,614,183,-660,-23,269,433,-478
112317,-181,-2,303,253,829,378,26,363,657,235,224,-300,355,328,-72,-33,54,292,417,331,496,1082,309,428,770,588,196,-666,-14,250,391,-423
112318,-136,20,346,303,863,365,-5,386,690,201,212,-272,372,308,-90,59,72,286,429,339,500,1064,359,435,779,606,200,-621,-35,253,404,-411
112319,-131,36,363,333,876,367,19,377,712,217,207,-316,364,279,-59,112,58,282,414,324,521,1019,443,420,786,598,145,-623,-12,300,420,-420
112320,-135,32,349,310,870,375,2,389,692,200,159,-320,364,280,-71,97,96,271,408,319,462,1005,397,428,774,589,137,-539,30,334,457,-369
112321,-147,7,335,277,860,370,-15,401,689,198,125,-318,361,294,-88,45,116,316,428,326,430,1016,462,477,828,625,224,-517,71,333,489,-377
112322,-159,-5,318,286,868,366,-49,410,682,203,135,-275,389,308,-69,60,97,355,452,346,458,1015,471,494,841,649,218,-466,123,411,536,-353
112323,-150,-11,316,288,872,352,-82,382,674,188,128,-228,364,285,-80,-13,118,317,436,327,441,1018,386,453,827,615,75,-433,96,393,509,-330
112324,-163,-18,339,285,832,340,-79,367,671,176,121,-258,372,284,-124,-49,138,302,422,303,404,1031,414,450,799,586,70,-506,21,329,440,-380
112325,-182,-43,320,277,823,331,-84,385,675,191,128,-286,385,281,-110,-52,104,305,435,325,450,1042,412,463,821,629,143,-511,27,337,482,-350
112326,-226,-43,280,267,822,340,-73,362,681,178,130,-278,381,265,-122,-11,85,332,443,306,478,1018,436,461,844,617,158,-580,0,303,490,-364
112327,-193,-22,320,283,842,362,-63,400,695,190,161,-245,383,271,-123,41,119,313,441,307,466,1013,418,463,817,627,200,-534,32,318,500,-371
112328,-155,-17,321,279,858,352,-20,419,705,211,168,-249,390,277,-74,77,158,281,435,323,486,1109,382,455,833,649,254,-484,57,370,552,-253
112329,-198,-4,271,259,848,390,27,388,692,198,181,-327,370,286,-51,130,107,326,420,321,516,1164,346,461,802,662,277,-521,7,347,556,-208
112330,-183,17,323,274,880,409,61,411,686,226,250,-331,359,271,-19,133,116,311,402,296,506,1133,339,420,782,635,218,-551,-53,267,457,-284
112331,-148,24,339,312,880,399,69,367,688,199,233,-315,340,257,-101,169,170,328,391,279,540,1134,397,430,760,640,352,-547,-46,253,451,-321
112332,-129,57,361,321,875,367,41,373,696,186,196,-238,347,271,-120,164,184,342,412,278,538,1119,418,447,743,632,382,-540,-10,292,477,-386
112333,-100,51,264,317,876,385,35,393,702,204,222,-210,351,253,-108,124,155,321,390,274,487,1135,437,443,762,611,213,-499,33,356,511,-254
112334,-128,32,392,338,874,374,21,410,709,182,190,-231,362,233,-103,139,72,331,386,269,473,1117,523,440,763,612,198,-528,50,376,514,-250
112335,-120,54,448,331,877,385,31,425,690,164,185,-208,362,228,-107,121,94,328,368,255,467,1111,497,418,732,581,180,-641,-3,301,458,-332
112336,-102,29,412,301,865,383,29,418,673,172,184,-227,336,228,-116,-49,157,306,332,258,496,1168,419,418,716,593,219,-496,44,317,482,-281
112337,-86,82,426,305,863,397,61,394,672,191,180,-231,334,245,-114,-83,182,297,337,245,478,1148,388,404,718,589,269,-425,53,289,479,-274
112338,-75,101,439,312,863,406,85,369,681,200,195,-223,323,265,-129,104,134,303,354,240,453,1160,429,406,716,577,191,-428,48,288,467,-191
112339,-50,96,437,301,860,413,104,353,670,224,235,-238,338,281,-116,168,168,323,368,262,475,1205,484,409,715,579,229,-387,91,310,417,-281
112340,-66,62,412,276,856,408,82,381,691,190,244,-218,363,281,-103,148,241,328,369,246,461,1230,523,446,715,566,207,-437,34,243,333,-357
112341,-86,85,432,305,881,423,135,417,703,206,284,-218,356,289,-93,189,173,301,351,248,475,1268,347,369,688,582,219,-562,-112,164,309,-277
112342,-128,59,349,284,870,415,164,395,672,193,278,-275,337,290,-89,151,155,269,351,249,506,1186,294,324,677,554,214,-656,-214,97,301,-337
112343,-129,39,338,289,841,378,33,386,688,191,180,-256,341,299,-75,137,231,275,375,286,479,1145,426,361,725,561,230,-638,-157,172,375,-309
112344,-156,10,314,251,822,348,-30,303,665,196,183,-306,301,315,-59,118,222,236,363,284,502,1101,430,387,741,596,274,-615,-114,248,419,-288
112345,-175,-28,338,211,817,360,-49,264,653,201,245,-310,281,320,-75,109,224,242,354,294,526,1073,443,415,772,608,340,-600,-65,280,445,-275
112346,-172,0,313,234,817,389,38,294,666,162,252,-259,322,311,-132,151,237,317,361,316,531,1155,532,439,758,598,338,-570,-47,273,420,-325
112347,-159,14,258,272,815,395,48,368,655,176,239,-216,340,293,-98,141,184,336,366,299,505,1141,497,439,743,570,230,-504,-50,206,333,-365
112348,-120,36,323,294,828,396,10,412,690,170,225,-234,344,308,-96,157,268,313,386,301,508,1146,495,454,773,573,248,-460,1,286,372,-312
112349,-102,40,370,309,854,395,7,427,719,188,246,-246,360,339,-67,159,279,300,404,348,552,1218,496,468,798,611,285,-464,38,346,440,-228
112350,-132,-4,397,299,837,374,1,406,687,209,253,-253,354,316,-68,161,240,298,388,335,563,1217,492,489,823,634,310,-451,44,331,425,-266
112351,-137,-4,363,296,829,372,4,368,666,208,247,-276,347,313,-67,168,235,313,398,327,542,1203,481,482,809,625,296,-488,32,314,401,-295
