,Fp1,Fp2,F7,F3,Fz,F4,F8,FC5,FC1,FC2,FC6,T7,C3,Cz,C4,T8,TP9,CP5,CP1,CP2,CP6,TP10,P7,P3,Pz,P4,P8,PO9,O1,Oz,O2,PO10
28122,-78,245,-246,-26,464,769,2,508,369,96,546,-172,310,731,209,143,402,126,238,234,137,529,131,305,794,500,397,29,277,258,372,18
28123,-103,228,-248,-76,449,789,-14,400,320,85,591,-190,258,712,230,186,394,60,189,213,128,532,36,247,760,469,267,32,266,227,332,-14
28124,-43,283,-136,-74,461,828,41,343,294,127,614,-159,249,710,258,143,366,83,179,228,142,552,120,242,750,459,341,46,270,213,297,-49
28125,-44,288,-165,-61,473,850,35,388,329,130,639,-173,270,719,283,153,354,98,182,241,153,537,136,266,757,455,387,24,280,208,278,-97
28126,-28,311,-148,-64,507,877,80,354,345,127,681,-157,272,734,259,265,372,65,211,269,213,609,136,281,806,510,378,68,320,283,343,-25
28127,-43,310,-149,-43,484,847,80,383,353,106,583,-185,255,734,221,223,310,57,211,254,218,621,105,286,820,497,359,35,311,275,372,25
28128,-93,262,-199,-82,469,821,46,366,318,118,627,-199,235,721,247,262,220,53,190,257,209,574,79,273,792,475,374,30,306,229,349,6
28129,-66,262,-200,-106,490,827,66,345,310,118,637,-177,228,726,233,293,245,59,168,262,201,556,78,269,765,475,396,33,310,246,338,7
28130,-40,278,-194,-79,498,822,57,390,320,125,577,-172,236,723,219,243,217,38,168,242,186,489,94,251,790,464,345,20,270,216,336,-68
28131,-53,263,-195,-71,478,798,9,346,319,104,553,-252,261,708,224,202,339,27,177,214,148,508,106,244,784,471,329,-24,260,202,348,-72
28132,-80,244,-212,-72,455,755,-30,303,339,86,533,-329,329,712,217,170,296,36,197,199,132,473,58,244,776,465,321,-54,239,217,321,-92
28133,-86,225,-254,-82,468,755,-26,338,341,87,549,-311,288,693,210,204,202,40,186,191,147,449,62,248,772,452,306,-30,271,224,331,-91
28134,-40,253,-189,-78,462,781,-6,361,308,119,574,-238,148,715,211,224,193,49,146,202,144,505,55,233,774,467,336,4,315,239,358,-92
28135,-46,226,-224,-68,454,770,-56,360,337,109,546,-412,249,724,193,174,188,146,168,204,135,457,20,238,778,453,348,-16,289,203,347,-133
28136,-58,228,-235,-77,464,776,-30,362,348,111,539,-217,242,717,223,102,236,45,161,222,164,440,33,218,769,436,342,-68,236,173,341,-123
28137,-77,241,-224,-90,469,790,2,355,322,146,534,-117,192,713,253,152,291,-85,145,211,150,450,23,186,745,439,334,-88,174,144,301,-85
28138,-85,244,-221,-109,450,797,2,367,311,148,557,-205,207,701,251,129,306,-8,156,206,196,467,45,202,753,476,384,-107,167,128,304,-82
28139,-37,249,-156,-92,450,776,-10,353,320,110,586,-179,230,699,180,149,313,15,167,216,270,456,51,243,793,522,448,-63,221,212,422,17
28140,-75,267,-194,-84,454,780,-25,321,327,99,615,-132,264,732,194,306,313,75,185,216,112,454,139,290,814,461,411,72,334,298,441,24
28141,-33,291,-192,-78,470,796,1,246,337,115,593,-139,263,737,236,260,336,75,194,240,128,491,129,292,797,453,403,43,313,253,399,-2
28142,-60,251,-234,-64,441,789,36,310,334,111,591,-228,233,722,251,223,273,29,170,215,210,483,68,248,773,474,444,-67,214,157,332,-36
28143,-71,266,-217,-83,446,803,16,407,298,108,595,-211,205,724,258,201,237,36,142,238,207,509,116,246,786,487,461,-66,194,177,358,-30
28144,-44,262,-177,-84,456,803,20,397,306,85,610,-178,214,709,252,174,263,48,155,213,155,552,108,247,785,466,341,-25,214,182,314,-2
28145,-73,240,-246,-86,457,769,-21,387,302,81,527,-223,227,692,217,133,334,36,152,185,148,557,90,242,777,445,343,-52,232,151,298,-37
28146,-103,237,-244,-105,443,778,-39,305,281,86,586,-233,212,710,224,144,334,11,152,205,187,552,105,242,788,439,370,39,293,206,334,-23
28147,-97,247,-227,-99,464,806,-41,325,289,104,669,-201,224,730,250,164,369,53,181,228,194,528,173,277,801,459,377,56,330,277,375,29
28148,-85,251,-217,-88,442,779,18,357,317,73,478,-205,251,701,197,143,329,94,192,227,173,526,180,306,856,493,425,111,364,286,425,97
28149,-88,232,-209,-97,453,764,10,352,298,84,501,-234,259,699,240,40,276,111,201,227,155,511,182,293,846,499,411,19,281,200,397,113
28150,-72,211,-195,-85,452,754,-48,394,336,75,545,-222,264,700,209,113,247,135,191,208,133,541,157,277,825,465,359,-93,169,90,330,36
28151,-56,238,-179,-66,455,786,-16,425,359,100,603,-153,277,734,191,232,311,161,223,259,173,544,197,313,829,485,393,-35,220,141,338,-51
28152,-26,274,-178,-77,460,802,55,407,332,112,585,-141,240,740,234,214,382,100,220,251,169,480,162,284,829,498,386,32,263,192,344,-35
28153,-45,261,-182,-65,456,783,51,390,325,116,617,-181,258,726,242,209,354,80,216,248,153,460,132,287,821,483,366,83,293,174,324,-61
28154,-35,272,-206,-30,462,783,-23,449,355,113,573,-158,295,739,240,196,359,103,215,261,179,531,161,303,839,506,431,75,309,182,339,-14
28155,-53,243,-194,-44,452,787,-34,472,354,123,559,-133,302,725,255,186,356,106,190,249,178,592,109,279,829,504,462,-20,208,120,317,-3
28156,-21,229,-86,-103,434,777,5,341,319,116,566,-156,249,718,264,226,409,111,195,263,192,626,158,287,833,503,443,-20,184,116,329,30
28157,12,254,-108,-93,434,792,24,387,325,116,560,-173,257,726,238,170,389,86,202,266,154,590,205,299,845,505,395,-22,213,147,374,21
28158,-22,242,-134,-116,413,794,6,412,314,119,557,-119,250,717,236,179,389,68,191,256,150,577,175,292,828,495,389,28,246,181,379,32
28159,-54,255,-180,-125,416,797,25,374,302,137,552,-157,242,753,254,211,384,91,222,283,196,571,204,323,841,520,427,57,302,210,404,54
28160,-100,255,-239,-130,403,795,35,312,305,135,583,-208,234,748,274,222,361,74,227,284,210,547,169,338,842,518,460,90,341,252,443,72
28161,-124,251,-278,-151,401,822,32,287,310,130,605,-229,240,737,276,212,382,83,245,266,201,562,195,335,822,515,455,144,332,275,446,97
28162,-85,276,-219,-132,408,833,78,376,320,136,574,-198,267,730,263,209,399,120,237,264,203,584,234,353,828,500,473,131,342,267,438,85
28163,-32,338,-161,-127,454,850,102,398,313,137,632,-148,229,735,288,231,376,149,220,275,249,647,258,380,839,513,486,149,366,275,408,39
28164,-21,345,-179,-98,492,838,93,370,323,153,629,-164,253,734,268,245,416,166,228,270,303,636,220,378,843,555,515,105,375,275,447,73
28165,-57,292,-206,-107,468,819,19,344,305,141,547,-187,214,719,274,116,386,118,229,284,305,565,174,344,855,589,522,142,390,305,488,105
28166,-51,318,-212,-123,469,826,23,332,297,133,626,-211,187,726,282,251,342,99,226,248,105,572,139,329,833,511,436,86,360,268,441,66
28167,-49,331,-187,-99,489,861,127,330,323,128,778,-188,219,744,236,346,398,93,230,231,157,591,169,325,795,491,402,6,321,252,440,57
28168,-57,325,-196,-92,481,871,116,348,317,140,731,-166,240,747,267,285,397,100,217,245,247,617,160,313,827,520,458,70,350,283,471,65
28169,-60,294,-202,-102,468,822,24,360,319,131,564,-178,240,749,270,110,359,95,220,259,284,640,182,320,832,567,485,73,340,298,470,94
28170,-86,246,-216,-143,454,825,23,328,282,120,566,-212,222,726,219,317,295,77,211,251,151,639,189,302,810,527,436,18,310,266,441,51
28171,-104,212,-249,-138,446,837,30,324,286,115,565,-238,229,708,178,294,229,58,207,220,51,610,126,279,799,445,360,12,288,214,375,-23
28172,-150,205,-313,-155,425,821,-5,291,277,126,598,-317,258,693,220,216,221,26,188,239,148,521,54,248,786,449,394,-58,221,161,336,-100
28173,-201,171,-343,-151,422,806,-27,358,291,135,624,-329,284,702,221,203,298,39,186,226,135,466,45,239,787,477,364,-38,244,184,362,-55
28174,-136,214,-228,-125,435,790,-34,396,268,142,519,-138,102,706,231,138,372,23,161,248,143,480,95,241,797,511,374,45,299,239,412,13
28175,-142,230,-254,-141,426,788,-23,316,279,121,537,-232,169,702,232,202,321,22,157,232,158,514,117,254,790,486,350,17,302,233,405,18
28176,-121,238,-220,-135,429,797,-23,277,275,113,591,-257,215,697,243,239,276,27,168,233,167,541,121,271,800,495,378,46,324,245,431,56
28177,-125,231,-253,-114,427,799,-22,332,285,119,595,-238,197,709,250,258,311,33,164,230,189,535,64,273,790,512,424,125,346,279,451,43
28178,-143,215,-263,-115,430,783,-38,324,309,118,574,-204,210,709,234,206,308,26,167,220,173,529,63,287,794,501,414,94,344,258,449,20
28179,-132,216,-224,-109,447,783,-53,248,318,119,565,-191,230,714,228,215,333,68,184,215,182,516,172,304,813,525,416,90,353,286,457,0
28180,-114,241,-256,-111,445,806,-23,244,301,107,593,-215,221,700,224,232,338,48,178,205,211,476,173,290,804,504,402,-22,281,224,414,-14
28181,-36,266,-199,-93,471,818,0,422,289,117,614,-179,211,696,267,276,357,36,160,229,218,493,70,249,787,523,413,23,269,190,381,0
28182,-19,279,-143,-82,488,839,8,445,291,117,564,-143,193,706,281,203,307,79,154,203,163,546,128,250,764,518,439,43,259,200,396,-10
28183,-26,289,-152,-49,498,862,2,429,319,129,599,-163,245,708,303,202,345,92,186,223,166,572,172,296,755,512,416,48,264,192,394,28
28184,-48,279,-228,-53,462,850,31,486,338,112,612,-129,266,692,208,248,350,97,177,221,186,542,205,312,761,515,424,29,268,163,366,1
28185,-59,300,-234,-29,454,833,26,515,362,110,593,-146,277,708,249,240,327,71,178,236,214,524,153,286,792,495,434,89,295,166,366,-8
28186,-72,307,-134,-104,451,842,27,319,307,134,612,-134,228,737,304,234,345,63,171,233,242,569,119,259,789,509,446,4,242,162,354,56
28187,-75,289,-160,-87,459,849,65,347,302,152,665,-140,237,749,351,257,300,81,156,234,254,581,124,263,769,507,502,-2,197,139,380,45
28188,-31,300,-146,-63,456,832,72,402,320,142,640,-96,253,735,253,314,425,122,182,231,267,613,186,298,804,528,520,153,290,231,423,82
28189,-35,295,-148,-68,441,826,69,392,326,96,614,-106,258,727,182,285,444,114,173,201,286,601,223,302,788,531,509,159,335,245,435,75
28190,-50,271,-170,-82,442,844,26,392,294,105,600,-109,269,717,246,216,355,152,158,217,343,529,222,298,781,531,535,102,336,232,437,50
28191,-48,288,-157,-68,441,833,25,382,299,103,613,-280,267,685,234,229,366,167,126,181,251,573,152,268,736,504,484,22,221,163,350,38
28192,-40,322,-163,-68,466,867,86,374,312,125,638,-251,271,698,247,311,372,181,118,157,124,635,141,257,706,432,393,-14,135,74,314,37
28193,-24,307,-135,-61,474,881,101,402,317,137,654,-28,215,703,254,289,386,-52,105,181,216,567,129,227,739,474,465,16,142,76,367,36
28194,-69,262,-181,-75,430,861,48,365,299,106,603,-170,210,692,183,239,341,23,104,149,163,466,143,215,702,438,471,10,143,66,331,0
28195,-118,223,-209,-92,431,824,-23,353,282,79,574,-185,201,663,153,247,255,72,95,123,156,459,82,195,683,393,444,-43,92,19,266,-54
28196,-125,223,-212,-113,419,825,10,347,296,87,570,-137,196,693,162,253,313,75,117,115,140,467,138,219,707,400,390,-36,153,64,283,-30
28197,-86,236,-172,-110,433,839,23,337,299,99,584,-137,218,699,174,250,415,48,124,139,144,468,133,238,710,414,375,46,208,100,317,-6
28198,-90,237,-173,-112,436,833,38,343,284,88,579,-153,205,675,173,186,351,49,131,118,133,488,138,238,679,404,379,73,229,101,322,-30
28199,-79,289,-164,-84,464,871,40,381,322,109,628,-108,251,702,193,167,332,111,144,147,167,541,201,292,717,438,393,59,275,151,362,-22
28200,-97,270,-195,-110,449,877,82,350,291,117,643,-122,230,679,191,218,322,98,118,139,142,534,150,254,700,398,374,-32,220,95,336,-27
28201,-92,274,-184,-98,438,876,65,369,292,124,621,-95,232,681,211,288,385,93,131,152,179,538,173,272,700,430,413,-88,171,81,357,31
28202,-130,247,-204,-108,434,872,73,368,275,98,623,-110,214,684,216,303,370,96,130,153,185,500,176,269,692,442,409,-92,152,99,371,55
28203,-131,260,-216,-118,467,878,60,373,285,105,601,-129,223,681,212,224,396,93,142,161,181,513,135,271,717,455,455,88,250,155,384,20
28204,-89,276,-202,-91,458,891,69,400,293,117,617,-132,237,681,240,247,376,102,142,181,204,529,198,274,724,471,459,95,258,122,362,-62
28205,-113,250,-230,-87,457,905,3,358,289,123,665,-140,241,670,252,203,309,89,130,162,206,512,211,267,715,432,391,-14,213,90,344,-22
28206,-89,271,-166,-77,470,895,-21,400,322,130,613,-122,269,687,232,187,329,109,151,168,184,503,167,269,724,412,401,25,264,130,346,-18
28207,-52,287,-124,-85,455,849,120,458,293,127,683,-104,269,702,255,247,389,132,167,194,200,541,148,282,727,454,458,64,271,142,369,-34
28208,-28,332,-107,-67,485,905,133,426,302,153,739,-122,260,696,295,272,383,121,159,208,218,547,169,279,738,462,484,17,241,114,378,3
28209,-33,344,-93,-83,470,875,121,362,282,123,618,-59,209,667,277,312,420,122,137,214,261,618,184,269,746,502,527,5,230,104,352,10
28210,-52,343,-153,-87,475,852,109,381,279,110,577,-100,196,685,282,289,406,91,144,215,206,581,162,260,757,498,420,4,206,89,386,3
28211,-28,322,-159,-66,484,862,109,380,316,107,535,-140,202,697,294,217,371,53,145,233,204,548,149,253,771,494,394,-17,226,118,416,68
28212,-72,277,-240,-57,471,848,16,470,307,102,577,-141,227,705,333,187,279,78,137,241,231,509,92,235,763,508,438,-15,224,115,371,0
28213,-43,301,-176,-109,456,849,22,314,277,87,622,-186,172,694,239,287,289,43,161,223,212,498,142,239,772,512,422,62,257,145,400,47
28214,-25,311,-146,-109,447,842,67,311,285,95,576,-232,197,696,193,162,301,31,162,210,122,509,131,261,769,465,400,18,243,136,387,32
28215,-51,279,-200,-83,467,825,22,329,291,106,539,-311,271,730,232,121,280,35,197,234,158,491,77,271,792,483,393,-28,214,96,352,-56
28216,-40,286,-205,-104,463,845,-3,365,274,117,544,-195,189,743,283,76,218,53,169,260,254,444,104,230,773,514,417,-44,205,56,325,-95
28217,-35,297,-193,-115,452,845,43,363,279,103,569,-89,111,741,272,133,294,56,165,261,227,463,119,213,782,528,433,-15,212,91,335,-57
28218,-61,286,-240,-106,434,832,83,319,296,97,582,-179,202,745,210,310,327,65,180,227,59,505,135,250,777,463,326,-22,215,114,349,-50
28219,-57,274,-224,-84,454,858,51,293,296,111,608,-188,212,750,238,204,274,67,197,245,126,496,181,273,803,489,370,12,247,109,348,-35
28220,-37,286,-201,-72,465,823,26,383,306,80,530,-170,233,732,191,177,336,85,201,236,148,505,216,298,802,510,390,24,270,150,370,-5
28221,-12,299,-149,-98,494,839,25,421,273,79,553,-125,190,711,219,171,353,85,190,231,146,524,177,314,821,485,377,93,333,199,429,50
28222,-22,284,-164,-98,473,825,0,359,292,62,551,-140,196,705,206,165,354,75,205,224,168,560,163,312,824,493,413,133,352,215,438,62
28223,-29,256,-190,-80,454,819,-38,381,309,63,540,-129,221,706,221,233,366,82,216,222,196,541,201,328,843,521,427,159,365,247,454,80
28224,-40,266,-141,-68,480,835,-17,416,317,85,518,-111,249,733,205,202,334,115,243,231,140,527,238,355,842,502,377,163,358,214,431,8
28225,-37,250,-141,-75,466,810,-62,395,296,94,463,-88,268,734,184,205,433,145,261,239,156,555,263,379,878,503,398,221,407,242,474,28
28226,-25,242,-156,-85,462,827,-52,390,290,90,504,-70,270,736,200,235,456,150,259,245,175,604,300,386,884,504,436,235,390,257,449,46
28227,-19,224,-138,-72,461,820,-41,405,312,72,515,-92,252,736,210,190,469,142,257,232,168,592,293,360,869,499,444,149,368,239,425,56
28228,-40,207,-165,-81,433,796,-25,427,303,67,495,-113,245,736,209,162,440,121,243,229,139,567,236,337,847,489,419,160,373,230,435,36
28229,-70,210,-173,-85,423,793,-47,406,299,77,484,-130,236,731,196,164,438,127,208,214,114,565,231,315,840,473,361,116,347,217,428,36
28230,-44,226,-102,-79,448,815,-112,381,313,96,521,-131,236,747,254,186,465,123,195,245,146,584,246,313,825,508,385,184,373,229,427,38
28231,-50,259,-112,-69,437,803,-31,414,332,70,515,-135,254,751,185,248,439,118,224,233,175,596,241,330,827,514,428,175,376,223,416,31
28232,-45,239,-175,-61,450,781,-25,412,343,55,483,-74,284,779,198,267,464,144,263,252,208,603,286,391,888,555,466,262,460,272,484,98
28233,-57,212,-159,-45,461,798,-10,405,337,92,528,-81,277,795,238,251,449,150,254,273,214,622,320,390,868,541,431,199,388,216,445,113
28234,-40,210,-148,-34,450,783,-31,445,328,87,500,-82,307,816,241,261,447,189,260,282,224,658,291,377,856,554,443,139,334,197,450,114
28235,-15,214,-125,-2,454,809,-53,513,349,106,503,-33,326,799,279,276,475,213,270,286,228,652,277,404,889,585,469,134,337,243,514,149
28236,-45,236,-112,-17,449,862,-1,444,335,113,602,-110,253,774,331,270,472,108,230,278,241,613,274,390,879,588,473,106,340,262,511,163
28237,-36,269,-117,-59,436,814,13,423,328,63,573,-77,284,767,206,329,510,170,252,282,283,695,304,415,897,614,552,186,440,343,582,218
28238,-47,254,-148,-79,418,786,5,399,312,83,525,-110,251,755,187,338,430,170,239,276,295,720,312,417,880,629,586,207,447,346,593,237
28239,-53,236,-162,-99,418,795,-9,397,327,95,533,-97,242,749,246,284,431,172,231,268,251,636,302,397,879,607,510,183,401,307,540,167
28240,-31,223,-145,-98,414,794,-62,360,326,84,513,-102,258,781,238,258,474,158,248,297,255,589,303,386,912,610,506,193,409,285,528,151
28241,-96,201,-204,-127,404,759,-92,321,305,83,511,-172,230,769,222,154,366,90,247,279,298,554,274,355,894,586,519,168,382,253,501,113
28242,-106,203,-241,-118,402,787,-54,326,321,114,543,-165,223,765,236,160,337,71,243,284,312,522,233,366,892,608,546,160,378,288,493,108
28243,-74,218,-223,-126,409,776,-67,333,333,96,457,-193,241,772,197,189,328,121,240,249,178,524,269,359,884,558,530,168,418,291,480,41
28244,-94,218,-271,-131,408,756,-71,377,324,67,456,-380,237,727,176,248,320,144,199,193,55,486,248,324,813,460,331,118,389,268,435,24
28245,-126,205,-257,-167,382,737,-85,275,295,71,449,-326,219,718,210,171,327,162,198,230,148,533,260,356,839,518,426,174,413,292,487,105
28246,-123,218,-228,-180,391,763,-54,219,287,95,465,-116,148,719,264,197,381,-27,174,233,176,562,231,320,832,516,475,192,368,254,463,122
28247,-111,231,-260,-125,422,797,-37,239,306,124,527,-245,208,735,325,221,370,35,182,247,230,587,191,306,839,564,517,109,288,191,435,117
28248,-88,265,-208,-101,417,799,-7,342,309,97,572,-236,242,721,226,229,343,95,196,259,271,596,235,332,874,597,573,153,352,257,472,98
28249,-38,304,-142,-115,447,807,28,410,306,88,544,-128,235,736,170,254,422,100,218,246,273,656,297,387,912,605,513,198,414,324,534,247
28250,-57,263,-155,-121,427,778,-23,386,301,98,509,-133,226,729,209,270,393,70,201,236,251,624,254,331,864,585,498,99,349,247,481,152
28251,-104,254,-218,-137,419,767,-62,353,293,63,520,-189,213,713,217,305,332,62,198,248,260,611,209,310,848,573,526,90,328,237,471,64
28252,-141,226,-245,-150,408,752,-81,335,275,48,476,-196,196,702,193,250,362,76,182,206,208,576,247,316,818,515,457,126,332,221,418,64
28253,-177,206,-243,-167,385,760,-57,340,278,56,466,-189,201,688,195,213,399,74,157,185,172,531,244,283,794,494,402,112,304,175,397,69
28254,-174,206,-217,-166,394,754,-87,343,284,57,441,-194,195,682,210,187,294,48,152,199,206,495,180,282,775,493,425,143,326,207,433,64
28255,-144,176,-194,-120,420,774,-107,371,311,94,534,-179,230,717,279,247,358,57,185,232,221,511,197,325,802,523,474,98,324,228,454,68
28256,-131,182,-188,-95,398,741,-102,418,320,41,438,-142,270,725,140,223,374,117,212,220,187,529,227,331,840,519,436,142,357,254,460,64
28257,-101,221,-177,-76,417,758,-77,408,314,61,457,-136,258,717,133,253,410,108,218,210,220,542,202,320,828,517,415,86,283,176,382,37
28258,-89,220,-178,-95,414,753,-100,374,300,59,500,-157,226,685,156,190,372,64,172,195,182,469,138,279,780,498,411,20,213,100,336,-50
28259,-75,234,-162,-88,422,759,-106,385,322,59,511,-159,207,694,189,175,415,55,165,225,188,543,126,275,812,496,406,19,234,112,373,-41
28260,-119,224,-226,-105,415,775,-80,356,314,73,498,-217,216,680,219,169,391,32,150,221,198,571,94,275,822,514,430,79,252,172,400,12
28261,-140,197,-249,-107,409,736,-73,285,304,33,340,-257,286,676,166,158,286,63,161,220,207,510,82,279,830,521,454,88,264,192,399,38
28262,-150,190,-290,-97,416,737,-75,322,328,43,402,-259,323,716,185,185,266,83,177,227,212,504,131,289,821,506,420,97,256,164,398,14
28263,-106,238,-232,-132,424,768,-88,387,268,82,439,-95,100,726,238,222,362,46,140,250,248,568,203,264,842,551,438,84,257,184,428,90
28264,-85,277,-205,-146,440,785,-3,353,250,77,551,-143,123,712,188,166,306,24,119,230,226,577,160,238,828,537,427,-5,157,122,376,62
28265,-65,298,-208,-113,445,796,17,380,258,69,543,-194,168,699,184,218,282,25,118,216,219,579,87,243,805,516,438,36,192,132,372,33
28266,-23,315,-171,-89,452,828,53,432,274,105,589,-183,170,694,231,298,307,61,126,240,264,610,132,252,806,514,495,75,243,151,376,31
28267,-41,322,-188,-126,459,836,72,334,280,121,627,-179,164,708,254,285,304,43,136,239,279,592,187,257,790,503,506,81,296,169,406,15
28268,-75,311,-197,-152,428,825,29,316,275,99,571,-165,165,709,237,271,255,38,134,212,265,591,154,273,816,493,462,88,325,198,407,44
28269,-87,312,-176,-144,443,837,50,356,277,100,582,-182,160,706,237,188,268,60,137,227,289,603,141,285,806,513,490,46,312,213,420,65
28270,-63,328,-175,-130,462,841,45,313,290,95,609,-188,190,718,267,213,308,62,145,254,394,591,131,300,842,560,544,87,347,229,474,108
28271,-36,364,-168,-100,469,814,70,368,319,85,534,-174,218,723,212,342,306,94,186,229,182,654,188,307,839,511,483,192,377,248,483,130
