,Fp1,Fp2,F7,F3,Fz,F4,F8,FC5,FC1,FC2,FC6,T7,C3,Cz,C4,T8,TP9,CP5,CP1,CP2,CP6,TP10,P7,P3,Pz,P4,P8,PO9,O1,Oz,O2,PO10
61999,234,712,777,278,-228,680,759,783,283,132,679,319,530,204,459,409,583,356,218,284,368,776,481,499,267,497,551,-188,366,379,329,211
62000,215,688,757,248,-232,667,729,787,281,127,664,312,518,201,461,355,557,323,195,266,356,766,440,472,232,492,566,-256,328,338,304,215
62001,233,672,796,271,-237,652,725,819,278,129,654,321,534,204,430,348,598,323,192,252,351,748,424,470,228,487,540,-318,303,338,295,198
62002,201,676,806,277,-234,649,738,808,273,125,642,340,539,188,424,367,655,326,194,249,348,786,476,488,235,469,546,-210,362,380,294,235
62003,233,701,829,287,-242,661,764,835,264,94,653,349,546,172,403,363,648,310,169,216,340,806,461,449,190,442,552,-259,340,319,263,204
62004,259,712,850,308,-227,663,758,852,286,103,645,343,541,161,397,358,670,319,170,212,341,801,454,455,174,447,565,-241,351,326,296,217
62005,254,698,847,326,-239,652,754,842,285,103,637,338,545,163,412,382,668,337,173,237,349,796,452,481,195,446,559,-228,382,356,296,200
62006,256,691,816,312,-241,628,740,846,289,78,638,347,534,158,390,357,690,352,169,222,337,748,477,497,182,439,474,-139,430,366,303,189
62007,254,702,806,307,-231,644,768,854,292,108,657,338,559,189,415,281,653,361,201,238,344,779,482,508,207,470,492,-106,441,407,340,171
62008,247,681,792,292,-221,639,729,827,272,98,657,314,546,178,418,120,585,362,180,243,341,792,470,494,216,488,514,-240,392,408,355,230
62009,258,693,795,279,-222,641,729,816,275,91,648,311,523,169,398,189,594,355,175,223,337,758,439,487,207,473,512,-300,397,390,370,262
62010,258,709,778,265,-227,629,744,803,272,105,642,278,495,154,410,363,525,292,159,201,339,806,394,443,170,449,520,-291,385,405,351,243
62011,234,715,757,272,-222,639,746,794,280,94,629,253,485,138,396,417,491,264,144,193,342,795,401,448,142,448,534,-239,407,404,363,247
62012,217,708,748,273,-225,651,730,782,265,78,609,266,482,130,372,414,450,273,133,178,340,764,417,460,156,447,538,-171,459,407,348,204
62013,239,696,771,268,-210,649,748,789,277,97,612,274,499,135,377,421,427,298,144,185,356,771,444,464,191,441,552,-78,484,419,351,197
62014,226,687,768,245,-227,644,740,778,262,103,635,253,479,140,401,431,449,281,146,200,353,765,413,468,183,441,555,-156,434,400,351,238
62015,239,686,763,272,-243,635,733,781,267,85,652,253,457,143,418,437,488,269,119,196,366,814,365,439,164,464,581,-381,377,374,358,253
62016,280,709,800,288,-221,653,770,792,270,97,683,264,489,139,406,452,589,294,128,212,380,845,402,451,180,478,579,-430,367,382,365,251
62017,279,704,807,285,-210,677,777,808,261,101,653,264,503,129,411,437,618,299,152,220,393,830,439,475,181,481,565,-403,375,384,346,233
62018,267,718,787,268,-218,675,790,798,258,102,683,267,514,153,425,437,523,288,158,215,401,819,440,488,201,469,575,-369,388,401,342,244
62019,277,709,797,286,-228,686,783,827,282,118,714,288,528,164,442,451,536,347,195,227,433,831,508,527,226,488,585,-201,483,438,388,269
62020,269,692,802,291,-240,673,761,833,292,118,704,302,554,189,461,435,575,355,223,266,471,846,552,557,264,520,649,-93,550,504,434,323
62021,270,686,807,300,-222,670,788,834,303,120,717,315,566,181,458,364,588,366,227,270,475,838,527,562,274,530,680,-165,536,526,434,309
62022,269,676,811,297,-217,680,797,840,310,124,720,325,562,173,464,189,569,363,223,268,457,805,509,545,273,505,652,-179,540,513,450,337
62023,244,654,789,298,-246,648,786,811,282,99,722,268,524,157,469,163,563,310,200,251,445,704,445,511,242,498,624,-271,476,460,391,321
62024,241,675,810,316,-232,670,805,840,301,135,744,267,535,165,484,377,603,319,211,254,464,656,454,530,239,511,611,-244,469,447,369,287
62025,220,676,796,324,-227,669,799,823,313,130,740,282,536,167,478,504,568,317,225,252,420,720,476,539,260,503,598,-176,538,492,434,277
62026,204,678,758,315,-230,660,766,802,313,128,723,257,545,183,455,498,525,330,230,255,374,738,490,562,273,515,560,-111,606,538,468,293
62027,197,691,769,311,-226,665,798,814,296,113,716,268,550,189,471,499,525,315,236,253,384,869,483,540,286,499,582,-200,538,508,434,328
62028,226,726,801,339,-220,672,800,837,294,124,729,301,541,171,458,476,557,317,212,249,383,944,441,489,287,487,600,-451,385,409,364,335
62029,264,711,830,348,-200,683,809,844,307,139,739,307,545,170,469,487,564,332,224,261,419,902,425,495,278,501,627,-464,357,390,358,307
62030,249,690,782,315,-200,675,797,811,283,127,724,277,534,156,465,473,536,314,204,254,401,855,435,501,238,494,595,-318,439,438,363,266
62031,229,674,765,319,-207,674,778,822,282,131,707,280,549,162,468,403,537,328,209,261,400,774,498,526,254,499,556,-198,502,444,370,248
62032,212,675,739,284,-231,679,770,778,281,149,721,267,550,164,473,312,501,324,224,277,420,810,504,547,284,499,554,-215,493,432,359,238
62033,210,682,730,289,-232,659,749,782,283,139,702,260,539,167,447,198,558,316,217,263,388,800,469,536,275,494,589,-316,413,417,361,266
62034,222,687,734,286,-227,652,711,782,290,131,681,249,540,186,441,276,533,316,223,250,377,715,412,507,263,482,555,-487,349,398,354,241
62035,224,697,740,278,-220,662,748,780,303,134,705,240,550,208,467,433,476,319,252,302,377,715,423,516,296,495,636,-435,432,434,380,283
62036,252,699,752,277,-224,675,780,779,299,130,726,231,525,175,473,468,454,303,234,284,402,776,414,518,292,481,655,-330,431,440,362,300
62037,271,706,750,269,-225,678,800,777,272,139,720,217,541,165,440,429,399,315,215,254,366,722,449,515,271,470,578,-259,460,436,359,243
62038,253,715,770,298,-214,700,786,796,286,161,721,226,552,185,457,424,436,344,225,280,361,744,512,529,297,484,534,-179,488,461,380,247
62039,258,701,748,326,-226,700,774,785,290,151,715,238,547,168,461,401,417,352,219,283,374,778,492,557,293,481,535,-237,477,442,369,301
62040,260,721,753,301,-229,686,771,777,271,141,726,234,525,150,467,397,465,312,221,284,383,776,429,539,282,502,582,-267,484,436,367,335
62041,282,709,784,306,-213,672,777,798,275,130,726,273,536,155,459,402,533,328,225,267,407,797,444,537,264,492,585,-234,482,444,368,316
62042,301,728,812,342,-201,668,810,834,305,154,734,309,567,169,467,382,579,346,249,280,424,822,508,568,280,474,570,-200,499,451,369,296
62043,268,724,810,316,-220,652,772,833,309,144,712,297,571,170,441,352,601,359,251,259,416,780,558,598,268,472,563,-58,572,473,392,258
62044,237,693,784,290,-248,641,729,808,306,153,680,276,562,180,441,338,507,353,262,268,414,768,528,599,275,469,573,17,576,475,402,252
62045,226,672,794,295,-233,643,731,803,301,158,680,259,581,204,436,279,428,334,274,269,408,776,477,577,297,471,567,-78,512,448,375,260
62046,203,654,780,291,-236,648,744,828,291,140,691,301,576,204,406,184,513,349,262,261,344,754,474,576,281,458,502,-204,468,435,364,236
62047,207,667,781,279,-254,635,725,819,283,128,663,301,565,207,399,228,497,344,270,260,314,781,444,566,285,460,515,-311,407,416,381,303
62048,234,664,812,294,-243,614,716,822,300,132,657,294,595,203,419,356,548,365,306,270,340,800,494,599,299,470,534,-207,486,473,418,333
62049,217,638,838,274,-236,617,734,817,296,136,666,288,582,203,426,444,487,358,286,280,347,819,476,591,296,470,527,-200,506,478,398,283
62050,198,674,811,273,-243,621,739,833,294,131,670,280,587,213,426,421,474,359,273,297,347,811,473,593,292,499,525,-244,480,461,400,240
62051,198,653,796,274,-262,617,719,811,284,142,642,265,580,204,433,296,469,349,278,291,337,756,481,595,309,494,509,-219,481,462,391,254
62052,220,658,778,254,-264,628,706,795,276,165,642,259,573,205,438,186,459,338,268,297,340,680,462,595,315,494,515,-243,448,442,359,255
62053,218,692,764,251,-254,647,735,793,282,168,663,257,562,210,436,256,504,375,268,304,351,531,494,620,310,516,550,-155,500,458,371,216
62054,180,674,767,259,-251,643,729,777,269,143,667,237,553,204,435,198,466,342,261,293,324,352,509,606,296,498,510,-86,510,429,348,154
62055,186,680,763,246,-253,647,747,778,262,137,665,251,544,198,443,181,481,343,263,307,353,440,505,613,327,522,531,96,582,484,394,221
62056,197,688,773,262,-257,660,747,780,274,142,680,281,560,209,454,334,535,394,292,337,371,582,568,649,344,534,527,270,676,535,422,238
62057,200,666,785,270,-242,678,752,796,289,146,695,295,570,213,458,429,539,401,281,331,379,670,593,665,355,534,491,203,654,546,441,212
62058,231,705,800,281,-217,685,736,792,297,145,681,284,554,186,445,434,497,363,261,308,387,781,512,604,306,517,485,-230,472,469,375,204
62059,264,768,834,296,-199,712,780,809,291,162,712,325,564,184,471,457,577,363,281,310,391,934,496,598,312,518,544,-305,440,426,350,223
62060,309,821,865,313,-189,737,824,836,298,180,742,354,584,207,479,457,541,382,297,338,403,913,517,632,346,542,589,-152,474,455,383,308
62061,268,808,853,321,-210,710,814,847,291,161,716,338,591,196,481,401,590,383,304,335,397,800,562,649,337,546,582,-71,523,497,437,295
62062,272,766,842,307,-195,708,802,849,286,163,710,350,588,202,462,393,631,423,322,344,414,788,612,682,369,576,608,109,622,550,475,310
62063,278,748,832,294,-195,723,781,834,302,163,698,358,599,213,458,406,636,435,332,353,430,856,649,693,384,584,624,185,644,529,468,322
62064,260,714,816,275,-229,688,784,830,312,133,685,335,588,210,460,383,625,401,305,349,440,848,665,676,366,577,630,142,563,463,407,295
62065,257,723,829,292,-227,673,772,818,313,153,681,341,574,190,442,367,609,405,307,337,461,811,662,666,356,574,675,109,580,476,388,308
62066,322,747,848,332,-195,701,800,835,325,172,701,354,580,215,458,400,587,375,302,334,470,862,510,626,346,564,701,-192,447,428,406,350
62067,307,752,848,317,-205,692,788,833,299,138,678,339,555,202,435,395,637,372,295,321,474,829,547,638,332,550,677,-51,476,438,394,260
62068,314,765,848,328,-212,680,799,839,310,151,682,338,576,203,429,378,630,384,303,327,458,813,586,646,352,565,620,146,586,504,431,239
62069,296,734,820,306,-219,671,779,811,302,136,669,336,584,195,417,278,571,378,299,319,402,820,613,666,350,558,570,226,613,521,456,277
62070,263,749,795,268,-224,672,759,797,275,127,658,317,553,186,416,285,540,374,282,299,366,803,589,639,331,533,559,160,570,494,425,318
62071,290,741,818,278,-223,682,785,795,277,121,669,316,552,184,394,396,477,350,249,285,362,800,537,591,305,494,545,-49,457,426,361,274
62072,324,748,828,296,-223,670,811,807,270,125,670,337,537,185,381,392,498,340,243,260,357,831,490,563,261,479,529,-213,350,340,336,250
62073,325,769,860,284,-228,677,826,834,283,141,679,384,576,211,396,248,649,379,268,263,380,842,512,584,282,506,544,-195,369,350,336,271
62074,293,752,831,256,-236,663,814,809,282,126,679,328,572,218,411,303,613,372,278,301,411,816,515,603,299,514,549,-123,403,399,354,267
62075,289,743,796,250,-243,676,820,795,277,140,704,278,572,227,421,458,465,392,293,330,414,861,557,638,336,535,579,-14,491,481,396,288
62076,284,754,808,272,-253,685,825,810,272,131,712,318,593,229,450,409,571,410,301,317,407,840,668,682,360,554,574,174,571,523,435,313
62077,312,774,850,302,-227,692,857,821,288,150,726,357,583,234,451,376,556,415,303,326,413,801,701,691,365,542,555,245,588,494,412,244
62078,324,797,865,292,-207,725,873,835,297,161,760,384,579,248,484,513,519,408,322,352,447,834,656,693,372,567,586,235,555,458,408,296
62079,298,765,809,258,-236,691,822,813,305,138,722,357,566,229,455,522,603,399,313,336,436,788,656,682,362,572,585,311,588,497,411,317
62080,299,767,805,274,-240,682,814,822,306,160,723,367,580,219,434,536,663,425,312,343,428,737,656,688,375,565,586,278,580,512,403,303
62081,311,797,849,294,-222,715,854,843,318,167,744,362,596,222,469,525,640,425,322,370,457,827,635,699,402,591,630,270,606,541,444,313
62082,324,786,841,293,-221,718,861,841,322,161,735,353,596,222,459,504,627,421,322,352,455,855,645,712,390,596,628,295,596,525,430,287
62083,283,763,826,294,-233,694,847,825,306,144,716,326,581,208,438,462,595,385,328,334,434,748,628,690,376,573,617,303,606,540,454,317
62084,328,758,839,312,-224,698,841,824,301,127,727,352,582,200,432,458,627,384,306,324,420,714,604,658,363,547,567,156,531,492,426,270
62085,323,734,864,315,-249,695,844,826,296,143,730,353,573,194,433,457,663,392,295,315,432,857,578,651,355,545,565,95,517,478,420,260
62086,277,707,829,289,-268,665,798,794,272,127,689,312,559,173,400,409,553,365,285,296,393,788,572,629,344,544,543,70,508,482,406,262
62087,268,723,827,302,-254,677,785,806,287,131,683,303,560,178,404,402,545,385,282,303,421,660,583,637,356,551,542,12,481,455,428,242
62088,286,738,841,302,-241,689,802,837,304,131,709,330,570,209,427,463,593,401,306,320,482,783,584,651,355,550,523,65,509,490,423,220
62089,275,731,839,287,-235,689,816,818,303,134,700,322,559,200,410,416,587,392,298,312,456,822,551,649,341,528,519,85,524,478,424,234
62090,258,728,841,304,-234,698,805,833,286,146,722,348,578,193,438,408,599,416,296,297,460,824,578,651,321,539,552,152,539,493,439,213
62091,291,750,838,321,-212,717,846,839,304,164,761,335,588,213,466,471,604,430,326,333,482,793,632,686,356,572,639,299,613,559,474,254
62092,301,765,812,318,-205,724,859,843,315,157,765,327,600,214,453,462,592,418,324,322,429,717,665,712,367,585,634,402,641,584,480,270
62093,286,769,809,283,-222,718,853,811,294,137,751,321,579,196,436,382,538,422,293,295,393,714,643,685,345,563,591,373,606,555,436,245
62094,300,790,813,291,-214,722,858,806,293,148,753,308,564,189,437,208,510,410,284,292,406,796,628,653,326,543,557,121,514,471,419,285
62095,334,792,812,307,-202,752,862,809,302,163,769,307,566,203,436,86,534,403,296,287,404,898,573,626,320,527,563,-19,464,469,420,283
62096,299,765,783,263,-226,724,837,785,280,162,751,304,541,191,454,185,544,391,279,286,393,835,541,634,307,526,553,78,478,466,414,230
62097,260,730,762,247,-259,697,809,781,274,149,737,293,535,183,455,409,570,382,282,291,391,809,559,633,288,535,542,200,521,477,403,237
62098,260,734,800,277,-248,728,824,801,294,168,753,303,559,205,453,524,549,403,294,300,407,830,564,643,304,529,552,218,550,480,394,240
62099,236,718,806,272,-257,696,792,766,282,166,726,289,525,180,438,469,476,372,257,272,381,658,502,608,280,493,528,113,444,411,342,217
62100,232,660,768,245,-259,675,756,748,270,139,692,257,510,164,429,433,465,336,240,266,381,593,469,588,260,466,544,83,418,387,303,203
62101,246,655,768,255,-238,694,778,794,293,168,724,270,544,198,473,437,484,367,281,309,412,779,498,624,311,491,568,141,461,403,319,197
62102,258,677,796,276,-241,718,793,800,298,184,738,283,576,212,487,415,533,387,304,324,413,845,540,648,323,511,540,243,493,422,322,154
62103,234,670,788,301,-256,694,767,798,287,168,716,272,574,188,467,343,536,405,298,319,393,725,564,657,340,511,509,348,517,440,331,199
62104,238,659,797,303,-265,689,766,819,306,151,696,286,582,182,451,213,496,415,300,299,370,685,539,651,339,477,495,317,482,411,306,130
62105,276,669,812,282,-281,673,772,813,298,138,690,287,573,168,436,241,523,388,262,278,341,598,514,616,295,444,460,261,448,354,256,80
62106,285,699,805,310,-258,687,808,812,285,144,720,267,559,165,442,362,479,365,262,295,376,560,499,588,297,453,435,182,420,334,225,113
62107,264,686,781,284,-261,679,763,804,299,133,717,244,581,153,434,361,441,356,284,291,364,616,551,611,308,457,436,328,501,430,274,122
62108,272,712,761,314,-260,675,785,815,321,165,719,247,590,178,448,378,476,362,298,302,393,678,539,594,299,480,454,227,460,398,291,148
62109,276,714,768,312,-252,679,801,793,317,157,723,222,571,184,469,346,452,312,261,291,397,692,426,550,306,463,450,-175,307,286,215,118
62110,255,682,784,300,-252,667,773,791,300,149,707,211,564,187,442,328,450,314,268,304,407,738,401,560,300,471,466,-96,353,342,234,155
62111,256,689,788,294,-244,685,791,796,277,138,709,201,568,188,439,345,484,328,267,310,392,765,435,570,311,454,435,131,418,375,257,110
62112,275,682,807,291,-246,693,781,801,290,142,690,215,559,207,442,362,473,327,260,303,382,761,482,604,312,482,444,337,524,436,310,77
62113,283,707,814,313,-237,705,772,819,305,168,718,238,569,207,456,365,476,328,281,313,375,724,490,591,332,502,464,279,507,436,320,133
62114,266,715,802,317,-236,694,746,812,290,157,714,236,560,185,457,342,421,318,245,309,334,651,418,569,303,480,457,92,367,364,282,138
62115,291,726,802,310,-231,695,759,812,303,161,707,239,551,177,452,350,493,282,246,311,375,619,359,530,307,476,474,-116,266,334,287,196
62116,292,758,819,298,-213,714,811,820,293,170,767,212,547,176,479,424,416,288,247,322,432,732,345,533,306,497,496,-121,295,343,287,175
62117,290,769,810,295,-213,711,816,807,299,184,771,228,534,168,484,366,452,304,241,320,415,774,389,547,307,499,474,-89,328,352,298,173
62118,300,766,806,317,-206,727,828,824,307,177,769,252,544,168,490,258,444,325,250,318,410,775,443,549,318,511,489,-16,359,375,305,179
62119,322,774,832,344,-195,743,851,854,309,195,787,283,569,186,508,297,435,350,283,344,442,784,494,589,326,538,520,85,444,436,355,202
62120,322,773,836,355,-218,717,806,872,298,183,770,304,582,209,507,244,448,386,295,349,422,726,516,621,350,527,529,210,498,463,358,167
62121,306,773,807,354,-227,694,807,852,297,167,752,293,588,208,483,171,337,362,299,347,414,723,470,630,369,552,550,350,572,508,385,196
62122,296,770,800,329,-236,697,818,833,324,172,752,264,582,215,492,302,367,356,296,363,458,740,508,631,355,560,589,401,574,516,400,229
62123,302,765,820,342,-232,696,813,836,318,171,746,261,584,210,485,415,441,340,289,363,458,739,505,602,343,558,592,256,477,460,367,178
62124,316,774,836,343,-220,693,818,850,301,169,725,266,556,193,470,476,454,331,280,354,434,801,443,581,327,551,541,32,384,390,340,185
62125,313,774,844,365,-199,692,816,859,318,179,751,278,578,208,470,486,430,336,283,351,422,815,429,590,310,528,548,-58,337,384,359,246
62126,331,753,836,370,-191,672,805,865,331,161,709,297,606,227,478,457,469,335,285,338,421,740,460,578,304,520,576,39,381,415,356,243
62127,339,762,858,361,-198,652,798,865,326,160,680,308,594,196,459,429,501,352,282,324,415,703,471,579,299,512,594,136,394,390,365,233
62128,371,778,899,383,-193,675,803,873,331,143,690,329,604,206,451,425,556,381,273,311,435,847,507,603,300,519,585,253,427,405,350,237
62129,333,755,840,354,-207,663,771,861,311,129,662,317,603,187,447,288,562,380,287,305,406,809,586,633,296,516,545,402,492,427,350,224
62130,328,758,846,358,-210,679,792,849,308,124,670,333,626,193,460,271,565,410,306,321,407,710,622,647,306,536,564,438,540,463,369,187
62131,323,745,838,349,-213,663,794,836,318,136,684,286,615,203,473,396,471,367,299,312,434,763,513,634,320,540,605,278,498,409,370,241
62132,305,728,838,327,-226,638,779,809,302,132,675,270,584,172,452,414,426,325,265,282,426,743,448,591,276,487,559,15,359,309,299,141
62133,335,731,863,330,-209,655,788,848,325,145,662,340,622,198,462,410,459,391,283,300,431,672,513,616,288,484,536,135,411,356,318,182
62134,349,746,867,346,-204,659,785,853,330,137,665,346,609,213,444,408,456,402,287,313,416,750,517,620,294,497,520,31,362,333,280,244
62135,331,745,859,359,-206,665,789,839,324,146,690,347,615,206,458,419,539,434,302,303,419,790,572,640,299,505,539,97,425,369,324,247
62136,329,710,861,326,-226,658,750,832,322,148,657,358,603,186,439,408,593,426,289,278,409,746,549,638,282,508,546,191,454,374,326,227
62137,324,696,858,321,-224,647,727,825,308,138,640,346,571,157,414,394,572,377,257,254,360,707,482,583,249,463,584,10,350,310,266,114
62138,295,694,825,325,-216,668,729,805,319,150,660,329,572,154,417,395,593,393,246,270,343,726,510,600,251,474,671,88,374,345,313,233
62139,288,681,793,307,-203,676,703,789,311,155,670,299,554,153,407,384,556,391,240,260,354,613,492,581,254,458,635,87,353,310,303,253
62140,256,672,764,274,-214,667,684,778,299,162,653,311,567,161,408,319,571,381,235,252,335,647,473,550,238,451,582,89,346,290,278,202
62141,251,691,782,281,-225,682,696,772,286,151,649,313,566,173,426,83,599,367,234,244,312,752,503,561,244,444,515,140,364,317,262,167
62142,264,718,816,286,-212,696,715,785,296,143,668,335,548,186,435,-25,559,372,230,247,303,754,518,564,248,429,472,144,362,320,284,190
62143,231,682,766,253,-234,663,689,750,269,135,656,288,529,168,421,160,399,348,234,240,290,654,474,559,263,419,439,120,335,308,272,202
62144,230,656,778,259,-239,653,689,750,275,147,643,316,545,174,425,395,523,359,232,264,324,626,517,573,277,446,463,127,347,327,291,213
62145,224,676,785,262,-217,684,738,762,278,163,663,332,551,184,448,494,569,361,253,268,359,771,542,576,296,454,516,153,381,330,308,211
62146,233,661,749,264,-227,681,735,738,267,157,676,310,517,167,440,482,576,347,238,274,363,820,519,553,270,444,508,157,377,306,284,129
62147,257,680,749,262,-211,696,720,747,284,171,667,308,532,166,446,421,513,349,225,283,335,717,499,558,251,440,449,174,369,310,287,120
62148,244,687,725,264,-228,691,678,740,274,164,634,284,539,194,423,375,447,337,244,282,341,549,517,557,255,463,468,155,367,330,293,164
