,Fp1,Fp2,F7,F3,Fz,F4,F8,FC5,FC1,FC2,FC6,T7,C3,Cz,C4,T8,TP9,CP5,CP1,CP2,CP6,TP10,P7,P3,Pz,P4,P8,PO9,O1,Oz,O2,PO10
105510,331,633,40,-184,-49,313,-187,184,-132,24,124,38,163,-253,231,-19,-47,-67,-355,-159,-109,-245,-91,-243,-356,107,-56,-295,-110,-444,-482,-446
105511,319,640,63,-160,-28,306,-183,207,-105,37,94,12,209,-194,250,-86,-47,-3,-290,-103,-103,-194,-25,-193,-292,127,-42,-322,-74,-385,-390,-301
105512,298,680,87,-132,-25,290,-188,232,-75,48,39,11,257,-151,256,-34,-32,12,-245,-37,-48,-150,-21,-146,-228,188,-31,-319,-46,-367,-374,-266
105513,330,729,118,-96,-24,299,-186,265,-26,74,87,23,274,-124,286,26,40,6,-190,0,-3,-141,-72,-121,-172,245,-7,-241,-15,-342,-364,-300
105514,314,700,152,-77,-53,358,-148,288,7,102,170,73,326,-69,345,46,72,41,-145,47,20,-56,-2,-82,-111,289,19,-138,72,-284,-277,-268
105515,321,715,179,-47,-33,372,-54,319,61,135,198,123,391,-38,400,106,110,113,-80,123,93,-12,102,25,-17,384,73,-31,164,-182,-163,-176
105516,318,730,156,-42,-26,379,-58,316,35,163,241,139,386,-41,423,97,69,125,-53,150,103,-11,99,76,18,422,71,-63,160,-189,-172,-176
105517,303,694,116,-78,-25,409,-92,302,16,159,296,117,365,-55,430,61,39,114,-52,144,95,35,83,39,2,404,57,-120,121,-189,-189,-178
105518,293,624,110,-109,-36,352,-91,260,-3,116,188,69,350,-63,388,45,50,106,-72,124,64,75,94,44,21,400,52,-88,127,-162,-197,-159
105519,249,512,98,-127,-42,347,-112,264,-22,102,120,65,331,-72,350,22,4,96,-78,114,72,30,111,57,41,411,108,-50,201,-129,-186,-200
105520,250,525,73,-174,-14,313,-167,243,-46,76,117,36,304,-102,344,62,-27,83,-75,83,60,57,128,77,50,422,122,2,229,-103,-133,-166
105521,198,582,41,-164,-43,310,-190,229,-55,56,168,29,312,-123,331,170,-17,97,-75,89,77,106,120,75,41,414,122,-15,191,-104,-133,-89
105522,215,667,92,-141,-40,338,-126,264,-29,83,218,96,357,-71,359,233,80,166,-47,113,122,127,199,133,93,453,148,71,264,-29,-78,-57
105523,276,724,110,-110,-25,369,-73,270,2,101,223,117,357,-44,384,219,127,158,-22,124,137,169,197,127,120,476,190,-40,251,-15,-65,-54
105524,286,706,86,-114,-44,386,-59,256,5,102,230,118,338,-64,353,148,190,141,-41,124,113,261,199,125,119,489,251,27,281,50,14,33
105525,320,711,118,-116,-53,394,17,250,9,128,250,123,332,-81,360,189,187,157,-55,130,137,280,207,145,126,497,287,130,343,61,27,63
105526,396,822,174,-74,-42,420,90,274,12,146,256,150,335,-61,374,256,230,182,-69,170,176,368,257,139,136,526,340,237,388,104,45,128
105527,389,838,173,-101,-36,409,67,287,-6,145,276,151,326,-68,377,332,225,202,-78,172,192,365,239,133,144,553,363,209,384,108,81,180
105528,336,779,130,-116,-25,376,52,276,-46,113,261,153,309,-91,356,302,209,171,-92,150,182,289,221,113,113,533,368,114,335,65,64,146
105529,277,724,135,-149,-45,391,37,269,-82,91,253,130,279,-132,349,221,209,131,-161,106,148,296,167,52,58,491,373,-36,264,25,35,123
105530,259,720,154,-192,-32,381,37,247,-124,67,271,115,225,-192,345,175,173,68,-221,57,127,297,86,0,6,447,352,-185,135,-61,-51,87
105531,303,773,152,-174,-40,361,66,241,-136,67,236,130,220,-176,333,288,164,37,-232,41,126,266,46,-32,-5,435,307,-140,120,-59,-49,167
105532,315,798,190,-131,-43,342,64,298,-111,77,266,150,234,-175,322,375,144,32,-231,21,113,159,19,-47,-24,405,270,-115,164,-54,-63,145
105533,344,694,206,-119,-47,416,38,320,-90,93,305,181,262,-164,342,335,139,43,-226,34,106,81,39,-67,-43,385,267,-79,182,-83,-105,-11
105534,434,785,252,-42,-20,433,17,400,-36,109,290,230,327,-115,346,251,230,103,-198,64,122,228,117,-44,-18,392,295,5,204,-80,-99,41
105535,423,881,293,-14,-43,426,17,440,21,122,243,253,360,-86,350,198,247,136,-161,73,137,383,117,-29,-13,399,362,-17,172,-95,-60,177
105536,427,854,316,-21,-44,385,21,451,33,132,222,229,391,-77,349,204,180,156,-134,66,131,385,103,-6,-35,394,373,6,199,-90,-112,15
105537,466,807,325,-22,-28,376,8,451,44,127,227,267,415,-81,314,216,209,174,-136,57,115,359,142,11,-28,386,371,70,225,-51,-106,-80
105538,424,786,311,-52,-31,341,-93,411,10,90,209,257,378,-130,274,182,176,149,-186,13,77,298,96,-43,-71,310,297,-43,157,-85,-124,-15
105539,419,769,298,-82,-31,287,-126,412,-11,40,147,254,374,-158,245,126,139,113,-219,-49,-5,241,49,-60,-130,258,153,-92,133,-113,-132,40
105540,370,689,238,-120,-42,247,-176,374,-51,-11,65,214,346,-194,195,32,97,86,-245,-97,-74,120,54,-78,-183,220,90,-58,140,-109,-149,68
105541,362,667,263,-114,-17,252,-182,392,-36,-8,71,210,341,-191,162,35,68,79,-238,-106,-87,226,3,-88,-186,224,125,-248,41,-162,-150,70
105542,378,646,291,-99,-34,281,-206,391,-23,0,80,200,342,-180,151,19,27,82,-225,-114,-116,190,10,-89,-189,187,65,-265,33,-185,-182,-77
105543,417,621,306,-88,-51,294,-179,368,-3,30,71,190,361,-170,148,49,41,104,-211,-104,-96,194,33,-58,-177,210,68,-204,74,-159,-177,-56
105544,474,686,359,-41,-32,306,-129,406,28,49,51,232,401,-137,158,87,127,149,-169,-86,-78,155,103,-21,-153,229,91,-64,165,-97,-128,-17
105545,495,752,342,-24,-35,320,-104,429,47,68,77,261,416,-117,182,88,121,162,-173,-82,-58,176,113,-27,-168,247,118,-36,181,-96,-127,11
105546,404,712,280,-39,-38,347,-98,396,24,62,135,226,382,-118,195,42,95,141,-179,-101,-63,120,81,-43,-191,192,153,-117,125,-146,-173,-25
105547,313,665,216,-78,-44,348,-107,351,12,30,130,171,341,-148,169,14,-25,67,-223,-135,-93,50,-2,-123,-245,153,159,-296,-2,-226,-246,-146
105548,265,638,147,-99,-31,319,-140,320,-5,32,86,131,311,-143,164,6,-27,65,-235,-149,-121,-52,-12,-141,-267,112,69,-267,11,-258,-289,-222
105549,213,590,89,-162,-51,264,-235,234,-70,2,17,35,239,-191,121,-61,-65,-3,-286,-214,-197,-96,-95,-201,-345,15,-114,-284,-57,-359,-405,-309
105550,203,569,75,-181,-44,210,-273,210,-90,-22,-47,-2,200,-234,99,-131,-133,-79,-335,-254,-250,-138,-128,-271,-429,-49,-257,-311,-138,-465,-533,-359
105551,223,558,42,-152,-31,213,-336,216,-65,-34,-70,1,204,-224,95,-112,-128,-99,-357,-266,-259,-208,-114,-279,-450,-75,-317,-252,-132,-540,-628,-455
105552,189,547,31,-152,-59,208,-411,212,-72,-24,-63,13,203,-222,99,-114,-121,-99,-366,-245,-260,-207,-120,-301,-463,-103,-297,-256,-171,-558,-619,-431
105553,239,587,118,-97,-60,228,-351,275,-48,5,-13,68,212,-203,156,-110,-108,-88,-347,-224,-215,-226,-164,-312,-453,-86,-245,-435,-225,-594,-625,-390
105554,283,637,156,-54,-37,296,-242,291,-17,42,84,99,239,-179,206,-46,-76,-82,-330,-188,-169,-207,-157,-309,-425,-42,-196,-487,-237,-573,-578,-329
105555,321,622,181,-69,-52,300,-164,292,-25,62,100,139,242,-184,222,28,-73,-62,-312,-163,-132,-154,-120,-284,-385,1,-172,-403,-179,-507,-520,-328
105556,331,645,211,-104,-60,327,-110,240,-43,62,85,112,220,-161,235,55,-76,-42,-313,-134,-91,-129,-99,-260,-366,48,-137,-379,-163,-475,-531,-344
105557,313,635,169,-79,-51,341,-120,266,-22,81,96,85,242,-127,264,62,-19,-13,-280,-87,-40,-92,-46,-218,-313,115,-67,-255,-52,-384,-426,-266
105558,295,618,105,-109,-46,298,-180,254,-55,68,102,6,220,-146,244,-41,-45,-46,-292,-97,-70,-139,-18,-197,-269,134,-96,-62,87,-275,-355,-269
105559,243,567,70,-145,-43,258,-200,216,-82,26,6,-6,219,-169,221,11,-89,-41,-295,-101,-100,-137,-21,-186,-251,153,-65,37,138,-234,-312,-242
105560,262,573,74,-175,-23,245,-215,207,-101,11,10,21,199,-195,212,45,-91,-47,-307,-86,-89,-99,-16,-189,-225,189,-14,2,112,-246,-301,-183
105561,266,607,66,-179,-27,265,-169,216,-115,29,66,5,172,-197,227,125,-72,-71,-318,-76,-44,-93,-88,-228,-240,224,3,-155,-49,-338,-383,-250
105562,262,617,54,-189,-50,275,-164,205,-112,35,88,-17,186,-188,237,17,-54,-72,-309,-47,-17,-62,-83,-191,-215,265,91,-217,-52,-325,-331,-210
105563,315,628,102,-161,-45,337,-142,231,-90,57,113,34,211,-166,256,-63,-128,-84,-276,-3,3,-40,-166,-199,-184,303,127,-469,-112,-326,-291,-165
105564,295,630,139,-137,-24,372,-110,278,-76,103,148,38,225,-128,287,45,-137,-62,-240,43,47,-10,-153,-180,-128,346,162,-472,-81,-239,-221,-125
105565,309,633,139,-135,-23,344,-164,244,-54,123,175,38,231,-111,286,32,-87,-55,-217,45,44,-26,-99,-141,-109,381,140,-387,-68,-219,-215,-164
105566,296,616,83,-148,-45,374,-222,225,-39,133,235,0,246,-98,299,29,-59,-41,-206,67,70,-50,-48,-119,-76,366,118,-308,-45,-241,-203,-121
105567,256,582,29,-202,-61,367,-225,205,-54,126,216,-19,236,-80,306,22,-58,-32,-211,65,63,-13,-44,-104,-57,365,124,-354,-49,-289,-283,-190
105568,227,603,-2,-209,-33,337,-187,163,-73,109,181,-60,215,-94,285,-24,-96,-64,-217,36,0,-2,-127,-133,-95,320,75,-389,-74,-319,-356,-283
105569,169,595,-35,-226,-35,285,-177,125,-100,65,99,-124,213,-107,244,-71,-187,-103,-221,23,-25,-16,-187,-157,-90,298,10,-364,-82,-295,-287,-215
105570,146,635,-53,-251,-36,268,-156,117,-87,28,55,-140,195,-124,208,-75,-216,-118,-231,-9,-79,-80,-227,-171,-103,250,-58,-428,-123,-351,-363,-305
105571,182,670,-31,-254,-42,279,-178,139,-101,14,30,-94,189,-133,190,-110,-196,-99,-225,-42,-111,-138,-176,-162,-99,205,-132,-412,-95,-369,-385,-379
105572,240,731,-1,-213,-46,282,-145,158,-87,27,59,-69,227,-133,216,-66,-166,-49,-199,-16,-45,-61,-94,-104,-78,242,-91,-293,-12,-300,-314,-302
105573,298,756,39,-184,-45,336,-81,185,-98,46,121,-33,236,-145,271,6,-185,-28,-206,11,-5,-13,-90,-82,-81,276,-29,-316,20,-281,-313,-271
105574,359,781,137,-159,-53,378,-42,239,-108,70,197,52,260,-136,312,50,-59,48,-216,18,24,56,-20,-36,-46,298,46,-217,118,-200,-224,-236
105575,411,822,204,-113,-58,419,-2,280,-51,94,256,127,291,-115,318,106,77,112,-163,43,60,142,83,44,-6,354,115,-69,220,-107,-137,-128
105576,454,874,253,-75,-27,461,41,330,-24,109,291,157,309,-127,333,157,51,123,-152,66,94,149,110,61,12,374,149,-16,239,-63,-90,-70
105577,506,900,272,-69,-40,399,-22,346,-45,82,201,197,315,-143,284,163,58,116,-175,36,59,175,109,47,10,343,168,-33,227,-60,-120,-6
105578,472,842,233,-70,-49,354,-82,345,-93,36,211,194,294,-175,250,219,64,78,-216,-19,-15,50,52,2,-55,289,164,-192,135,-172,-207,-125
105579,456,798,197,-107,-54,326,-114,295,-123,10,198,184,246,-205,215,191,39,37,-242,-54,-47,-43,42,-32,-107,248,121,-202,106,-239,-253,-209
105580,442,706,182,-143,-43,309,-102,288,-147,4,142,154,237,-236,166,159,-52,34,-261,-80,-51,3,38,-32,-121,242,112,-246,98,-225,-263,-198
105581,422,715,207,-129,-32,325,-102,297,-135,-2,91,160,258,-217,174,171,-51,93,-242,-63,-61,33,114,13,-104,243,76,-175,167,-160,-197,-112
105582,429,733,206,-112,-40,361,-114,346,-90,8,138,223,295,-192,213,201,50,160,-214,-47,-65,147,203,45,-94,257,77,-16,295,-60,-121,-9
105583,452,768,216,-50,-43,346,-36,363,-70,18,199,284,324,-192,243,175,125,156,-204,-30,-49,134,166,25,-86,284,158,72,295,-79,-126,-12
105584,522,899,300,-24,-40,400,42,422,-34,61,236,328,362,-146,266,88,253,216,-167,5,21,221,218,45,-69,338,337,106,297,-33,-59,100
105585,545,995,352,-8,-43,390,101,471,11,93,283,356,404,-99,309,176,324,240,-136,46,97,326,266,84,-15,408,472,78,332,45,14,138
105586,566,1013,363,-18,-44,394,143,452,19,109,307,347,416,-82,337,229,343,239,-99,49,105,363,275,113,-18,413,413,157,386,67,27,118
105587,557,1004,332,-58,-42,386,161,406,11,111,309,314,400,-95,351,213,293,186,-125,41,77,343,188,45,-60,373,308,22,272,-18,-11,144
105588,535,942,278,-112,-34,358,153,376,-14,93,274,277,345,-93,334,201,235,136,-170,7,42,272,116,-22,-100,342,226,-58,176,-89,-54,118
105589,426,858,215,-148,-52,296,69,328,-59,57,222,223,294,-134,271,130,188,74,-206,-55,-4,209,74,-75,-178,245,171,-69,154,-130,-112,45
105590,371,821,206,-176,-47,254,-16,310,-102,15,196,182,256,-170,242,113,102,32,-248,-77,-29,183,22,-127,-233,195,176,-182,90,-223,-202,-90
105591,339,773,184,-202,-41,263,-46,293,-107,19,183,174,255,-153,245,88,87,34,-252,-88,-48,118,26,-130,-245,176,178,-170,78,-232,-217,-128
105592,344,713,191,-182,-37,312,-50,289,-72,37,199,192,283,-131,291,78,64,47,-215,-73,-50,53,30,-119,-216,160,101,-112,114,-209,-217,-61
105593,342,702,162,-163,-32,318,-124,301,-53,70,147,175,294,-100,292,39,18,75,-198,-61,-84,14,43,-93,-203,154,-8,-66,132,-171,-207,-29
105594,336,701,130,-151,-41,319,-141,289,-33,113,162,155,326,-58,288,30,0,90,-168,-56,-101,0,51,-67,-208,147,-57,-77,124,-212,-246,-64
105595,336,714,120,-130,-34,329,-139,284,0,146,197,133,321,-29,326,56,-52,64,-145,-3,-66,-9,4,-80,-184,151,-54,-161,60,-258,-268,-52
105596,345,708,127,-125,-39,314,-144,281,5,148,187,103,317,-62,300,30,-81,38,-183,-7,-103,-131,-45,-118,-214,120,-114,-253,-34,-334,-370,-254
105597,334,695,121,-121,-49,310,-181,267,-9,140,154,57,305,-61,287,-40,-37,34,-184,-17,-117,-177,-19,-112,-204,132,-132,-237,-31,-350,-364,-262
105598,291,663,85,-159,-43,309,-265,221,-63,95,125,10,258,-88,265,-84,-76,-23,-210,-35,-126,-155,-55,-153,-226,107,-144,-245,-39,-343,-356,-255
105599,257,631,57,-201,-37,270,-321,157,-83,57,87,-31,232,-99,237,-67,-81,-52,-232,-46,-151,-205,-75,-161,-229,110,-147,-252,-55,-362,-373,-274
105600,229,619,7,-227,-21,259,-298,116,-93,63,86,-67,209,-124,242,-99,-113,-75,-237,-34,-142,-227,-78,-165,-220,109,-152,-245,-70,-392,-384,-307
105601,192,601,-26,-229,-32,240,-302,116,-110,47,55,-98,187,-109,219,-128,-143,-95,-246,-14,-133,-163,-120,-173,-200,140,-127,-257,-66,-358,-356,-259
105602,214,606,-6,-218,-32,246,-239,120,-88,47,23,-71,187,-91,221,-134,-162,-90,-222,6,-108,-112,-139,-157,-163,187,-83,-288,-62,-349,-327,-241
105603,259,647,25,-194,-36,269,-185,157,-51,70,66,35,232,-82,264,-116,-155,-54,-172,46,-64,-37,-84,-117,-112,249,-29,-217,-2,-296,-280,-244
105604,294,690,45,-147,-30,284,-117,192,-24,104,93,69,274,-49,306,-64,-93,-14,-140,89,-3,-2,-40,-57,-66,306,42,-206,36,-237,-216,-129
105605,338,739,106,-128,-44,299,-85,236,-7,126,163,43,296,-29,334,34,-5,25,-116,105,40,-29,35,-16,-32,360,72,-181,70,-218,-168,-149
105606,329,725,104,-116,-58,331,-88,233,-3,134,138,-17,279,-41,339,105,78,23,-124,129,59,-31,57,-16,-5,418,124,-171,104,-175,-122,-100
105607,296,696,105,-130,-65,326,-140,221,-15,115,190,8,278,-53,333,183,36,41,-141,145,75,-124,15,-12,0,428,171,-143,124,-128,-126,-91
105608,276,686,125,-145,-43,327,-166,229,-21,105,213,43,281,-62,331,172,6,41,-142,127,113,-47,29,-12,16,439,211,-19,193,-105,-90,-42
105609,265,695,113,-176,-34,309,-192,188,-63,83,187,51,253,-105,325,46,-24,20,-163,100,82,19,48,-7,21,432,177,60,238,-59,-88,-125
105610,249,665,85,-197,-31,274,-191,178,-92,44,128,29,232,-138,279,-19,-50,-3,-181,76,48,-43,7,-30,14,411,166,-15,209,-77,-111,-237
105611,255,678,105,-195,-28,262,-148,229,-72,35,135,49,251,-134,298,61,-4,8,-174,87,85,15,-11,-22,26,426,147,-127,151,-96,-80,-75
105612,271,711,136,-149,-42,309,-61,253,-52,61,180,92,284,-126,331,64,39,27,-145,118,109,90,4,-8,61,459,209,-157,143,-68,-54,-37
105613,330,773,176,-114,-43,352,0,280,-48,86,220,121,319,-93,351,129,26,60,-119,146,141,186,53,45,102,512,286,-137,188,-7,26,21
105614,399,769,201,-89,-47,387,19,334,-9,133,269,196,338,-60,389,169,23,111,-90,184,178,243,95,96,152,551,300,-73,298,64,53,143
105615,476,829,251,-66,-41,404,46,404,10,152,225,273,380,-37,416,193,97,161,-64,199,209,314,162,149,192,607,358,7,359,115,85,135
105616,431,844,238,-70,-47,367,25,368,-10,138,282,236,359,-29,423,200,78,146,-92,199,225,233,169,114,188,607,423,-7,323,94,60,42
105617,399,812,224,-76,-23,379,17,364,0,141,251,192,350,-38,405,222,113,151,-91,186,187,98,186,126,162,581,348,33,350,81,56,75
105618,374,763,165,-96,-12,358,-64,347,-2,142,221,172,352,-32,354,163,90,137,-93,152,128,211,169,113,114,565,255,59,301,48,62,68
105619,323,680,113,-149,-33,282,-158,271,-63,81,156,107,291,-81,280,95,-39,52,-149,89,60,213,57,18,31,483,191,-114,173,-56,-22,45
105620,308,619,66,-175,-39,276,-161,209,-99,46,145,38,242,-134,249,88,-52,22,-214,57,34,166,-20,-36,-12,423,177,-203,106,-121,-71,15
105621,346,650,81,-157,-42,288,-172,234,-96,35,129,43,273,-132,273,95,-72,27,-197,29,18,128,-14,-55,-20,396,185,-173,136,-110,-80,-24
105622,361,739,100,-138,-53,300,-170,274,-74,30,141,94,307,-130,273,120,-22,67,-186,39,9,85,52,-11,-20,378,191,-104,178,-86,-69,-39
105623,354,761,128,-118,-57,316,-155,301,-50,45,164,124,345,-108,255,137,44,113,-164,60,25,108,112,41,-9,394,236,-49,232,-33,-39,0
105624,362,776,152,-101,-32,351,-190,327,-7,75,160,135,387,-57,274,109,5,175,-124,65,32,157,173,88,33,414,299,126,362,35,7,-22
105625,321,723,143,-109,-60,336,-233,326,14,79,134,131,393,-55,257,71,2,216,-92,66,-14,134,244,131,45,371,206,264,446,66,1,-59
105626,336,679,127,-107,-77,363,-203,314,12,101,148,123,370,-61,231,68,-99,139,-121,31,-51,33,80,30,-21,316,73,-249,165,-124,-90,-21
105627,344,687,113,-109,-60,373,-190,316,5,84,142,82,349,-73,227,17,-136,70,-159,-14,-79,-2,-61,-53,-77,279,26,-535,-48,-258,-162,-86
105628,318,736,89,-113,-61,328,-212,289,-30,44,60,70,329,-128,181,1,-120,53,-186,-49,-120,-49,-68,-63,-112,232,0,-403,-28,-224,-187,-117
105629,338,729,123,-96,-52,290,-205,285,-37,17,3,104,319,-140,154,13,-74,59,-197,-61,-164,-142,-37,-69,-128,214,-54,-272,78,-189,-217,-110
105630,314,715,121,-128,-47,264,-193,262,-73,-15,29,88,287,-181,150,94,-117,41,-222,-86,-186,-115,-31,-83,-161,194,-47,-266,71,-204,-207,-111
105631,303,682,112,-121,-36,247,-221,272,-77,-19,31,76,292,-180,167,92,-93,66,-185,-53,-152,-4,57,-42,-149,227,28,-37,170,-177,-141,-46
105632,339,701,161,-103,-38,254,-220,319,-50,11,1,109,330,-131,179,-69,29,130,-137,-17,-141,50,144,18,-83,265,53,230,292,-110,-127,-68
105633,390,743,201,-82,-39,283,-216,336,-23,29,25,157,351,-95,209,-161,56,139,-158,25,-114,108,116,5,-69,297,91,13,219,-148,-117,-60
105634,460,799,265,-55,-55,293,-159,340,-20,66,91,195,361,-84,236,-70,67,115,-133,27,-53,144,61,-5,-43,324,167,-267,107,-164,-80,18
105635,499,800,293,-22,-55,310,-130,409,19,84,119,233,383,-64,259,-25,80,136,-98,60,-17,174,97,31,-15,363,197,-237,129,-126,-56,32
105636,533,769,332,15,-51,331,-147,482,38,86,105,282,424,-45,263,-18,104,194,-92,85,-13,196,156,63,-2,397,206,-126,182,-93,-21,49
105637,512,773,363,2,-43,315,-176,487,29,68,69,290,413,-35,266,-19,140,201,-83,82,1,227,157,58,-3,390,228,-102,195,-87,-42,87
105638,548,790,357,-15,-50,272,-162,463,14,51,46,280,403,-41,262,-20,153,191,-76,73,8,247,122,50,-9,400,274,-125,161,-87,-28,186
105639,524,777,348,-28,-40,247,-192,414,-4,16,36,222,382,-65,232,-61,160,188,-106,56,-16,171,124,5,-18,382,285,-154,128,-143,-64,84
105640,500,762,296,-65,-31,207,-237,379,-35,-9,72,199,364,-100,215,-33,139,157,-126,46,-14,144,97,2,-33,350,294,-106,143,-142,-94,-26
105641,451,707,261,-72,-47,202,-203,383,-60,-25,105,213,366,-90,201,-42,150,169,-106,55,-9,106,163,42,3,368,281,106,253,-50,-46,-45
105642,464,718,298,-33,-41,218,-166,430,-21,5,113,244,411,-64,212,-33,191,197,-59,81,-2,108,219,88,43,402,249,165,280,-46,-39,-91
105643,477,665,322,-22,-45,241,-136,446,7,11,103,261,426,-52,198,5,160,194,-52,97,-20,142,147,75,47,407,171,-73,160,-129,-76,16
105644,502,707,349,2,-43,253,-128,471,31,24,114,261,427,-18,217,5,110,217,-32,118,10,174,135,98,75,435,199,-118,183,-85,-28,128
105645,528,774,367,23,-43,293,-78,487,53,62,97,246,442,0,228,22,82,205,-31,136,33,139,122,76,79,428,178,-175,129,-140,-115,-57
105646,544,757,381,26,-30,351,-67,497,57,98,178,242,445,6,269,38,35,189,-22,138,56,122,116,77,78,449,170,-194,126,-142,-144,-68
105647,490,705,348,8,-44,344,-60,450,18,95,151,194,388,-51,254,70,10,122,-68,106,37,126,69,35,30,406,120,-184,120,-169,-162,27
105648,420,663,273,-18,-44,318,-75,393,-6,80,117,123,346,-82,261,22,-81,62,-112,77,-15,20,8,-22,-13,336,15,-240,33,-245,-251,-121
105649,373,692,256,-47,-38,283,-113,326,-48,42,69,84,324,-120,208,-4,-148,64,-125,48,-49,-52,23,-22,2,311,0,-171,72,-220,-213,-113
105650,348,700,203,-87,-28,277,-161,281,-61,21,31,48,288,-132,197,-18,-146,39,-169,14,-82,-96,8,-35,-33,278,-48,-203,45,-227,-255,-172
105651,320,698,150,-106,-27,249,-163,272,-85,-1,3,15,251,-165,184,-15,-199,-21,-206,-5,-122,-75,-78,-100,-101,230,-101,-364,-45,-306,-337,-302
105652,318,677,144,-93,-45,255,-143,260,-102,23,48,11,243,-159,200,16,-230,-38,-222,-5,-92,-21,-146,-113,-90,248,-35,-421,-32,-303,-304,-238
105653,316,705,171,-96,-46,296,-138,259,-66,36,136,34,270,-160,240,94,-198,11,-186,3,-47,-52,-89,-83,-71,275,-15,-409,-7,-256,-256,-193
105654,362,726,175,-48,-38,304,-115,295,-10,66,219,48,319,-106,273,80,-115,67,-118,52,-28,-68,40,-17,-30,333,13,-271,114,-146,-176,-115
105655,407,691,212,-21,-46,329,-147,338,0,86,210,65,340,-69,290,50,-117,47,-115,59,-7,-126,-27,-13,-13,337,24,-185,151,-133,-144,-126
105656,436,731,239,-38,-35,362,-133,333,1,114,219,88,324,-63,307,60,-140,63,-118,68,4,-64,-60,-27,-20,348,22,-159,131,-155,-180,-138
105657,415,746,221,-49,-30,345,-89,303,-4,108,226,55,314,-80,294,16,-197,63,-137,48,-19,4,-63,-55,-45,303,-5,-167,59,-213,-240,-153
105658,384,665,154,-90,-37,297,-100,240,-57,46,133,14,282,-136,256,-36,-179,26,-197,12,-63,-71,-71,-73,-86,256,-55,-162,68,-223,-261,-185
105659,327,636,80,-137,-34,252,-149,161,-97,1,75,6,246,-168,191,-76,-195,0,-230,-17,-99,-164,-63,-88,-124,227,-78,-77,139,-200,-283,-218
