,Fp1,Fp2,F7,F3,Fz,F4,F8,FC5,FC1,FC2,FC6,T7,C3,Cz,C4,T8,TP9,CP5,CP1,CP2,CP6,TP10,P7,P3,Pz,P4,P8,PO9,O1,Oz,O2,PO10
14911,-72,299,12,25,216,753,787,392,336,7,521,-109,286,325,215,96,498,11,315,413,270,465,-27,267,340,383,147,-326,161,319,65,-106
14912,-100,270,32,19,205,707,782,423,345,-5,366,-99,310,335,252,33,457,40,331,404,249,411,12,286,342,356,120,-358,163,307,31,-156
14913,-132,239,25,-12,195,689,746,417,342,-37,430,-66,309,308,189,27,471,49,310,371,221,394,-24,278,333,328,101,-329,166,323,33,-61
14914,-115,264,54,-8,189,667,736,362,315,-65,388,-63,286,302,156,105,472,-6,327,384,259,416,-136,253,330,361,192,-284,156,342,52,-56
14915,-126,238,55,13,192,666,744,364,339,-57,405,-71,300,286,204,128,354,7,327,384,268,422,-81,256,315,364,119,-387,100,260,8,-107
14916,-137,245,33,20,173,658,716,438,342,-59,392,-121,309,285,201,73,384,-2,321,364,234,429,-92,245,288,324,27,-372,106,242,-6,-101
14917,-120,248,46,10,168,656,677,448,334,-73,376,-90,313,304,176,-26,475,-6,326,361,201,381,-85,252,310,311,-14,-379,149,280,14,-109
14918,-133,212,-32,-9,171,651,675,358,336,-57,365,-133,377,318,160,-65,481,16,362,350,192,411,-54,264,338,318,6,-375,161,295,19,-89
14919,-159,190,-37,-22,168,631,691,301,320,-56,367,-170,315,304,183,-41,425,2,348,364,167,418,-60,255,336,328,38,-325,174,299,39,-86
14920,-121,239,14,-3,176,647,704,344,298,-38,330,-18,152,329,179,-47,461,-33,292,374,124,395,-25,222,317,308,1,-323,137,241,8,-139
14921,-113,218,12,-5,147,610,612,308,297,-64,245,-138,220,343,168,-73,485,-46,284,366,156,385,-78,207,309,300,33,-346,105,188,-23,-147
14922,-117,193,27,-4,158,614,576,321,306,-64,285,-137,248,323,188,-83,460,-13,289,370,191,386,-99,208,275,334,81,-347,114,196,15,-99
14923,-102,243,65,14,172,643,668,386,320,-45,395,-126,282,320,195,-124,477,16,314,380,233,405,-36,240,306,362,69,-338,156,230,26,-109
14924,-114,227,34,5,173,659,727,370,334,-51,413,-127,293,331,220,-28,471,30,351,416,308,420,43,284,363,397,110,-262,213,295,72,-49
14925,-111,232,38,28,172,667,632,408,363,-29,416,-80,324,344,221,-10,495,59,367,424,271,423,102,306,357,401,135,-235,235,328,107,2
14926,-113,205,27,19,153,652,624,403,341,-51,376,-80,341,320,184,-18,469,36,355,360,77,427,-15,263,302,306,78,-305,173,248,31,-103
14927,-102,238,21,0,158,698,664,382,322,-43,397,-170,339,300,182,47,410,18,325,352,70,427,-60,249,277,264,-25,-276,176,243,-6,-113
14928,-31,300,88,42,171,716,705,430,333,-25,376,-82,274,329,183,-27,474,52,334,371,164,461,30,289,326,318,63,-144,268,314,78,-44
14929,-64,275,38,5,156,652,775,396,331,-61,388,-112,238,334,193,10,535,36,327,380,192,472,20,275,303,321,87,-159,262,329,76,-17
14930,-102,274,15,-15,158,663,689,350,344,-52,368,-231,259,332,190,19,494,49,315,388,201,478,-40,247,269,325,77,-303,210,306,56,-13
14931,-116,263,10,-16,176,708,722,342,341,-25,443,-213,261,322,226,29,459,93,301,380,206,444,-34,264,277,326,103,-324,172,281,75,-50
14932,-86,284,31,7,197,728,735,378,352,-12,429,8,235,330,229,28,479,-116,277,404,214,448,-44,213,265,328,130,-285,177,284,81,-49
14933,-33,338,51,44,220,719,747,372,362,-9,384,-75,248,332,211,-19,444,-39,286,406,218,453,-8,225,260,338,127,-225,247,325,87,6
14934,-25,368,7,76,240,735,783,481,381,1,414,-73,318,345,222,33,553,24,306,395,258,413,-33,271,267,351,152,-239,198,321,119,89
14935,-40,348,33,20,206,717,760,377,338,9,402,-71,298,330,277,46,551,1,311,395,279,501,-21,283,278,379,198,-273,154,311,156,104
14936,-25,328,60,-17,209,701,752,343,323,12,372,-78,285,322,294,-2,458,32,312,381,185,543,8,293,272,342,146,-251,190,325,148,114
14937,-13,365,43,35,241,708,799,393,353,-3,402,-37,275,313,249,84,519,26,297,358,243,520,-4,280,266,355,180,-291,183,299,124,37
14938,-20,373,42,34,234,694,797,284,340,-29,396,-77,282,314,201,76,542,26,298,343,216,546,1,255,241,325,159,-293,175,285,93,4
14939,-35,352,35,41,231,694,761,288,351,-22,418,-122,304,294,213,61,422,-15,303,344,176,516,-30,251,235,313,120,-268,149,255,72,0
14940,-46,318,16,32,216,713,750,458,352,-28,331,-111,317,287,265,17,444,6,301,337,173,474,-42,230,225,295,125,-302,149,262,35,-43
14941,0,363,87,44,238,733,772,434,365,-19,409,-113,303,317,197,59,482,21,314,350,194,535,-38,245,225,310,136,-264,178,275,40,-44
14942,-44,337,9,28,232,712,741,303,369,-54,404,-173,320,312,155,63,425,-41,301,322,173,549,-48,207,199,286,67,-226,172,261,18,-18
14943,-41,291,-52,24,208,654,704,299,366,-57,347,-187,322,327,124,-33,443,-52,293,326,159,529,-75,212,198,279,87,-207,199,282,32,8
14944,-45,284,-30,48,216,659,708,416,377,-49,370,-154,272,352,189,-60,461,-17,317,354,190,503,-80,228,204,296,130,-260,196,275,42,-24
14945,-72,285,-5,63,216,669,708,509,379,-61,349,-170,307,346,150,-68,411,-12,296,337,142,501,-60,224,179,280,86,-335,143,229,-16,-44
14946,-51,297,-3,52,212,670,726,434,384,-54,332,-128,284,340,184,-27,392,-18,285,343,139,550,-21,243,197,279,73,-357,148,214,-17,-73
14947,-45,307,48,8,205,690,738,302,368,-48,357,-146,252,350,233,28,492,-55,280,359,165,536,-54,192,179,287,55,-234,166,228,-13,-37
14948,-63,314,69,30,224,713,753,415,380,-37,426,-109,283,343,212,88,508,-29,283,351,179,539,-71,185,161,297,75,-267,80,174,-54,-46
14949,-80,316,35,37,209,700,757,416,367,-58,425,-101,285,309,152,88,473,-12,273,327,175,526,-45,203,172,273,67,-347,42,142,-53,-54
14950,-75,315,33,32,213,689,723,393,365,-53,407,-89,286,318,202,51,445,2,276,343,196,543,16,197,200,279,100,-295,101,207,-19,0
14951,-76,310,8,27,214,692,770,400,370,-23,445,-119,279,323,225,13,370,-48,292,365,231,528,-12,195,213,296,144,-286,96,196,-53,-42
14952,-103,261,16,24,206,710,771,386,349,-22,479,-163,283,337,229,-33,400,-45,290,397,315,489,-32,206,241,375,170,-318,109,225,-29,-68
14953,-146,265,20,37,220,684,672,422,374,-27,398,-145,294,338,271,28,444,-19,308,416,235,476,-34,219,263,342,113,-264,121,230,-23,-69
14954,-130,260,-23,33,211,682,677,382,352,-21,455,-216,276,322,286,216,467,-7,303,395,174,507,44,218,261,271,100,-249,112,195,-37,-116
14955,-144,260,-15,48,205,722,759,380,351,-3,538,-188,317,326,290,81,391,-23,304,406,180,506,-23,236,254,313,72,-241,120,206,-24,-87
14956,-132,265,-1,56,226,707,740,399,379,-18,403,-215,397,345,249,68,444,5,318,421,193,495,-13,262,255,343,29,-211,156,261,-1,-38
14957,-103,302,21,44,222,713,753,440,368,-5,416,-123,312,358,293,118,506,37,325,449,279,536,70,276,301,389,129,-182,206,282,41,6
14958,-92,309,42,43,206,726,779,416,345,22,482,-51,216,372,326,114,499,0,311,461,291,538,18,263,326,397,176,-257,182,285,83,28
14959,-128,273,-33,40,185,683,744,424,357,-8,458,-157,325,367,313,132,446,-22,329,463,294,519,-126,250,334,408,153,-266,161,274,87,13
14960,-103,279,2,73,207,687,739,392,368,2,459,-109,333,403,323,91,495,41,371,473,284,498,-4,277,362,423,142,-264,189,313,128,40
14961,-125,259,-19,44,191,695,727,353,343,-4,447,-153,309,397,307,90,438,41,370,465,244,530,-14,302,358,441,145,-222,246,352,151,66
14962,-142,291,-36,21,204,697,768,383,344,-1,457,-131,303,373,322,112,379,32,355,448,243,478,-52,309,357,427,148,-238,204,318,116,16
14963,-129,273,8,17,207,708,742,370,354,15,459,-124,290,393,328,122,387,22,333,461,259,505,-28,281,368,406,122,-241,176,284,113,-3
14964,-133,249,-31,-2,209,704,678,379,355,13,446,-156,293,372,315,89,393,15,340,456,251,505,-21,276,361,418,153,-269,194,275,100,8
14965,-171,275,-129,12,205,706,672,398,366,23,504,-180,292,370,326,65,385,-16,322,450,258,503,-69,268,350,431,156,-323,173,261,72,4
14966,-155,274,-7,-23,196,703,749,273,343,16,496,-119,261,376,379,99,380,-10,336,486,332,516,-54,271,378,463,203,-361,151,267,92,22
14967,-137,268,56,0,212,708,731,332,337,21,478,-109,294,367,374,19,406,22,359,477,336,537,14,280,386,466,205,-286,150,270,85,-75
14968,-89,287,94,41,217,675,737,441,365,-17,283,-90,329,374,302,42,410,62,386,458,283,560,3,307,405,443,144,-188,225,356,135,11
14969,-47,309,79,56,199,683,780,419,367,-19,442,-99,353,378,284,167,510,69,378,479,278,612,57,349,416,458,213,-190,271,416,221,104
14970,-80,323,23,51,199,699,800,408,371,-10,449,-81,363,364,324,168,485,98,383,498,315,639,67,364,437,485,248,-154,284,438,249,95
14971,-61,309,75,41,197,708,787,450,368,-2,463,-6,370,371,356,163,529,138,400,514,335,664,83,382,460,517,270,-151,288,450,266,82
14972,-98,295,20,25,212,721,738,384,352,-5,528,-60,346,361,346,127,515,102,379,517,337,639,32,371,462,516,282,-238,239,415,238,45
14973,-123,297,6,-6,222,738,771,293,360,19,538,-93,295,362,371,127,440,74,362,493,322,569,-20,324,428,501,270,-272,223,401,214,17
14974,-111,281,2,6,198,664,735,358,385,-18,323,-199,336,369,309,92,480,121,377,492,268,491,-4,354,425,484,240,-175,279,437,242,50
14975,-94,288,25,-5,201,688,764,410,369,-6,405,-198,361,391,335,134,492,227,399,489,290,526,65,364,431,459,216,-193,287,423,176,38
14976,-78,289,68,27,194,685,769,414,355,-18,389,104,322,380,309,129,505,35,388,484,285,631,90,370,440,445,228,-178,312,423,182,55
14977,-108,249,7,6,170,625,701,413,350,-35,377,-58,325,365,264,101,377,41,392,474,302,622,27,359,425,488,248,-164,325,435,195,80
14978,-99,253,29,31,195,629,720,444,374,-21,409,-103,376,378,207,45,474,131,412,483,351,544,14,364,443,493,271,-191,315,434,190,38
14979,-130,227,17,12,180,648,723,342,345,-25,365,-122,326,388,256,65,419,65,367,456,218,489,-25,321,417,424,195,-248,226,389,134,0
14980,-133,227,3,7,173,659,711,365,332,-36,377,-113,221,371,224,36,499,3,314,401,118,432,-29,268,348,342,75,-279,212,326,79,-60
14981,-170,173,-42,-8,177,649,676,316,358,-24,326,-165,271,383,239,-87,444,15,334,413,176,372,-31,264,347,364,108,-282,223,324,88,-53
14982,-194,191,-69,-21,169,637,709,263,372,-19,349,-191,295,380,237,-24,398,17,340,407,155,400,-82,277,338,352,61,-340,224,343,87,-26
14983,-157,223,2,13,194,617,661,387,357,-18,341,-132,283,398,236,89,383,50,336,413,163,461,-6,286,349,352,49,-341,201,314,63,-24
14984,-121,229,45,33,209,653,663,368,329,-2,320,-119,230,395,248,51,464,31,326,434,151,494,-34,271,355,367,82,-350,157,284,77,-42
14985,-152,196,-16,8,191,617,582,344,341,-21,253,-191,248,386,285,-76,434,-14,310,409,110,410,-140,243,327,336,48,-344,138,245,34,-92
14986,-188,159,-109,-24,150,584,536,337,345,-57,284,-229,241,386,217,-100,393,-22,297,402,106,404,-114,231,319,322,15,-329,139,253,13,-80
14987,-208,148,-73,-45,157,578,621,310,356,-71,354,-241,257,398,77,-36,366,-8,304,376,108,389,-126,229,325,313,44,-345,118,255,18,-100
14988,-259,107,-123,-71,126,548,527,241,326,-55,257,-258,240,381,173,-89,301,-25,301,382,129,354,-171,224,300,322,38,-409,109,231,0,-127
14989,-261,118,-136,-77,144,567,547,214,326,-51,258,-253,233,383,199,-150,295,-50,318,390,109,340,-142,209,294,312,5,-452,112,183,-54,-158
14990,-242,130,-136,-77,145,605,576,212,325,-24,283,-297,199,365,226,-58,228,-115,301,383,123,350,-249,172,273,307,10,-527,41,119,-105,-222
14991,-237,137,-144,-67,156,591,534,224,327,-43,287,-303,212,366,184,-117,185,-92,276,350,76,376,-246,155,255,281,0,-532,-4,114,-92,-219
14992,-227,127,-137,-37,162,549,516,255,352,-93,221,-327,307,359,100,-140,268,-71,301,340,98,348,-205,197,269,278,18,-458,9,109,-96,-250
14993,-237,119,-156,-47,173,537,539,268,351,-91,231,-348,309,368,108,-139,334,-39,319,380,101,321,-143,232,327,296,17,-419,70,155,-105,-245
14994,-205,161,-95,-53,174,558,594,290,302,-73,272,-155,132,354,138,-111,344,-77,282,378,128,395,-153,195,338,305,12,-478,71,162,-66,-239
14995,-227,157,-164,-25,152,569,607,367,343,-89,256,-237,226,365,157,-106,309,-79,283,393,85,316,-210,190,323,305,-43,-529,34,137,-76,-258
14996,-237,141,-109,-79,132,535,539,242,310,-98,219,-230,195,353,157,-111,359,-50,282,401,88,304,-174,203,328,329,-26,-411,102,214,-39,-198
14997,-207,159,-67,-91,139,529,541,232,298,-92,248,-221,204,367,177,-122,338,-64,299,403,95,349,-179,199,353,352,10,-410,108,212,-22,-181
14998,-232,159,-111,-80,144,545,580,254,309,-75,263,-227,226,374,195,-115,338,-78,299,403,115,322,-179,220,346,375,32,-386,131,209,-5,-177
14999,-249,153,-170,-108,117,556,587,203,309,-73,239,-239,183,345,170,-148,292,-89,272,388,98,303,-157,194,307,349,4,-407,72,173,-32,-202
15000,-266,140,-134,-98,122,530,525,240,312,-65,233,-247,207,325,179,-174,266,-65,304,394,57,255,-111,187,310,341,-22,-387,66,193,-26,-192
15001,-240,145,-82,-60,136,543,488,316,347,-46,249,-176,239,340,207,-174,390,-46,322,413,71,286,-89,232,338,349,20,-354,106,217,5,-141
15002,-203,184,-54,-42,150,563,545,317,351,-56,206,-178,258,335,190,-154,424,-49,305,408,77,342,-110,228,328,358,11,-327,120,204,-7,-136
15003,-241,157,-116,-42,158,557,549,293,330,-83,215,-189,261,330,181,-192,421,-26,318,407,96,255,-100,220,342,338,-13,-301,132,234,17,-137
15004,-236,126,-105,-21,147,554,527,330,363,-70,219,-170,278,330,190,-199,497,-15,335,406,149,267,-95,224,360,350,40,-266,136,236,36,-94
15005,-230,129,-96,-7,144,567,504,347,372,-58,198,-197,280,353,191,-220,428,-42,331,412,253,282,-136,212,363,402,178,-259,156,252,37,-117
15006,-255,101,-101,-25,132,569,509,346,361,-58,245,-233,263,320,196,-139,308,-45,305,376,126,305,-126,195,345,341,63,-313,125,208,-1,-211
15007,-254,102,-97,-32,107,581,541,281,335,-53,273,-239,227,331,187,-57,344,-84,298,342,0,353,-88,203,320,262,-118,-307,107,194,-38,-155
15008,-266,90,-100,-15,126,584,487,236,355,-57,277,-247,249,385,200,-75,357,-54,318,385,120,387,-145,226,354,322,-5,-376,115,245,16,-92
15009,-254,125,-101,21,131,619,530,255,382,-51,275,-207,265,392,207,-70,326,-42,328,394,102,417,-196,230,353,334,20,-391,99,261,58,-35
15010,-240,142,-96,34,136,604,571,365,386,-54,251,-218,281,366,195,-85,343,-36,322,395,118,414,-137,216,336,343,60,-380,104,272,102,33
15011,-205,155,-39,25,141,647,564,435,350,-36,306,-197,288,372,213,-32,416,-7,345,405,150,416,-126,240,336,383,101,-313,131,293,127,9
15012,-206,163,-27,25,153,650,590,386,375,-38,315,-199,266,357,206,-64,352,-68,301,376,109,384,-157,198,306,336,46,-309,127,219,47,-105
15013,-208,156,-14,39,172,643,599,373,382,-21,303,-138,272,361,210,-79,344,-66,292,358,119,415,-192,192,292,319,49,-359,85,209,0,-136
15014,-215,143,-48,12,177,661,598,351,373,-27,295,-182,247,351,215,-142,370,-87,281,346,92,378,-190,170,269,304,17,-453,18,186,-33,-175
15015,-198,177,-54,-10,180,683,635,333,345,-39,316,-306,244,355,237,-131,363,-71,270,367,99,417,-202,161,281,313,-37,-383,45,171,-27,-167
15016,-210,175,-63,-12,157,652,590,334,330,-29,266,-387,268,338,242,-100,369,22,290,361,84,420,-162,206,321,319,-34,-350,59,165,-35,-185
15017,-209,171,-81,-5,154,625,550,311,342,-24,268,-92,241,336,238,-56,355,-70,314,372,80,407,-97,208,339,327,-3,-294,135,220,-10,-157
15018,-205,175,-92,1,175,644,589,305,342,-41,285,-96,264,356,218,-21,380,-84,328,389,122,425,-9,265,368,349,73,-214,229,297,76,-30
15019,-209,175,-50,14,171,643,577,394,348,-21,259,-183,326,339,267,-36,381,-3,333,374,129,447,-27,268,370,350,115,-336,152,243,56,3
15020,-165,225,6,-1,163,655,631,384,345,-27,274,-98,303,362,254,-88,455,2,344,388,143,511,-93,251,367,368,120,-279,124,245,71,31
15021,-132,269,-46,-22,170,691,696,341,338,-32,402,-80,304,367,207,5,495,29,352,397,166,521,-42,246,377,353,89,-289,85,181,-3,-28
15022,-131,288,-5,19,194,725,741,377,325,-14,407,-75,290,344,205,32,477,45,340,383,164,488,-14,273,381,366,98,-269,164,219,18,-101
15023,-126,286,-7,63,204,706,707,468,355,-20,400,-66,359,390,256,52,519,124,357,394,160,529,33,321,397,372,126,-264,184,244,49,-72
15024,-158,242,-66,23,183,683,676,391,365,-23,383,-165,432,357,242,0,458,212,396,407,175,536,45,374,397,390,133,-231,226,283,88,-43
15025,-179,213,-23,-39,166,674,670,340,342,-3,361,-163,387,353,257,12,432,100,389,400,209,565,5,356,384,402,157,-255,208,300,114,27
15026,-146,231,-5,-6,176,691,682,383,331,-11,375,-55,228,348,268,39,467,-45,294,369,178,528,-56,236,341,386,151,-258,153,281,108,24
15027,-146,243,14,20,187,691,713,422,340,-13,428,-56,241,339,277,47,456,15,293,370,166,496,-28,244,350,372,144,-234,160,270,65,-72
15028,-139,268,13,23,205,698,744,401,320,-18,478,-62,252,329,234,47,513,30,316,372,177,542,27,284,348,376,119,-163,225,318,59,-72
15029,-143,278,21,24,204,709,763,417,322,7,449,-64,271,338,267,-17,493,46,320,366,169,513,0,260,325,370,90,-165,258,335,68,-88
15030,-125,265,28,44,210,729,750,391,308,17,408,-71,252,327,278,7,445,9,294,362,142,523,-52,249,328,366,76,-225,219,299,45,-83
15031,-150,267,3,26,213,752,731,378,325,39,460,-140,251,313,317,0,464,1,279,349,200,495,-70,222,326,375,125,-291,150,235,16,-64
15032,-135,287,26,58,222,708,772,452,348,7,493,-109,299,320,215,92,406,34,292,364,335,485,-71,231,315,432,229,-381,90,187,22,-73
15033,-110,323,-13,27,226,713,765,431,348,-21,442,-102,267,307,199,44,484,-3,279,339,231,506,-74,202,303,384,142,-387,75,198,49,-41
15034,-78,354,21,22,238,765,777,334,331,-3,522,-140,228,304,241,127,504,-90,237,305,45,535,-120,153,263,305,-7,-339,92,189,7,-59
15035,-101,320,-5,40,231,732,800,357,347,-14,467,-168,251,297,228,88,435,-66,254,319,123,535,-149,162,252,325,54,-394,76,150,-19,-104
15036,-97,312,16,41,242,715,795,354,349,-18,388,-164,245,302,218,70,388,-56,248,303,135,530,-170,157,257,334,42,-360,74,167,0,-91
15037,-112,294,2,6,242,723,722,347,330,-8,415,-161,241,270,231,-38,422,-40,217,291,132,477,-130,162,234,313,32,-307,90,165,-9,-116
15038,-148,304,-27,-9,222,744,690,304,321,0,521,-211,227,265,259,-53,355,-64,208,290,154,408,-135,142,229,315,29,-389,64,127,-54,-211
15039,-123,298,19,30,237,701,671,331,351,-7,359,-219,260,296,185,1,350,-38,261,322,126,470,-119,187,272,362,62,-414,59,170,-2,-112
15040,-119,295,15,46,256,667,717,381,362,-48,242,-186,278,306,147,-51,345,7,275,319,101,495,-74,200,265,362,44,-347,99,213,48,-40
15041,-104,312,6,43,258,720,701,360,360,-31,385,-232,224,300,233,-15,332,-78,235,308,113,463,-179,156,243,342,28,-439,21,163,5,-84
15042,-121,288,7,44,257,696,669,352,373,-23,351,-240,208,268,192,1,292,-97,211,282,98,440,-286,95,222,298,0,-515,-65,73,-54,-210
15043,-133,273,-36,45,255,675,676,262,381,-38,294,-190,222,297,163,27,274,-76,221,297,105,432,-236,90,240,311,35,-515,-34,116,-47,-190
15044,-149,275,-77,51,238,699,698,245,374,-27,315,-267,197,307,168,-5,315,-120,183,275,98,418,-250,91,217,298,26,-514,-42,121,-52,-193
15045,-155,257,-87,38,242,689,693,401,380,-31,311,-208,226,321,162,-57,300,-81,231,280,81,404,-191,123,238,275,0,-461,1,153,-30,-173
15046,-182,246,-69,-15,220,664,672,374,326,-50,333,-202,195,328,194,6,335,-102,232,308,131,433,-197,114,251,311,35,-399,31,153,-7,-155
15047,-187,229,-52,-7,207,652,670,335,318,-54,342,-252,175,330,203,-16,269,-105,229,329,150,410,-250,127,256,346,47,-379,55,205,52,-123
15048,-203,230,-76,-4,199,669,706,350,329,-45,361,-217,212,336,204,-28,263,-52,249,340,152,429,-146,177,281,374,59,-304,125,281,114,-56
15049,-134,279,0,0,211,686,727,360,358,-37,403,-158,258,347,200,-49,363,-17,263,361,146,483,-83,199,309,392,83,-220,165,278,83,-93
15050,-154,277,-31,19,216,698,760,367,361,-51,417,-152,247,354,245,-59,373,-23,266,359,145,441,-86,179,276,369,84,-394,82,203,-1,-169
15051,-141,258,-49,21,206,672,675,401,371,-56,308,-158,254,339,243,-102,382,-19,270,344,118,461,-157,163,275,340,71,-368,8,160,-30,-135
15052,-150,279,-132,53,213,672,681,402,418,-40,356,-203,329,343,251,-54,420,-45,293,364,119,510,-119,172,282,343,47,-367,-4,128,-28,-109
15053,-165,270,-68,44,219,676,737,344,420,-48,426,-190,365,346,176,37,372,-28,301,355,146,500,-100,199,277,365,88,-340,61,170,4,-128
15054,-145,277,34,8,217,670,753,404,369,-27,391,-121,290,342,199,44,407,11,303,354,161,497,-52,207,273,361,82,-338,70,174,-11,-144
15055,-132,289,25,12,223,675,757,416,343,-19,389,-91,185,348,217,48,516,-18,279,351,143,537,-30,188,273,360,21,-347,62,155,-24,-121
15056,-137,276,-24,15,214,671,734,373,335,-12,368,-165,242,346,259,41,458,-28,253,325,126,496,-86,170,258,327,15,-317,65,163,-39,-142
15057,-121,295,-2,8,207,692,751,375,342,-35,409,-191,233,357,187,38,366,-26,254,320,108,553,-106,181,279,324,48,-271,120,201,-34,-123
15058,-113,298,23,39,214,680,732,383,387,-41,414,-168,295,362,120,-11,401,-12,279,326,96,572,-77,187,277,308,71,-316,95,174,-10,-124
15059,-144,240,-24,22,202,652,673,406,388,-59,332,-209,362,368,158,-22,407,5,280,315,70,470,-54,191,291,304,31,-345,73,194,-14,-114
15060,-164,229,-11,-13,201,633,689,373,317,-61,343,-175,166,332,157,-2,440,-32,239,302,85,473,-8,167,285,307,59,-353,59,213,-14,-106
