,Fp1,Fp2,F7,F3,Fz,F4,F8,FC5,FC1,FC2,FC6,T7,C3,Cz,C4,T8,TP9,CP5,CP1,CP2,CP6,TP10,P7,P3,Pz,P4,P8,PO9,O1,Oz,O2,PO10
76680,1284,496,399,448,206,371,5,333,-43,-165,141,94,415,-72,264,123,-211,80,155,47,145,46,-353,281,207,351,179,-160,-140,-202,340,715
76681,1189,484,340,431,197,354,11,356,-6,-173,135,-286,457,-51,273,219,-236,129,165,68,211,105,-309,325,238,402,257,-8,-41,-65,494,776
76682,1189,466,182,392,187,337,12,336,-16,-188,44,-388,521,-51,234,217,-194,114,150,10,121,62,-299,297,183,297,17,-153,-173,-285,52,-130
76683,1189,456,219,446,191,333,-31,234,-29,-187,-33,-128,447,-80,235,204,-160,108,140,9,143,73,-307,281,163,290,48,-153,-248,-329,-10,-141
76684,1167,450,228,474,160,341,-29,213,-56,-195,-59,262,335,-82,234,236,-113,52,148,52,184,63,-235,291,218,359,177,18,-111,-178,198,205
76685,1222,440,293,465,170,386,-8,226,-31,-173,-39,360,348,-62,239,244,-186,31,181,82,212,37,-235,330,240,388,265,6,-38,-123,263,343
76686,1297,494,410,429,178,390,-25,114,-43,-169,17,458,335,-60,255,191,-385,45,149,70,218,37,-297,276,188,383,247,-225,-186,-221,255,466
76687,1297,449,413,428,151,350,28,137,-67,-191,55,353,360,-70,232,84,-342,4,124,78,170,74,-395,215,173,355,187,-520,-335,-327,200,440
76688,1238,373,320,449,164,372,58,176,-42,-177,65,217,376,-46,232,17,-85,0,159,102,159,141,-387,259,207,384,218,-412,-231,-186,334,619
76689,1234,366,274,483,172,358,23,211,-16,-182,63,140,422,-37,255,10,-76,20,168,109,171,155,-331,282,225,413,246,-244,-153,-83,454,738
76690,1219,427,286,529,181,367,12,126,-3,-167,127,19,427,-35,264,77,-122,77,162,96,214,131,-299,272,241,432,328,-204,-183,-124,429,746
76691,1156,529,279,563,178,404,63,161,-17,-158,115,-133,394,-64,278,212,-226,93,153,66,159,82,-381,202,191,393,202,-269,-288,-270,201,393
76692,1186,528,288,605,193,418,62,258,-19,-189,92,-217,445,-94,246,243,-259,77,142,56,122,50,-434,159,141,335,52,-289,-305,-373,51,73
76693,1120,445,293,534,186,447,14,172,-23,-179,171,-58,467,-86,258,232,-271,51,138,75,153,88,-438,195,171,336,145,-274,-248,-268,215,420
76694,1126,396,307,487,201,500,-74,168,-5,-154,159,-218,469,-73,276,277,-245,3,110,79,206,102,-477,204,206,385,262,-289,-221,-211,339,609
76695,1224,378,375,483,200,441,12,240,-31,-158,144,-442,473,-81,280,298,-257,10,117,84,256,-8,-456,223,192,416,368,-323,-245,-205,328,551
76696,1231,275,417,436,207,385,198,254,-44,-152,148,-493,410,-60,274,363,-231,3,128,81,291,-14,-446,229,196,423,361,-270,-209,-230,272,345
76697,1210,288,346,410,197,459,190,240,-63,-142,112,-243,331,-79,288,223,-292,-1,118,82,279,51,-455,221,203,406,246,-200,-180,-191,279,429
76698,1231,332,282,402,182,494,195,204,-60,-132,152,91,386,-51,314,112,-290,47,164,119,287,136,-392,284,258,461,252,-126,-91,-78,441,789
76699,1257,461,347,408,198,497,151,211,-44,-124,209,192,401,-28,307,243,-136,84,184,136,285,240,-275,319,294,495,354,-56,-44,-30,507,966
76700,1302,613,438,471,213,490,97,235,-30,-134,226,89,414,-31,304,210,-186,151,170,97,233,329,-266,350,272,459,258,-143,-74,-89,345,541
76701,1300,584,459,485,178,389,73,228,-35,-158,190,23,427,-43,268,141,-265,182,159,103,196,343,-191,368,253,430,230,-217,-59,-143,243,280
76702,1229,576,441,501,181,307,89,266,-9,-168,192,146,524,-6,280,151,-191,181,208,147,242,286,-135,368,271,450,353,-74,-48,-146,262,407
76703,1230,565,346,508,182,353,130,229,-3,-151,184,329,612,0,311,145,-163,309,219,149,280,245,-222,377,274,460,384,-114,-94,-140,297,477
76704,1140,529,204,524,175,318,65,236,16,-167,117,388,649,-11,276,92,-87,248,240,136,235,193,-263,392,262,444,298,15,-45,-98,362,499
76705,1140,586,124,584,162,317,66,316,9,-176,156,130,487,-36,289,88,-80,181,213,119,207,223,-277,367,273,444,269,91,20,-19,453,681
76706,1264,611,174,544,176,412,89,263,-38,-173,172,-82,336,-31,303,122,-33,92,149,124,245,323,-387,345,272,445,310,-54,18,19,488,790
76707,1340,595,486,551,209,381,109,391,-29,-169,157,-109,398,-26,288,254,-29,59,156,142,234,321,-333,343,285,443,333,-89,0,-16,482,778
76708,1371,543,698,551,226,395,133,408,5,-149,141,-182,455,-16,303,308,-68,106,161,128,216,273,-281,336,262,388,229,-109,-61,-143,306,478
76709,1335,487,644,483,226,399,124,177,-19,-141,96,-50,409,-7,299,255,0,98,172,140,199,223,-218,352,272,411,271,-34,-49,-134,292,476
76710,1360,523,683,448,210,360,91,36,-59,-153,95,269,376,-6,318,272,-6,83,169,145,233,107,-144,385,309,480,374,141,51,0,420,632
76711,1321,510,664,401,193,377,16,91,-42,-139,116,367,432,-2,341,279,-57,89,185,163,248,102,-248,391,302,492,341,86,34,-30,448,623
76712,1257,532,619,399,194,370,82,116,-37,-149,97,345,443,23,310,474,-96,61,208,186,305,293,-334,378,305,527,410,-48,4,11,519,720
76713,1255,501,705,440,198,373,150,88,-79,-167,137,375,325,-16,313,450,-71,0,178,170,308,274,-372,342,296,518,412,-137,-6,-3,473,755
76714,1210,514,650,465,199,429,228,140,-77,-151,181,330,298,-16,343,407,-55,13,189,160,280,264,-402,323,294,490,395,-213,-85,-90,394,626
76715,1218,515,594,515,203,379,70,161,-58,-158,179,253,362,-3,321,281,-115,65,217,163,263,244,-348,373,296,504,438,-69,15,8,474,635
76716,1188,522,594,479,175,336,-25,73,-66,-182,66,370,364,-35,261,167,-21,91,188,129,205,121,-248,371,266,451,337,-44,15,-24,413,401
76717,1234,594,596,550,217,367,41,72,-49,-164,124,481,366,-29,288,120,-55,92,186,94,211,36,-268,340,228,375,250,-275,-136,-178,343,470
76718,1209,636,576,551,213,381,56,232,-34,-134,206,320,408,-4,313,215,-142,78,198,95,241,-14,-277,333,233,381,227,-232,-152,-247,236,491
76719,1162,584,656,484,195,384,102,221,-48,-130,222,280,374,-19,331,376,-177,56,176,116,268,-103,-229,377,247,443,272,9,-26,-123,354,594
76720,1096,487,581,479,183,368,16,221,-43,-166,65,393,391,-13,300,389,-192,111,184,138,264,91,-209,410,284,484,342,149,89,3,551,904
76721,1109,524,591,503,187,382,51,355,-9,-170,86,290,503,-2,257,219,-179,136,201,118,216,180,-267,399,244,443,242,90,21,-110,419,653
76722,1118,523,650,562,185,406,18,435,-6,-143,97,66,541,2,251,213,-104,136,213,135,223,180,-265,383,227,429,240,19,-23,-138,373,524
76723,1184,444,694,585,186,384,-16,493,-11,-171,66,-162,505,-22,222,144,-149,206,194,76,160,164,-342,369,201,370,195,-141,-78,-215,260,347
76724,1140,352,698,554,172,327,8,418,-22,-198,36,-597,486,-58,181,43,-219,142,161,52,117,179,-298,345,180,334,137,117,-20,-199,195,185
76725,1180,445,736,543,186,375,38,292,-31,-177,96,-379,458,-15,215,-53,-157,120,186,65,122,280,-338,323,203,343,160,-116,-24,-124,312,383
76726,1214,494,629,537,190,447,-5,257,-45,-140,123,89,455,-4,219,-58,-68,115,202,89,129,226,-194,396,246,383,169,117,55,-37,420,514
76727,1256,524,583,520,203,470,40,179,-58,-161,137,317,401,-24,248,13,-194,51,145,91,195,175,-308,353,241,419,267,-123,-38,-104,392,508
76728,1264,505,569,529,200,426,53,238,-50,-133,187,371,373,-17,268,200,-48,19,147,99,251,197,-295,308,220,456,423,-147,-143,-149,440,617
76729,1229,473,520,529,206,392,70,263,-59,-154,191,228,380,-27,251,215,-61,-33,127,92,242,215,-455,224,191,442,498,-625,-309,-216,368,647
76730,1233,479,585,527,199,381,6,150,-50,-176,94,136,441,-18,248,73,-105,28,142,78,219,159,-355,253,181,419,463,-504,-326,-246,318,569
76731,1209,532,682,467,180,368,26,81,-50,-167,115,267,452,-9,251,137,-114,103,182,98,257,104,-255,311,202,419,469,-412,-290,-267,357,675
76732,1130,557,675,462,173,366,46,182,-54,-164,144,129,365,0,266,215,-13,82,172,124,257,143,-298,303,216,438,383,-307,-189,-195,395,643
76733,1172,617,657,484,207,333,16,267,-54,-152,159,109,279,-4,265,206,-12,84,161,104,224,188,-392,307,226,435,268,-154,-83,-82,416,455
76734,1198,626,629,475,181,346,-3,224,-67,-171,107,-6,398,-34,248,103,-89,145,158,83,182,262,-496,266,199,371,213,-189,-140,-180,299,462
76735,1156,616,600,485,188,357,-79,322,-21,-179,97,-121,474,-20,231,-11,-153,313,171,104,139,283,-547,263,183,345,125,-234,-189,-253,268,455
76736,1105,548,553,463,167,355,-96,258,-29,-184,59,-138,423,-28,203,-52,-165,-10,140,87,79,220,-475,274,174,332,99,-222,-211,-235,308,445
76737,1082,521,495,503,147,236,49,173,-41,-208,33,-61,420,-39,199,128,-140,-83,125,98,68,177,-388,303,180,335,104,-127,-152,-193,341,434
76738,1163,541,561,494,177,127,109,239,-28,-213,41,129,445,-18,197,135,-160,-33,148,100,94,127,-390,307,199,340,125,-90,-98,-170,332,425
76739,1244,516,697,479,194,262,83,248,-57,-186,48,224,319,-24,195,138,-109,-39,141,112,150,207,-355,314,228,348,188,-128,-67,-143,392,445
76740,1229,502,653,453,174,298,38,298,-93,-187,31,112,247,-40,168,32,-19,5,130,107,138,238,-316,342,225,378,216,-155,-58,-90,417,511
76741,1182,455,597,462,175,283,2,233,-86,-197,87,123,321,-35,174,12,-112,0,132,76,133,163,-358,329,207,356,212,-238,-99,-90,428,551
76742,1178,359,544,393,175,279,-82,172,-71,-195,109,367,334,-18,224,72,-117,19,150,84,170,119,-292,370,252,392,329,-226,-65,-63,466,608
76743,1187,396,482,378,165,287,-96,101,-83,-175,168,571,317,-38,229,-3,-241,30,149,78,194,126,-234,385,242,429,441,-184,-46,-65,510,706
76744,1142,452,428,403,156,247,-80,164,-82,-199,92,328,366,-61,186,69,-212,-22,124,63,175,71,-346,321,198,400,376,-163,-98,-97,485,689
76745,1152,430,498,479,176,242,-127,190,-49,-203,26,180,402,-22,224,205,-36,6,160,89,209,185,-246,365,256,451,413,64,6,-25,570,857
76746,1201,278,650,498,193,324,-65,247,-58,-181,42,166,337,-46,227,338,-192,15,148,74,200,243,-267,355,226,396,317,-184,-60,-112,418,637
76747,1213,292,720,525,186,361,-113,308,-58,-209,-43,230,309,-57,164,372,-179,28,112,37,165,264,-314,336,194,357,231,-324,-119,-146,372,529
76748,1190,409,710,526,203,347,-69,315,-77,-221,-38,204,305,-59,185,239,-148,19,92,16,102,235,-333,342,166,329,163,-234,-121,-209,256,347
76749,1160,455,675,514,207,352,6,287,-38,-185,39,-366,370,-41,221,293,-217,18,87,22,107,252,-423,290,155,321,141,-340,-208,-258,216,261
76750,1132,495,685,521,162,358,-2,285,-44,-198,61,-899,350,-27,211,109,-150,63,91,45,93,283,-414,284,169,336,169,-283,-141,-181,347,499
76751,1075,520,687,502,155,306,-30,231,-55,-204,82,-666,312,-51,219,-102,-213,33,101,23,79,241,-353,274,155,297,103,-257,-160,-257,228,336
76752,1091,573,641,500,203,279,-5,226,-25,-172,154,-270,321,-30,240,-97,-145,-14,108,29,96,197,-325,273,150,299,130,-228,-172,-324,142,232
76753,1077,525,510,423,180,307,50,196,-57,-182,204,50,308,-51,266,17,-138,-41,81,18,125,150,-348,249,136,311,167,-242,-198,-360,116,203
76754,1098,437,419,439,158,371,-36,192,-68,-187,155,302,318,-72,262,46,-444,-52,63,29,91,165,-358,250,124,324,215,-255,-199,-296,224,401
76755,1136,386,556,453,175,431,-95,219,-38,-166,70,302,298,-50,230,-25,-270,-64,87,38,120,159,-297,252,148,364,262,-161,-115,-227,282,499
76756,1115,341,596,425,151,337,-104,245,-48,-200,54,87,298,-59,215,-247,-63,24,84,-1,100,30,-209,284,158,325,146,40,-56,-250,159,214
76757,1098,305,455,416,127,298,-74,262,-40,-195,125,-309,336,-83,226,-232,-90,100,87,-17,80,-52,-126,320,158,299,88,21,-26,-197,208,240
76758,1142,251,528,405,130,225,-82,167,-53,-189,132,-728,347,-62,216,1,-35,125,98,10,115,50,-198,297,176,337,197,-21,2,-80,425,560
76759,1103,260,548,403,145,206,-102,196,-74,-203,102,-740,352,-50,213,185,-143,49,78,26,178,141,-384,257,187,371,308,-96,-9,-33,498,692
76760,1060,380,521,478,164,252,-37,210,-36,-216,65,-412,411,-61,211,242,-217,-15,66,-8,135,146,-518,199,165,336,278,-243,-122,-194,311,561
76761,1162,515,678,542,180,189,-57,193,-9,-213,-16,-46,461,-43,176,436,-17,42,104,40,183,88,-343,268,214,385,401,85,-51,-161,360,798
76762,1248,581,735,545,175,214,-19,130,-42,-207,12,-77,362,-34,199,466,127,-16,121,70,199,137,-271,311,238,420,389,171,52,-41,468,788
76763,1192,582,625,465,171,268,-5,130,-87,-209,19,202,156,-54,210,323,167,-58,82,58,140,235,-260,295,218,353,142,54,56,-68,368,256
76764,1139,548,568,426,156,240,-47,137,-95,-225,-22,255,219,-70,189,204,76,17,87,44,125,161,-403,268,204,351,136,-105,-54,-127,400,306
76765,1167,555,527,427,155,212,-39,141,-72,-221,-44,173,295,-42,188,267,43,77,111,53,184,226,-544,270,207,391,320,-385,-161,-159,448,561
76766,1180,588,550,522,176,246,-4,137,-43,-213,20,122,314,-51,209,226,73,-83,108,33,171,230,-427,249,186,347,241,-260,-203,-286,273,311
76767,1262,629,580,539,210,265,48,112,-37,-210,40,-5,366,-63,215,176,-45,-31,121,35,114,247,-512,214,168,336,114,-398,-272,-314,234,266
76768,1280,561,626,414,159,226,48,109,-41,-237,28,-55,367,-70,201,188,-178,-71,80,25,122,352,-589,194,158,351,205,-499,-248,-275,282,405
76769,1206,508,608,378,157,260,41,188,-35,-234,-19,129,433,-67,212,191,-165,-69,97,32,132,323,-532,224,162,326,223,-325,-160,-242,259,418
76770,1206,523,595,423,171,266,60,204,-24,-206,-33,134,419,-43,219,192,-203,-30,127,41,143,232,-461,249,177,359,303,-334,-166,-237,284,394
76771,1136,507,724,521,182,288,-26,296,-51,-204,15,-121,259,-93,200,98,-202,-10,72,-5,93,214,-458,223,122,328,176,-472,-278,-386,150,108
76772,977,450,682,621,209,371,-100,386,-37,-194,102,-428,351,-82,238,6,-107,-14,90,5,88,266,-445,234,122,315,149,-427,-248,-341,216,357
76773,906,367,549,676,209,397,-138,456,9,-205,42,-596,475,-81,188,-53,-254,-46,83,-5,27,267,-474,255,131,278,69,-344,-211,-283,250,427
76774,1009,394,586,661,191,307,-25,321,-18,-229,-6,-366,369,-79,163,-18,-187,-34,81,-26,14,256,-427,275,132,266,85,-150,-105,-206,279,396
76775,1108,453,593,585,193,281,69,270,-57,-219,52,-38,281,-65,201,28,-14,36,93,-11,43,275,-242,312,154,303,128,6,-30,-150,335,375
76776,1169,349,573,520,168,260,27,284,-48,-223,-14,-173,312,-70,178,-11,-58,24,95,-12,38,241,-224,268,147,282,165,41,-35,-130,402,488
76777,1227,415,612,468,172,267,60,226,-39,-225,-53,-315,308,-86,180,-64,-156,-54,87,1,58,248,-416,211,134,285,176,-281,-132,-171,441,583
76778,1259,482,685,474,183,299,153,182,-53,-214,50,-273,302,-75,189,-41,-135,-26,94,12,79,237,-428,228,133,305,196,-361,-194,-209,447,587
76779,1263,541,713,457,209,343,147,179,-49,-203,52,-241,288,-66,206,175,-148,1,81,0,55,276,-403,239,119,277,184,-369,-267,-340,268,385
76780,1246,551,717,471,208,280,-15,193,-55,-221,-62,-243,320,-40,190,229,-138,45,113,14,90,306,-268,284,154,311,197,-204,-210,-309,272,384
76781,1235,546,677,489,205,305,13,247,-55,-193,23,-226,351,-38,209,291,-110,69,121,36,99,248,-277,267,183,360,274,-345,-167,-212,376,467
76782,1231,535,699,490,210,364,39,217,-21,-180,59,-55,355,-45,252,293,-123,26,118,52,145,135,-286,276,181,374,350,-269,-169,-217,399,456
76783,1239,482,667,467,207,294,-15,84,-69,-205,44,4,299,-65,243,108,-377,29,86,28,155,80,-344,255,150,359,340,-220,-193,-275,303,418
76784,1169,440,657,491,188,325,21,51,-82,-191,63,59,275,-95,232,-26,-136,-38,90,28,142,50,-332,242,138,375,350,-229,-186,-307,295,384
76785,1150,460,726,546,206,272,6,90,-54,-192,85,138,267,-73,238,38,158,-105,94,27,131,46,-226,258,168,381,358,-128,-124,-244,332,436
76786,1182,391,661,489,193,307,47,120,-86,-183,136,113,268,-73,215,115,27,-45,73,33,130,154,-260,268,163,369,292,-52,-100,-175,381,508
76787,1310,432,607,487,197,353,61,98,-88,-187,140,-15,324,-86,216,137,-32,-33,95,18,125,219,-279,279,181,376,276,-32,-30,-92,446,587
76788,1352,398,674,481,188,337,75,144,-48,-190,112,-33,421,-66,232,230,-145,22,137,21,146,40,-285,320,188,384,254,9,-12,-87,472,629
76789,1242,260,671,480,178,333,94,218,-25,-187,81,48,407,-48,236,144,-336,75,145,38,148,258,-347,330,190,374,277,-17,-32,-134,441,642
76790,1095,276,561,497,181,371,49,342,-35,-183,84,-174,303,-52,244,-2,-221,170,124,48,156,354,-418,313,200,393,316,-132,-62,-109,453,691
76791,1031,348,514,537,164,323,-20,303,-31,-199,-4,-328,392,-44,188,251,-38,112,135,46,164,318,-464,293,204,397,404,-154,-67,-120,407,569
76792,987,427,476,522,140,283,-68,204,-69,-228,20,-341,370,-58,195,437,-1,38,131,59,195,227,-366,304,209,411,453,-8,-3,-11,532,768
76793,1036,511,534,426,151,338,-15,171,-69,-212,97,-124,348,-74,184,371,29,-6,130,11,106,207,-331,280,157,302,222,-60,-122,-183,270,436
76794,1085,565,553,427,152,313,-13,256,-63,-214,25,131,356,-90,148,313,-29,-28,80,-31,35,240,-344,261,104,237,16,-195,-191,-319,109,137
76795,1160,613,566,463,175,295,-6,346,-48,-219,33,44,362,-72,180,86,-84,87,110,-18,25,160,-322,279,114,258,44,-118,-129,-325,53,86
76796,1169,580,671,442,186,301,-60,303,-50,-216,110,-524,391,-85,203,-168,-231,98,124,-6,24,19,-355,270,123,240,26,-1,-82,-275,95,130
76797,1053,556,577,405,183,309,-99,275,-56,-199,132,-677,420,-58,225,-168,-299,123,134,5,52,129,-431,266,139,254,45,84,-76,-208,186,221
76798,1058,570,579,383,166,336,32,139,-66,-195,160,-467,361,-56,207,32,12,114,144,-7,79,188,-438,295,159,285,115,56,-21,-171,224,196
76799,1164,556,686,465,200,408,58,167,-57,-166,188,-146,324,-55,244,130,46,-107,120,41,139,220,-337,269,177,320,213,-107,-105,-198,274,358
76800,1162,485,701,468,189,369,44,220,-49,-185,95,-268,322,-76,203,94,-141,-38,82,24,132,306,-408,230,152,292,221,-238,-187,-216,347,669
76801,1181,445,745,425,193,340,70,167,-53,-171,60,-246,316,-77,207,-65,-68,12,97,46,106,356,-424,271,160,316,215,-146,-124,-156,415,691
76802,1213,428,755,431,208,356,131,139,-59,-195,64,-28,328,-72,201,53,-36,-70,81,18,80,312,-434,244,166,285,163,-132,-151,-214,304,396
76803,1161,479,622,420,209,328,104,152,-51,-210,45,153,397,-69,169,225,-16,-39,103,43,87,240,-381,277,180,284,158,32,-61,-163,357,457
76804,1118,562,553,439,197,289,37,154,-28,-230,-22,285,451,-53,145,278,-31,14,118,56,90,159,-306,301,188,331,149,185,13,-90,365,501
76805,1131,573,554,561,199,290,15,182,-24,-221,-137,240,374,-37,162,450,-121,52,154,55,135,209,-348,318,215,362,249,93,87,-3,510,671
76806,1150,484,550,597,192,259,35,309,-14,-218,-116,212,394,-25,169,420,18,111,156,81,158,310,-374,348,237,390,328,67,70,-32,549,788
76807,1205,526,674,605,166,287,36,319,-1,-205,-31,192,395,-30,183,289,103,37,145,86,148,290,-321,318,231,397,336,49,-4,-86,544,776
76808,1278,574,678,548,187,317,76,191,-19,-194,34,157,343,-24,226,242,145,-1,154,104,169,300,-259,313,218,409,394,51,-45,-128,538,775
76809,1306,600,768,448,191,373,94,146,-58,-193,77,153,296,-38,215,209,104,56,112,77,92,142,-289,294,166,336,192,83,-38,-244,231,205
76810,1301,547,870,474,200,411,106,191,-52,-183,95,50,329,-34,222,265,71,107,114,90,112,46,-258,313,173,335,181,137,-3,-261,156,42
76811,1284,461,821,454,203,446,56,203,-58,-183,106,-119,344,-42,225,313,-66,67,83,61,106,28,-364,260,166,343,314,-218,-142,-311,252,346
76812,1262,488,725,433,200,521,33,249,-62,-207,108,-343,363,-45,197,245,-176,17,63,16,69,51,-423,192,122,266,267,-416,-254,-351,221,362
76813,1275,462,634,478,203,407,35,232,-53,-213,9,-317,344,-53,177,46,-165,-15,62,29,61,288,-442,177,110,262,202,-407,-282,-318,269,387
76814,1274,414,741,495,193,228,115,122,-38,-212,34,-139,388,-52,186,0,-140,25,95,26,75,344,-314,226,149,278,168,-303,-182,-256,296,475
76815,1249,424,798,464,220,435,131,89,-43,-182,126,30,437,-36,220,117,-124,51,116,46,53,224,-291,260,165,261,77,-219,-161,-298,211,344
76816,1213,493,717,427,217,480,142,122,-50,-174,185,82,436,-27,230,54,-64,25,114,50,54,194,-412,243,137,254,70,-86,-96,-267,194,249
76817,1243,626,771,475,217,368,27,205,-64,-191,82,145,293,-57,188,45,-32,21,85,39,51,198,-445,268,153,275,122,-88,-61,-171,307,397
76818,1230,630,835,565,213,284,43,281,-55,-208,66,78,378,-81,183,136,-62,45,110,19,27,183,-434,287,168,264,114,-95,-59,-128,393,483
76819,1175,540,859,603,224,301,93,400,-15,-194,86,-413,435,-53,224,159,-142,126,114,43,51,278,-544,278,175,286,220,-263,-127,-166,373,521
76820,1090,497,809,658,232,272,86,402,6,-197,60,-998,463,-49,190,75,-253,159,137,35,78,264,-596,240,142,265,290,-516,-258,-293,291,495
76821,1050,546,738,703,228,299,130,384,28,-192,64,-927,541,-36,188,43,-219,222,138,17,43,155,-444,256,129,213,170,-271,-238,-401,38,191
76822,1108,560,741,643,214,319,74,315,20,-204,52,-461,497,-37,204,48,-234,191,144,34,39,251,-343,300,167,224,150,-11,-76,-224,178,325
76823,1196,612,746,571,235,318,99,199,-5,-214,89,251,415,-43,217,182,-108,122,154,31,67,315,-254,335,172,267,149,86,14,-137,333,466
76824,1286,614,764,506,244,345,162,182,-17,-199,101,651,381,-41,235,172,-39,54,141,56,100,163,-188,337,177,245,157,105,20,-138,339,444
76825,1258,532,730,496,225,402,-5,170,-39,-191,96,436,356,-58,267,166,-90,32,127,49,132,48,-222,299,158,257,215,-46,-60,-186,322,507
76826,1213,522,708,505,226,399,2,220,-35,-187,120,201,367,-58,260,193,-269,25,117,58,146,134,-330,262,133,285,302,-250,-153,-223,298,545
76827,1210,546,608,479,207,365,53,189,-38,-202,86,146,336,-50,230,100,-166,25,115,77,123,272,-307,264,153,278,288,-152,-92,-166,380,663
76828,1220,540,501,383,201,389,32,165,-43,-183,99,129,356,-50,231,213,-95,52,128,77,131,345,-374,245,164,330,349,-255,-87,-155,450,880
76829,1255,577,617,392,235,417,119,83,-16,-157,153,300,392,-21,259,387,-98,67,154,114,169,458,-390,248,202,371,408,-130,-13,-58,529,1122
