,Fp1,Fp2,F7,F3,Fz,F4,F8,FC5,FC1,FC2,FC6,T7,C3,Cz,C4,T8,TP9,CP5,CP1,CP2,CP6,TP10,P7,P3,Pz,P4,P8,PO9,O1,Oz,O2,PO10
91314,618,683,286,187,213,-123,-260,420,107,-95,119,368,426,50,-6,74,108,108,411,-11,35,98,712,459,207,344,315,123,67,-121,195,-121
91315,582,702,290,201,218,-86,-224,417,109,-82,149,302,432,59,19,99,135,90,387,-9,32,41,626,415,173,332,206,97,36,-177,172,-146
91316,598,721,282,204,235,-72,-191,413,118,-74,206,313,440,76,14,153,119,125,383,12,78,49,684,429,208,370,276,220,75,-140,211,-24
91317,573,633,281,209,213,-113,-241,377,100,-93,181,310,447,67,-4,149,46,129,392,22,72,69,777,434,219,386,314,262,156,-61,284,94
91318,503,544,289,211,192,-118,-317,358,92,-102,198,261,446,68,5,110,80,166,413,31,73,45,875,449,238,393,343,392,194,-17,373,189
91319,497,564,280,182,205,-67,-287,321,96,-57,238,282,439,94,24,153,61,180,439,81,132,4,929,497,286,441,398,451,248,88,495,292
91320,478,549,248,180,220,-65,-367,305,114,-40,230,243,448,109,10,215,9,124,461,98,146,34,829,477,285,453,413,371,317,163,532,308
91321,433,508,244,218,228,-106,-397,376,130,-67,206,309,485,113,-16,144,92,161,473,32,30,-126,934,493,259,373,196,657,315,38,251,-190
91322,407,339,250,226,211,-30,-342,383,105,-74,179,316,453,85,-49,-41,-224,169,438,-9,-85,-58,764,440,194,264,63,430,169,-163,28,-362
91323,372,325,266,237,192,-13,-324,357,99,-62,168,229,437,78,-55,-26,-285,114,415,2,-16,-55,560,373,171,283,189,5,0,-234,92,-120
91324,346,379,186,237,183,-45,-340,360,108,-51,209,233,404,72,-18,-31,-31,36,385,5,44,-12,513,328,163,337,296,-243,-113,-295,87,-117
91325,391,424,150,192,175,-36,-299,353,96,-76,202,198,388,51,-15,-4,-166,0,356,-14,48,87,488,300,154,319,384,-361,-174,-321,60,-109
91326,443,480,158,181,171,-45,-259,342,90,-77,101,203,416,54,12,75,-117,51,377,7,93,60,525,313,162,346,395,-196,-95,-265,127,-32
91327,500,512,199,164,190,-47,-232,305,110,-73,156,231,436,85,5,-17,-16,113,418,36,72,128,561,367,182,381,380,-122,-25,-185,167,38
91328,540,499,214,152,196,2,-256,328,110,-71,224,249,457,71,-6,-192,54,138,434,37,50,154,574,411,214,395,307,36,54,-92,277,135
91329,543,445,248,161,193,48,-272,344,110,-61,241,201,484,82,3,-148,-2,146,440,51,26,158,610,436,249,370,206,240,174,54,404,254
91330,573,455,302,141,201,14,-248,345,123,-52,253,217,484,82,26,-33,-82,127,448,58,38,187,590,447,267,385,203,214,227,104,437,321
91331,590,454,312,154,205,6,-236,400,117,-32,266,296,494,101,40,-8,122,173,465,56,56,159,706,509,264,371,162,365,210,56,366,130
91332,562,459,231,185,183,-36,-280,406,132,-52,248,323,475,95,33,89,15,175,442,29,30,97,662,464,235,343,153,215,123,-65,230,10
91333,572,515,152,220,183,-79,-331,406,128,-72,245,309,509,100,48,58,-108,298,435,7,2,184,551,393,197,324,138,32,-31,-249,53,-86
91334,539,526,196,225,198,-65,-286,408,129,-65,274,161,456,98,29,77,34,110,411,6,8,201,597,389,199,319,169,69,-43,-224,61,-19
91335,518,495,218,212,176,-59,-267,444,115,-55,251,165,428,85,32,64,105,62,398,-6,28,144,619,378,201,326,201,53,16,-174,135,40
91336,506,508,265,176,162,-64,-347,384,86,-76,230,226,448,72,31,74,61,115,380,-13,31,145,639,369,161,324,205,-9,0,-192,156,43
91337,491,537,257,184,169,-68,-344,381,94,-56,251,271,455,77,24,128,69,159,396,22,50,85,724,366,179,359,240,108,45,-140,204,58
91338,519,494,291,186,168,7,-338,341,99,-45,265,287,426,63,45,181,-44,128,364,22,81,-18,641,310,152,355,284,21,-2,-163,220,22
91339,492,450,281,166,187,65,-322,276,100,-24,264,451,389,55,81,191,-90,142,343,10,126,53,596,312,155,351,338,61,46,-103,315,134
91340,435,459,253,178,171,-1,-292,307,91,-25,261,432,412,71,82,174,111,110,381,26,146,90,714,363,196,380,338,297,170,8,403,213
91341,387,470,244,185,184,-29,-262,335,115,-41,245,360,432,99,74,103,140,105,424,32,159,131,815,384,225,422,379,480,264,95,418,210
91342,405,492,268,177,187,-48,-242,326,107,-42,244,332,425,76,42,60,55,121,402,11,142,83,814,376,197,390,376,370,238,23,265,63
91343,466,514,320,213,203,-6,-233,328,102,-44,253,294,449,53,55,46,45,112,374,18,99,135,808,370,166,383,401,250,127,-77,184,-8
91344,547,584,304,182,226,11,-208,343,100,-35,274,274,419,35,70,104,15,109,367,4,124,202,741,353,166,396,381,131,75,-81,268,130
91345,600,659,313,135,209,6,-280,328,99,-42,249,267,422,53,85,151,13,82,366,35,141,262,652,322,165,411,360,186,90,-10,382,371
91346,574,681,299,116,198,-28,-359,279,96,-50,166,266,433,50,74,171,21,77,390,16,146,297,559,315,180,448,388,149,120,22,446,482
91347,587,680,325,135,205,-49,-318,301,77,-60,166,254,406,34,36,147,-29,41,333,-27,86,186,515,283,147,394,294,108,45,-64,334,118
91348,562,623,282,129,183,-71,-240,308,64,-68,176,232,406,26,34,115,-155,31,329,-15,57,182,558,286,149,362,287,61,45,-70,339,98
91349,560,551,231,119,188,-35,-217,345,95,-42,183,271,420,45,50,150,-193,85,362,3,53,204,636,344,177,406,328,131,140,22,404,329
91350,546,509,275,105,200,76,-181,368,94,-27,130,318,436,41,37,199,-175,130,365,2,63,119,711,358,165,374,240,170,117,-73,179,41
91351,466,437,308,102,190,159,-232,345,82,-24,108,275,434,45,51,139,-42,102,371,-6,79,143,694,350,158,334,239,141,72,-144,108,-15
91352,407,456,297,150,201,68,-309,366,82,-44,158,231,440,57,53,102,37,109,397,16,83,205,684,371,157,342,347,253,91,-80,180,126
91353,445,531,311,144,212,66,-312,366,92,-5,194,203,444,78,102,155,-48,101,415,39,119,191,591,352,215,454,435,278,142,-5,292,148
91354,514,525,279,138,197,40,-277,346,86,-26,199,101,419,66,108,162,-198,89,403,49,123,-34,557,337,201,433,382,249,159,-38,256,-87
91355,575,532,295,144,189,32,-279,320,87,-34,195,113,402,48,83,140,-67,89,401,25,104,6,604,343,178,382,320,192,136,-76,195,17
91356,642,582,386,168,218,9,-281,353,94,-27,179,236,417,54,74,90,39,126,413,13,75,149,644,367,186,337,260,222,105,-155,72,-24
91357,621,592,352,138,231,7,-269,358,80,-22,184,291,428,79,92,146,-58,118,424,60,152,160,726,423,239,416,362,288,216,-6,298,131
91358,579,585,389,136,220,10,-233,351,89,-20,178,400,456,73,84,95,-26,189,438,58,129,154,817,463,248,450,318,427,257,31,333,158
91359,558,529,348,119,202,-15,-298,368,91,-29,170,406,456,68,64,-113,23,180,415,45,63,88,782,418,227,395,212,368,254,-13,269,16
91360,537,475,251,120,194,-17,-279,371,104,-24,177,426,419,48,67,-46,-114,151,392,44,92,114,737,390,221,397,285,217,185,-69,234,-44
91361,463,455,142,137,191,-8,-257,356,95,-24,163,406,419,53,40,77,-77,135,375,48,146,197,721,383,231,452,492,283,158,-59,329,123
91362,478,509,65,151,208,46,-286,410,109,-24,228,418,453,61,79,107,-10,124,364,46,159,189,671,344,208,449,472,168,158,-39,333,250
91363,493,503,71,175,212,78,-273,482,130,-26,216,326,481,39,41,177,-137,121,375,2,148,65,560,332,187,386,346,10,121,-48,302,331
91364,495,490,96,201,186,36,-248,438,126,-46,162,168,454,22,1,87,44,72,342,-24,56,79,514,297,151,343,230,59,91,-108,199,135
91365,495,470,225,230,205,19,-270,392,116,-38,125,172,446,15,-29,10,37,146,347,-52,-37,149,497,309,145,296,137,150,92,-156,79,-200
91366,444,426,311,200,217,49,-299,317,109,-47,140,248,456,14,-9,24,18,190,375,-30,-6,205,580,376,181,341,176,248,170,-72,210,-96
91367,407,454,293,208,221,20,-296,303,92,-41,165,282,428,27,37,65,21,32,362,-4,39,171,735,413,205,387,259,266,193,-28,276,50
91368,431,479,242,180,196,6,-304,314,86,-45,123,307,437,22,21,65,-51,51,351,-12,77,196,679,389,185,396,363,132,162,-71,294,121
91369,507,536,298,127,201,40,-238,318,99,-18,119,273,441,45,29,82,16,79,376,9,102,227,608,387,180,385,388,152,93,-130,201,54
91370,513,563,309,105,191,74,-244,289,75,-17,154,271,411,33,39,64,46,100,377,-5,88,250,508,361,173,365,359,228,96,-125,191,5
91371,536,559,305,101,204,5,-277,254,50,-45,156,370,382,3,20,-11,-121,37,366,-12,32,259,548,330,163,351,220,297,105,-104,217,52
91372,588,606,354,101,224,-15,-242,281,79,-26,163,494,378,27,36,-21,-42,41,382,10,9,278,620,354,181,390,193,357,171,-71,240,84
91373,593,580,348,121,233,-7,-210,322,103,-30,183,399,410,47,70,9,56,102,404,31,44,207,692,407,202,397,223,504,234,-30,287,89
91374,527,600,305,87,229,9,-202,312,85,-45,214,259,423,43,64,86,96,92,388,17,52,175,693,392,190,382,264,440,260,48,344,175
91375,523,624,293,63,220,-8,-275,284,75,-31,203,219,411,43,73,148,66,52,369,11,85,242,709,385,187,431,348,386,260,91,431,349
91376,519,616,344,108,215,48,-304,298,93,-10,220,262,401,62,98,190,6,67,376,37,132,189,701,370,194,487,463,411,285,120,484,436
91377,525,580,345,92,215,89,-267,326,64,-31,220,259,364,38,97,197,2,58,369,51,151,183,722,320,176,473,494,473,241,26,355,274
91378,544,539,330,91,205,108,-216,347,57,-31,229,309,359,33,101,222,0,57,343,53,121,215,721,335,156,414,376,411,200,-99,155,52
91379,572,559,372,145,231,173,-178,373,85,-6,266,304,397,41,104,203,-13,28,345,25,78,282,608,298,134,343,252,122,47,-239,10,-196
91380,555,606,383,154,216,134,-180,407,96,-21,205,317,396,45,86,139,-42,6,308,-16,54,296,535,216,93,316,174,-63,-137,-340,8,-179
91381,552,619,353,144,221,91,-174,413,95,-33,169,335,406,10,72,88,-150,-8,261,-23,-9,295,484,162,57,283,146,-213,-200,-375,30,-39
91382,572,658,356,156,239,96,-140,406,103,-40,131,239,388,0,43,100,-159,-35,259,-56,-52,282,479,159,47,257,144,-249,-203,-341,49,-29
91383,576,631,295,138,204,97,-220,368,94,-55,94,160,373,0,25,62,-37,-60,240,-62,-44,159,462,181,41,245,83,-144,-188,-336,38,-91
91384,536,549,242,124,202,104,-285,371,72,-69,155,144,356,-10,5,61,-141,-67,213,-70,-68,74,438,173,30,264,98,-80,-158,-303,33,-121
91385,536,548,195,136,231,100,-287,369,94,-33,197,203,382,-5,36,82,-158,-69,229,-36,-29,128,454,208,49,289,187,-21,-130,-255,77,-81
91386,542,540,199,150,232,80,-316,342,81,-10,202,235,384,5,87,95,9,-43,253,-18,50,231,548,253,65,337,256,130,-78,-206,172,6
91387,475,486,189,116,204,70,-320,313,47,-30,182,215,351,-18,50,113,-17,-66,242,-44,45,206,564,263,66,316,259,165,-17,-181,214,54
91388,449,498,124,118,221,20,-312,281,78,-30,206,221,358,8,51,139,-75,-45,263,-14,61,211,604,304,91,343,323,211,42,-128,271,83
91389,469,590,144,194,246,18,-289,331,106,-36,177,343,364,20,84,164,-16,-18,284,13,36,237,660,342,117,366,323,294,80,-80,268,81
91390,405,553,157,152,209,58,-308,308,76,-46,164,306,366,0,9,117,-212,-22,252,-26,-1,237,556,289,98,309,210,221,-13,-166,157,7
91391,417,532,237,132,220,41,-251,241,81,-40,194,258,371,0,31,108,-207,-66,247,-54,4,255,483,261,67,297,219,41,-72,-195,155,3
91392,458,499,203,166,242,52,-183,300,82,-37,200,309,398,10,56,114,-3,-49,277,-53,19,281,515,271,74,310,233,19,-42,-201,193,35
91393,387,494,81,157,223,114,-146,296,75,-26,210,311,399,22,53,46,18,6,279,-57,19,309,563,267,90,312,212,104,-44,-196,215,50
91394,329,491,100,159,226,140,-207,226,60,-36,196,254,350,2,47,-11,-34,-50,270,-78,-13,274,578,267,65,309,193,93,-45,-202,189,55
91395,319,440,95,187,231,155,-251,234,84,-29,216,300,380,17,76,94,-34,16,320,-43,34,194,665,315,105,386,315,310,94,-55,307,174
91396,322,367,122,156,213,139,-213,202,74,-26,211,363,377,31,81,146,-48,53,308,5,126,163,772,337,162,418,443,552,199,49,465,294
91397,454,398,203,104,198,76,-193,211,72,-16,185,329,394,24,68,132,-186,55,318,28,156,256,826,385,176,448,506,501,304,184,574,422
91398,591,512,343,69,190,53,-224,159,59,-21,246,392,379,16,46,146,-169,180,327,2,93,188,769,366,136,339,323,328,219,23,291,40
91399,626,576,399,69,216,113,-284,110,63,14,294,527,336,36,90,27,123,49,320,27,93,227,789,349,139,333,360,363,153,-51,250,1
91400,529,493,290,47,224,118,-251,155,58,0,223,455,314,34,85,-28,-84,-93,319,12,127,253,706,323,132,378,522,177,80,-79,276,163
91401,432,491,217,30,214,99,-228,208,47,-14,135,292,307,24,64,80,-178,-69,278,-20,71,294,537,264,87,302,377,43,-75,-294,16,-42
91402,480,530,167,30,192,73,-211,211,59,-17,118,203,310,22,52,94,-126,-96,260,-35,1,262,518,232,61,232,211,-69,-160,-360,19,-102
91403,576,559,165,23,195,57,-219,207,57,-22,148,167,337,30,53,84,-207,-114,260,-39,-8,272,500,223,61,269,196,-234,-149,-297,78,2
91404,543,609,145,11,192,8,-247,202,43,-56,111,159,331,12,64,57,-162,-111,277,-45,0,318,511,218,76,309,251,-102,-150,-260,110,79
91405,513,661,88,64,188,21,-319,245,47,-43,140,177,340,19,71,35,-80,-100,296,-75,-26,224,508,239,87,271,148,62,-80,-229,121,130
91406,529,667,76,87,207,129,-370,240,81,-6,147,198,346,55,92,11,-80,-79,318,-32,0,192,552,292,124,287,185,168,13,-138,260,303
91407,577,657,124,142,202,175,-347,212,69,-26,140,139,320,44,95,-10,-170,-68,303,-28,22,230,517,266,123,294,232,40,-8,-148,240,302
91408,599,612,187,147,208,170,-304,217,43,-13,156,107,300,12,56,-3,-254,-97,277,-74,3,215,431,233,74,268,167,-47,-82,-233,157,120
91409,550,613,225,123,219,150,-281,242,50,-11,167,126,306,24,85,65,-217,-82,288,-62,7,207,464,249,90,296,172,-42,-80,-221,133,-3
91410,481,552,233,105,224,88,-286,236,67,-25,113,185,320,28,54,37,-135,-62,283,-88,-51,243,516,283,85,247,101,66,-66,-269,27,-162
91411,459,446,188,76,239,122,-289,210,52,-17,119,211,316,14,22,12,-90,-84,283,-97,-75,215,560,266,67,200,66,107,-40,-234,55,-99
91412,489,388,207,102,247,98,-262,248,65,-23,132,241,327,21,9,73,-29,-80,304,-78,-39,233,582,292,77,226,88,95,-9,-205,82,-112
91413,511,443,182,109,237,79,-226,251,69,-29,156,261,336,37,31,125,-158,-55,313,-39,16,208,544,336,119,302,202,164,84,-93,238,24
91414,508,504,148,90,233,117,-243,242,58,-21,218,215,340,14,60,112,-115,-30,309,-15,73,156,559,357,153,341,272,274,163,-50,261,-87
91415,508,526,145,76,249,143,-242,254,73,0,246,180,307,16,87,127,52,-31,310,3,98,288,564,363,181,374,292,345,211,16,317,7
91416,509,439,120,115,249,135,-207,257,64,-3,240,206,296,23,92,147,36,-50,325,9,98,328,562,373,175,386,347,273,193,63,413,343
91417,473,450,135,143,268,161,-192,227,69,-3,208,285,295,30,94,149,22,-86,293,-3,73,347,566,354,142,358,326,166,58,-77,333,357
91418,441,547,104,140,264,183,-102,230,62,-3,202,231,323,19,81,141,-34,-106,312,-2,76,327,542,337,137,351,294,46,10,-153,230,106
91419,396,594,117,165,262,196,-126,286,91,-9,202,240,384,44,44,109,5,-25,351,-21,41,374,595,363,132,324,224,132,82,-180,99,-243
91420,421,609,42,148,252,150,-173,266,96,-15,225,263,399,36,57,109,18,77,347,-21,74,425,615,353,131,338,310,186,92,-130,160,-48
91421,521,589,77,98,256,192,-169,209,95,11,291,312,352,61,96,133,35,-23,353,11,117,440,602,344,158,362,457,176,111,-80,237,110
91422,617,526,211,66,238,210,-123,215,88,12,310,329,341,65,137,155,72,-45,371,36,136,401,662,351,171,391,449,399,214,3,288,134
91423,655,554,256,37,241,199,-125,204,75,8,318,366,352,61,132,168,88,29,389,51,143,412,761,419,196,405,423,598,317,71,357,200
91424,650,555,269,35,247,171,-246,192,49,-16,288,264,358,33,90,126,-1,28,344,26,108,372,751,392,192,395,369,536,319,99,417,234
91425,677,626,280,18,234,146,-222,179,25,-21,286,213,324,30,104,118,-82,46,343,46,114,391,743,393,221,425,368,501,346,178,540,395
91426,676,674,281,35,254,168,-151,201,55,11,268,238,319,57,109,51,-202,25,350,46,132,453,594,352,199,405,414,226,189,86,480,490
91427,664,698,291,99,286,205,-88,223,70,12,206,283,331,61,131,-2,-149,44,323,5,146,467,545,284,164,408,456,43,20,-86,292,306
91428,615,696,210,96,252,157,-99,209,42,-41,168,470,317,18,73,134,-118,171,329,-18,78,378,515,279,133,364,374,-7,-55,-202,158,21
91429,550,709,145,110,240,116,-94,189,52,-38,211,528,304,24,49,126,43,-6,300,-3,48,414,655,306,116,319,301,47,-2,-213,104,-182
91430,607,756,235,156,255,100,-127,206,84,-28,234,419,322,37,92,94,70,-82,308,37,95,431,679,323,148,369,346,115,44,-124,203,49
91431,647,646,291,99,219,85,-127,197,56,-33,234,344,310,30,60,163,52,-26,329,-4,91,323,587,290,132,354,338,66,13,-102,214,89
91432,652,599,232,39,211,169,-146,161,48,-5,260,367,320,24,59,199,37,-19,316,4,115,221,637,320,132,346,333,193,71,-68,265,106
91433,594,622,236,94,223,139,-184,156,61,-28,279,322,312,27,71,193,-13,-52,307,23,149,253,549,316,142,382,374,180,94,-63,312,151
91434,499,673,225,163,237,132,-130,201,65,-23,289,295,308,19,55,142,44,-34,319,10,150,339,548,302,151,403,431,261,145,-42,356,136
91435,473,648,150,181,234,136,-128,208,74,-28,255,278,310,28,49,66,46,-38,337,13,131,309,581,309,150,401,447,308,137,-41,323,96
91436,585,638,140,168,232,174,-125,212,68,-27,289,298,336,46,64,84,-19,-54,319,4,123,279,551,310,160,408,409,227,90,-79,308,74
91437,642,647,211,198,233,131,-145,233,96,-31,293,316,347,43,46,82,4,-45,323,-42,89,273,569,323,144,372,337,314,135,-26,338,136
91438,631,611,228,191,208,77,-218,232,73,-53,292,307,345,14,15,74,29,-32,306,-61,57,199,580,317,137,362,296,323,179,12,386,152
91439,649,599,219,224,242,157,-233,287,108,-40,306,331,384,43,50,96,14,4,320,-24,71,227,638,347,154,345,316,402,239,64,441,214
91440,637,580,200,221,242,189,-219,241,94,-22,349,294,360,26,81,146,-82,-25,318,-16,89,65,645,333,137,334,317,220,150,10,430,186
91441,657,567,257,192,253,208,-194,201,98,-7,302,283,368,30,75,131,-153,-20,321,9,93,176,627,323,158,375,380,83,109,26,485,191
91442,629,570,239,155,228,207,-169,216,101,-26,298,310,376,38,64,64,-189,-28,319,1,79,326,565,305,147,356,395,120,75,-22,462,239
91443,649,612,307,119,240,160,-106,207,82,-34,338,311,352,4,47,68,-104,-57,299,-59,55,340,549,284,95,294,281,91,-65,-223,196,106
91444,678,654,271,88,244,167,-91,171,75,-40,313,269,364,17,54,20,-37,-52,305,-40,62,437,557,262,107,329,303,119,5,-148,338,203
91445,674,749,220,95,244,230,-47,220,80,-27,316,307,344,5,66,4,-34,-57,303,-39,50,418,551,229,93,286,246,76,-24,-212,175,-140
91446,612,751,207,97,265,197,-65,222,62,-32,378,314,313,1,62,43,-85,-81,285,-55,40,346,568,215,109,286,227,1,-59,-198,173,-77
91447,561,701,229,142,248,221,-117,176,70,-23,358,377,307,9,71,93,6,-63,310,-35,37,344,633,223,115,291,261,60,-35,-141,261,66
91448,598,630,239,142,221,287,-153,179,81,-9,283,307,316,14,64,91,-94,-12,317,-49,34,388,554,243,86,270,284,-6,-42,-164,248,84
91449,662,598,202,126,242,237,-182,174,84,-20,329,249,293,38,87,114,-196,-48,344,-15,25,401,551,256,105,286,303,256,34,-108,310,93
91450,693,595,162,146,248,121,-196,184,69,-34,318,182,305,30,56,149,-195,-117,326,-1,28,417,507,249,117,294,316,179,95,-40,372,117
91451,604,620,149,125,250,75,-169,220,75,-41,280,160,357,34,65,128,-27,-10,356,6,93,409,524,321,157,336,316,262,178,31,475,178
91452,575,697,131,117,268,110,-220,234,92,-23,341,167,382,51,117,131,66,21,381,28,116,417,586,330,170,371,330,266,175,71,532,255
91453,641,728,86,130,289,139,-212,175,87,-19,394,330,361,45,118,159,10,12,350,57,137,431,582,298,175,396,359,150,115,33,539,316
91454,663,667,105,100,265,176,-115,84,54,-19,394,488,319,36,96,82,-81,5,322,37,135,425,574,290,147,397,369,130,92,13,533,380
91455,691,615,161,118,250,179,-65,126,38,-22,373,425,329,13,68,137,-193,-35,289,5,111,328,493,242,106,318,313,27,-12,-120,343,254
91456,706,624,251,143,245,189,-81,163,71,-24,355,371,358,20,78,127,-185,67,310,-11,118,227,467,245,101,303,275,7,-44,-192,115,-44
91457,698,651,269,110,242,149,-121,134,71,-27,317,312,363,15,111,108,-17,78,347,24,186,317,552,273,132,387,508,20,-30,-121,292,88
91458,720,695,278,98,265,172,-56,123,62,-5,331,308,335,34,117,153,85,-58,362,46,199,330,666,309,141,377,591,112,-13,-188,199,63
91459,746,769,293,134,279,207,35,176,96,-12,366,282,385,30,96,217,165,34,375,20,150,241,652,327,120,292,393,230,25,-259,-28,-302
91460,724,796,350,151,252,215,22,209,96,-7,397,281,417,18,95,119,193,96,379,21,137,346,661,348,137,295,307,275,93,-116,181,-145
91461,671,728,303,131,243,152,-76,237,88,-22,357,234,420,30,68,6,157,59,393,7,72,404,600,333,144,273,196,250,116,-71,245,30
91462,665,730,278,107,255,165,-101,232,89,-17,310,253,419,37,46,182,161,37,381,-12,76,292,573,330,151,264,222,275,77,-84,282,123
91463,663,750,235,131,265,147,-118,193,86,-7,282,358,404,41,79,253,134,23,353,29,132,239,538,324,157,316,355,165,19,-88,301,243
