,Fp1,Fp2,F7,F3,Fz,F4,F8,FC5,FC1,FC2,FC6,T7,C3,Cz,C4,T8,TP9,CP5,CP1,CP2,CP6,TP10,P7,P3,Pz,P4,P8,PO9,O1,Oz,O2,PO10
84053,183,519,187,-167,-176,306,-217,72,-64,-196,-411,-183,122,-44,-187,-12,-474,-84,267,-274,-356,-1,-336,153,64,-51,-56,-897,-478,-338,101,-719
84054,164,460,134,-165,-165,333,-242,80,-43,-218,-380,-59,176,-60,-187,-16,-438,25,263,-316,-390,-63,-276,159,7,-104,-194,-785,-557,-520,-199,-972
84055,166,414,182,-181,-178,382,-288,71,-58,-210,-403,-153,148,-75,-192,-41,-412,119,262,-308,-393,-116,-205,162,14,-77,-181,-714,-528,-470,-130,-728
84056,173,431,113,-195,-172,392,-183,46,-79,-204,-390,-243,30,-61,-168,28,-407,-86,294,-264,-348,-115,-75,187,55,-39,-82,-630,-423,-318,25,-591
84057,183,439,78,-187,-161,318,-85,56,-51,-212,-387,-272,65,-19,-132,-52,-446,-41,306,-237,-326,-94,-67,232,74,8,-18,-683,-413,-308,26,-583
84058,67,504,63,-172,-187,321,-107,-13,-57,-219,-404,-269,33,-62,-177,-253,-452,-84,272,-252,-357,-40,-189,181,67,-3,28,-806,-476,-342,11,-554
84059,33,586,65,-191,-208,321,-205,-76,-93,-228,-434,-112,18,-82,-210,-308,-346,-133,258,-275,-351,-39,-249,129,54,-29,34,-823,-501,-363,26,-484
84060,186,628,131,-148,-175,336,-178,-8,-72,-224,-375,-217,81,-59,-206,-328,-380,-87,275,-299,-358,-133,-239,174,53,-26,34,-769,-463,-347,47,-530
84061,189,536,98,-132,-208,362,-213,-28,-69,-212,-399,-190,75,-62,-193,-274,-382,-61,271,-286,-362,-107,-193,223,58,-33,37,-680,-424,-315,53,-564
84062,85,490,-64,-211,-189,358,-247,-114,-59,-200,-384,-54,83,-57,-169,-94,-556,-47,285,-250,-312,6,-215,244,104,17,85,-658,-390,-267,137,-457
84063,23,457,-10,-190,-193,367,-228,-39,-48,-201,-379,-144,154,-62,-169,47,-476,-70,300,-267,-310,-117,-272,251,82,26,111,-714,-387,-243,167,-380
84064,66,470,82,-160,-184,415,-210,9,-43,-185,-382,-139,185,-48,-169,128,-294,-39,325,-266,-299,-183,-178,286,108,36,150,-405,-295,-176,203,-360
84065,123,540,58,-114,-167,352,-204,42,-66,-189,-435,-72,29,-52,-156,182,-336,-70,294,-245,-211,-23,-215,287,111,79,289,-463,-242,-121,241,-355
84066,97,508,-91,-102,-195,389,-222,-9,-61,-186,-426,-284,84,-76,-140,129,-477,-146,256,-259,-238,81,-423,191,64,35,312,-940,-383,-262,109,-524
84067,5,483,-211,-113,-214,387,-316,29,-35,-210,-466,-517,207,-94,-213,99,-520,-93,257,-314,-348,82,-416,158,42,-54,84,-994,-537,-390,39,-538
84068,34,503,-130,-136,-197,363,-325,148,-39,-233,-474,-487,144,-91,-237,94,-653,-66,245,-337,-372,-49,-408,118,1,-74,-22,-1064,-686,-493,-48,-545
84069,120,522,1,-126,-190,384,-308,178,-72,-221,-454,-453,45,-79,-210,54,-722,-59,226,-331,-317,-133,-339,145,-5,-36,-6,-1041,-658,-479,-62,-505
84070,226,559,17,-206,-173,383,-296,90,-50,-196,-422,-443,91,-80,-191,-10,-639,-25,247,-326,-367,-78,-187,213,18,-70,-78,-924,-558,-436,-16,-555
84071,203,516,17,-188,-179,423,-300,151,-43,-208,-446,-566,87,-91,-216,-159,-474,-2,254,-366,-446,-50,-141,249,2,-102,-161,-853,-512,-376,38,-539
84072,162,476,-59,-228,-190,438,-223,9,-68,-205,-398,-438,68,-77,-224,-251,-428,-22,244,-370,-453,-27,-81,269,12,-91,-160,-635,-415,-326,98,-458
84073,176,485,-141,-233,-192,449,-259,-72,-65,-204,-494,-213,61,-66,-248,-51,-509,18,271,-330,-411,33,-140,267,58,-36,-44,-492,-300,-213,203,-368
84074,253,467,17,-196,-167,419,-395,-38,-44,-202,-575,-162,72,-70,-284,236,-471,-50,297,-309,-358,78,-200,251,79,-3,109,-516,-327,-164,245,-257
84075,226,444,25,-205,-180,446,-288,-107,-58,-191,-426,-246,52,-71,-242,284,-573,-127,260,-318,-325,56,-284,218,58,0,158,-613,-382,-254,183,-254
84076,180,468,-9,-180,-164,454,-226,-87,-65,-177,-409,-133,80,-74,-205,266,-631,-114,234,-331,-353,-44,-387,153,10,-54,33,-961,-537,-406,-23,-636
84077,175,532,-59,-168,-138,409,-233,-30,-66,-176,-378,-96,89,-80,-188,22,-486,-133,217,-323,-339,-60,-407,121,-20,-84,48,-1111,-694,-514,-73,-652
84078,164,581,-53,-183,-126,448,-181,-65,-87,-157,-318,-172,-6,-85,-125,-192,-403,-190,222,-291,-275,-7,-323,138,-9,-32,141,-1013,-653,-432,13,-439
84079,188,615,-2,-183,-156,379,-163,-36,-101,-159,-336,-280,-68,-100,-157,-262,-379,-193,208,-321,-341,28,-235,131,-6,-78,49,-952,-581,-413,-30,-495
84080,282,629,-19,-156,-151,382,-202,-63,-90,-181,-359,-281,-32,-95,-190,-265,-456,-186,209,-354,-392,36,-266,158,-9,-102,-52,-891,-564,-400,-1,-517
84081,264,614,-56,-215,-164,421,-231,-89,-79,-185,-358,-150,-56,-98,-170,-115,-635,-194,214,-370,-398,-55,-329,156,-32,-106,-121,-836,-549,-368,51,-457
84082,257,616,-226,-222,-158,352,-276,51,-65,-190,-341,1,35,-102,-184,44,-673,-148,243,-324,-364,-96,-263,197,5,-66,-87,-629,-428,-280,115,-347
84083,248,563,-239,-196,-159,329,-343,0,-57,-167,-371,-223,56,-81,-157,50,-352,-178,264,-324,-365,-58,-269,207,6,-50,-70,-594,-362,-244,150,-233
84084,159,471,-63,-167,-170,354,-391,-36,-58,-188,-393,-360,39,-68,-209,85,-393,-74,277,-330,-392,-14,-241,241,17,-40,-26,-550,-338,-227,219,-255
84085,61,472,-20,-169,-160,350,-307,46,-46,-200,-434,-382,97,-82,-225,99,-445,68,246,-306,-391,-71,-261,258,25,-51,-45,-609,-325,-186,258,-450
84086,10,456,-4,-55,-179,284,-289,31,-68,-204,-464,-311,70,-92,-229,78,-374,-91,233,-316,-361,0,-247,221,50,13,111,-796,-375,-105,462,-128
84087,117,519,-168,-60,-163,335,-200,12,-41,-174,-404,-46,19,-68,-193,65,-326,-179,257,-299,-325,141,-195,212,49,40,150,-979,-458,-207,364,-125
84088,170,524,-358,-115,-179,324,-214,23,-62,-198,-449,77,21,-91,-231,-4,-430,-154,234,-343,-425,29,-287,148,-17,-70,-13,-979,-544,-435,-19,-641
84089,238,484,-190,-114,-173,356,-232,57,-65,-225,-484,69,5,-100,-261,-33,-513,-222,208,-378,-417,-85,-396,101,-58,-110,-34,-1004,-621,-531,-139,-658
84090,237,466,-140,-131,-148,411,-232,70,-45,-206,-446,-88,54,-103,-217,-65,-589,-201,219,-348,-351,-77,-459,121,-23,-67,127,-1074,-641,-425,53,-343
84091,84,505,-73,-164,-148,431,-234,98,-35,-182,-415,-325,98,-89,-206,7,-588,-98,249,-328,-353,-251,-377,167,-22,-62,133,-935,-590,-447,-38,-738
84092,11,499,-84,-146,-155,346,-199,92,-36,-200,-393,-763,98,-91,-217,-16,-468,-62,230,-368,-407,-211,-340,184,-19,-96,-48,-785,-544,-510,-197,-1126
84093,147,485,-47,-133,-171,325,-245,88,-26,-217,-448,-1093,176,-96,-248,-6,-508,-32,243,-359,-405,-4,-386,194,-5,-106,-144,-681,-498,-475,-184,-923
84094,249,579,18,-91,-168,341,-209,73,-18,-204,-395,-764,210,-80,-229,-35,-414,11,289,-343,-408,-21,-241,241,41,-62,-150,-595,-363,-307,49,-554
84095,259,629,77,-102,-182,381,-206,33,-70,-194,-382,-557,150,-82,-232,-49,-323,-7,309,-340,-433,104,-92,264,50,-43,-136,-552,-320,-230,129,-418
84096,284,667,63,-115,-144,414,-267,61,-80,-179,-356,-408,50,-102,-229,9,-312,-73,283,-335,-411,133,-179,253,37,-37,-112,-685,-395,-280,95,-462
84097,291,693,66,-97,-161,405,-245,-42,-89,-187,-305,-168,32,-120,-216,-36,-287,-109,265,-345,-409,43,-239,226,24,-28,-81,-765,-473,-356,80,-474
84098,325,679,-9,-125,-168,415,-188,-105,-70,-171,-297,11,93,-100,-210,-106,-327,-98,260,-344,-389,19,-237,232,12,-32,-18,-901,-503,-347,95,-464
84099,304,554,-100,-96,-179,384,-218,-7,-57,-205,-375,-51,184,-122,-228,-212,-489,-22,253,-369,-401,-104,-299,242,6,-66,-30,-934,-531,-371,41,-548
84100,318,510,-124,-38,-151,472,-251,154,-74,-190,-324,-154,39,-122,-213,-355,-616,-79,195,-369,-441,-37,-233,230,-16,-89,-65,-881,-525,-427,-49,-665
84101,286,444,-93,-86,-149,466,-295,89,-51,-199,-363,-213,19,-119,-221,-213,-671,-53,207,-379,-420,-124,-150,246,-23,-82,-67,-853,-524,-443,-64,-693
84102,195,415,-18,-151,-175,450,-349,24,-46,-191,-343,-267,90,-115,-219,-168,-561,-83,209,-378,-417,-170,-126,252,-14,-74,-11,-832,-500,-386,15,-545
84103,181,457,-52,-182,-169,412,-409,-38,-52,-194,-310,-148,72,-99,-173,-32,-433,-184,192,-352,-359,-115,-131,242,7,-34,86,-808,-480,-326,130,-296
84104,47,455,-167,-171,-198,438,-352,-56,-39,-180,-346,-115,100,-81,-146,34,-385,-166,217,-319,-321,-91,-126,273,30,7,89,-753,-449,-285,195,-211
84105,50,490,-104,-125,-209,416,-235,-34,-47,-173,-410,-135,57,-77,-186,-281,-421,-187,213,-330,-393,-20,-214,239,11,-43,-73,-912,-455,-328,109,-460
84106,100,581,-128,-167,-169,493,-89,-55,-88,-145,-249,-103,-33,-77,-158,-318,-409,-191,224,-312,-397,19,-262,238,30,-31,-68,-694,-384,-297,73,-609
84107,164,607,-124,-167,-161,462,-93,-26,-63,-154,-264,-109,-4,-69,-164,-216,-477,-152,241,-318,-388,-37,-250,270,45,-30,-68,-671,-353,-280,89,-550
84108,206,565,-21,-162,-179,271,-333,-1,-46,-218,-471,-57,40,-70,-237,8,-554,-149,237,-338,-402,-99,-245,243,33,-47,-86,-809,-452,-339,74,-527
84109,201,526,-18,-138,-181,313,-266,-1,-57,-220,-457,16,44,-70,-235,150,-584,-124,257,-328,-390,-149,-198,211,23,-74,-76,-774,-522,-397,24,-604
84110,219,529,28,-65,-181,346,-266,30,-57,-210,-460,-253,58,-80,-217,98,-766,-144,243,-331,-435,-228,-303,201,14,-101,-158,-754,-523,-401,6,-700
84111,168,501,-159,-73,-187,331,-318,72,-39,-203,-521,-355,105,-66,-216,175,-722,-148,277,-288,-376,-207,-312,238,39,-22,-38,-738,-434,-302,129,-634
84112,161,439,-309,-94,-215,317,-427,71,-12,-226,-583,-449,163,-79,-275,328,-559,-57,301,-293,-327,-163,-192,297,72,-3,90,-599,-394,-270,124,-595
84113,184,417,-302,-73,-222,308,-433,1,-23,-232,-458,-291,140,-77,-238,248,-373,126,286,-290,-344,-170,-206,285,58,-32,123,-781,-452,-355,3,-621
84114,135,503,-238,-37,-189,260,-343,90,-50,-216,-425,-535,21,-86,-206,212,-356,-139,224,-281,-334,-75,-266,217,52,-21,138,-903,-506,-355,71,-494
84115,92,578,-119,-56,-133,276,-257,202,-36,-193,-384,-718,54,-81,-181,69,-350,-211,243,-283,-309,35,-226,223,73,2,160,-927,-514,-374,47,-505
84116,55,520,-53,-140,-150,335,-257,168,-34,-176,-346,-396,111,-61,-188,-80,-423,-117,255,-294,-325,7,-270,215,62,9,89,-979,-512,-365,54,-581
84117,84,450,-90,-101,-187,341,-249,107,-42,-198,-336,-393,69,-86,-198,-119,-415,-149,233,-306,-378,-113,-328,196,37,5,-10,-895,-515,-357,86,-527
84118,159,354,-114,-73,-192,325,-239,70,-47,-206,-330,-611,75,-71,-192,-90,-442,-113,260,-320,-406,-158,-294,229,61,-3,-89,-777,-429,-276,157,-464
84119,222,300,-173,-49,-186,327,-292,71,-31,-205,-390,-647,100,-85,-221,-112,-425,-53,267,-315,-432,-131,-186,267,75,-25,-102,-628,-367,-204,201,-421
84120,206,340,-31,-54,-196,364,-303,-41,-30,-204,-384,-167,90,-83,-203,-139,-293,-45,281,-302,-474,-93,-9,322,87,-30,-144,-358,-228,-185,141,-491
84121,179,415,72,-101,-170,348,-319,-107,-63,-194,-367,192,53,-61,-176,-237,-154,-50,316,-261,-448,0,132,394,153,13,-102,57,16,29,320,-354
84122,204,518,70,-49,-139,336,-320,-35,-57,-192,-393,345,31,-42,-179,-183,-121,-89,325,-267,-387,-9,105,387,162,49,-49,0,-19,40,395,-232
84123,238,573,78,40,-134,362,-341,126,-31,-213,-461,170,82,-54,-218,-202,-343,-135,259,-317,-430,-24,-107,280,88,4,-76,-663,-279,-159,245,-317
84124,142,560,-38,-4,-158,387,-369,159,-29,-208,-523,-313,96,-86,-248,-124,-505,-165,222,-356,-477,-49,-250,176,5,-63,-145,-1098,-470,-338,39,-570
84125,64,586,-93,-83,-199,415,-407,58,-50,-204,-485,-561,84,-105,-242,1,-572,-190,222,-351,-441,-21,-299,164,0,-50,-35,-1121,-549,-377,76,-393
84126,149,582,26,-71,-179,366,-358,-45,-30,-208,-436,-418,113,-86,-209,21,-698,-157,255,-327,-421,-47,-263,222,49,-13,44,-961,-442,-258,205,-212
84127,135,523,-63,-86,-177,329,-392,-42,-16,-212,-495,-272,239,-84,-225,-32,-560,-82,279,-305,-445,-90,-201,256,53,-36,35,-888,-395,-187,235,-177
84128,124,514,-148,-135,-165,393,-411,-97,-14,-206,-546,-189,228,-86,-214,-13,-461,-84,270,-318,-413,-100,-200,218,50,-40,-2,-819,-414,-252,165,-218
84129,199,558,-16,-121,-145,412,-315,-14,-70,-205,-516,-65,-16,-96,-233,-16,-461,-232,216,-316,-417,-104,-216,188,27,-43,-43,-704,-371,-260,101,-438
84130,235,564,20,-75,-137,393,-304,107,-119,-213,-474,-78,-163,-119,-228,10,-500,-268,169,-337,-415,-212,-213,201,21,-57,-90,-489,-279,-242,52,-730
84131,133,584,-37,-63,-148,382,-395,49,-84,-216,-444,-245,-3,-109,-188,-270,-560,-211,207,-338,-430,-165,-162,217,2,-39,-63,-518,-294,-247,73,-577
84132,65,582,-70,-33,-179,444,-384,-22,-90,-201,-438,-516,12,-134,-212,-460,-600,-274,184,-382,-469,-194,-265,157,-37,-83,-109,-839,-439,-381,-11,-644
84133,2,517,-187,-42,-183,328,-268,46,-68,-209,-488,-625,76,-99,-215,-399,-602,-193,203,-349,-443,-222,-298,178,-3,-54,-94,-844,-492,-420,12,-645
84134,104,534,-128,-59,-177,333,-286,37,-41,-187,-420,-553,89,-76,-156,-404,-777,-199,241,-289,-397,-41,-413,189,47,16,40,-950,-408,-300,182,-349
84135,192,526,-71,-80,-165,412,-248,21,-49,-171,-340,-399,49,-76,-136,-240,-653,-230,243,-295,-361,12,-367,159,58,42,108,-875,-417,-240,288,-43
84136,280,505,-98,-95,-149,357,-337,39,-63,-180,-411,-424,45,-64,-144,-49,-457,-246,225,-297,-335,-9,-363,173,78,66,191,-908,-412,-176,407,137
84137,324,576,-79,-47,-154,299,-369,80,-42,-195,-555,-456,41,-52,-190,138,-505,-273,216,-300,-333,11,-422,167,71,42,213,-949,-446,-233,290,-75
84138,310,572,-113,-48,-176,289,-348,81,-56,-215,-536,-459,25,-84,-216,181,-490,-297,209,-336,-347,-121,-388,158,37,-2,128,-941,-520,-330,146,-363
84139,261,570,-43,-110,-207,281,-366,4,-94,-243,-523,-516,12,-116,-245,12,-451,-297,182,-371,-483,-223,-352,126,-26,-93,-109,-934,-559,-439,-13,-707
84140,282,625,32,-104,-175,275,-306,-19,-87,-224,-452,-379,26,-113,-258,-155,-469,-265,152,-402,-560,-201,-337,119,-50,-176,-290,-1024,-670,-630,-332,-1227
84141,261,633,-12,-48,-157,323,-368,4,-42,-200,-415,-204,80,-70,-219,-146,-480,-209,191,-362,-455,-110,-295,145,2,-88,-59,-1063,-602,-540,-159,-934
84142,237,601,3,-43,-173,369,-366,22,-49,-201,-391,-127,79,-70,-177,-2,-628,-243,230,-314,-341,-165,-348,148,9,4,162,-1043,-533,-456,-67,-751
84143,206,617,1,-116,-178,377,-313,25,-64,-195,-354,-98,90,-78,-163,86,-602,-230,230,-290,-311,-218,-364,164,38,48,267,-883,-496,-421,-7,-723
84144,202,631,6,-131,-148,428,-315,86,-32,-153,-365,-84,114,-43,-128,82,-389,-225,285,-268,-309,-110,-331,226,90,58,182,-603,-391,-285,102,-701
84145,150,546,28,-65,-177,411,-327,80,-29,-190,-442,-137,78,-62,-169,-11,-420,-249,294,-298,-391,-56,-376,212,73,10,-76,-572,-368,-228,187,-533
84146,32,471,-68,-77,-188,390,-371,17,-50,-187,-482,-155,75,-55,-214,-30,-437,-239,309,-286,-437,-67,-353,211,94,11,-111,-522,-356,-187,309,-255
84147,18,490,-164,4,-185,423,-437,104,-25,-189,-509,-20,90,-23,-185,-49,-579,-235,330,-259,-380,-63,-359,250,121,64,-45,-712,-303,-139,374,-206
84148,65,391,-289,11,-199,403,-439,100,-12,-194,-509,-27,99,-36,-202,-158,-650,-222,317,-282,-411,-133,-355,255,107,19,-88,-876,-349,-179,231,-427
84149,132,300,-184,-51,-185,366,-396,21,-2,-213,-495,-261,143,-76,-245,-300,-635,-115,290,-329,-498,-239,-399,157,40,-113,-240,-1046,-526,-443,-109,-887
84150,108,309,-176,-153,-181,398,-415,4,-3,-217,-488,-153,167,-54,-230,-198,-712,-57,282,-331,-483,-218,-452,177,19,-100,-162,-1093,-567,-485,-118,-799
84151,101,418,-31,-92,-180,352,-425,-4,-13,-211,-470,-157,58,-52,-227,-115,-600,-273,241,-294,-408,-230,-330,227,51,-17,-10,-827,-490,-401,29,-664
84152,106,497,18,-87,-174,317,-377,143,-28,-208,-492,-636,57,-55,-213,-27,-633,-217,272,-276,-372,-294,-381,237,76,14,0,-929,-438,-297,166,-551
84153,112,492,1,-97,-178,320,-372,82,-12,-190,-494,-948,150,-57,-182,30,-704,-149,303,-265,-393,-199,-375,248,92,3,1,-937,-437,-304,146,-511
84154,115,476,64,-88,-171,312,-400,-35,-11,-192,-495,-1069,166,-64,-216,15,-710,-175,305,-284,-419,-163,-303,295,81,-6,-49,-956,-420,-340,64,-541
84155,145,546,19,-134,-178,298,-382,-11,-17,-213,-545,-925,141,-58,-227,-58,-774,-221,299,-288,-430,-282,-275,273,75,8,-69,-946,-379,-273,170,-387
84156,138,512,-59,-143,-187,310,-394,-55,-31,-229,-593,-616,138,-72,-276,50,-740,-237,279,-303,-443,-296,-314,245,47,-24,-119,-910,-418,-339,75,-541
84157,84,464,-141,-72,-156,356,-377,-46,-64,-246,-624,-569,47,-105,-335,137,-552,-329,223,-354,-480,-202,-402,186,-17,-67,-152,-999,-542,-465,-60,-784
84158,71,453,-259,-7,-148,363,-407,124,-51,-210,-573,-438,-8,-110,-297,11,-571,-359,187,-349,-468,-172,-429,178,-16,-58,-80,-1072,-586,-443,52,-599
84159,126,434,-170,-1,-153,302,-450,31,-41,-217,-547,-135,13,-102,-308,-78,-585,-324,211,-343,-484,-198,-371,219,9,-34,-58,-854,-444,-332,105,-572
84160,158,443,-89,-88,-163,279,-418,-80,-39,-234,-507,-76,96,-104,-275,-136,-510,-288,237,-355,-486,-215,-302,240,29,-47,-64,-674,-373,-295,64,-721
84161,170,471,-80,-152,-169,309,-456,-144,-60,-234,-467,-111,124,-76,-232,-301,-414,-285,247,-316,-448,-189,-284,250,38,-39,-85,-569,-335,-281,67,-653
84162,163,488,-31,-165,-150,337,-415,-172,-67,-201,-426,-100,79,-56,-219,-366,-444,-314,245,-323,-455,-84,-349,195,32,-14,-76,-707,-415,-343,70,-527
84163,100,504,-16,-136,-163,413,-379,-28,-76,-170,-424,-104,-63,-64,-191,-234,-497,-347,195,-312,-415,-58,-454,128,20,23,42,-982,-511,-345,166,-389
84164,86,512,-4,-41,-183,348,-470,74,-46,-203,-489,-172,-80,-75,-211,-93,-575,-318,160,-324,-440,-128,-508,93,-4,-6,40,-1073,-591,-393,137,-452
84165,75,484,-115,-34,-194,320,-481,48,-26,-202,-527,-316,45,-76,-226,-17,-526,-259,204,-341,-460,-273,-442,147,6,-38,-57,-870,-535,-358,67,-677
84166,17,461,-142,-32,-182,307,-463,27,-25,-207,-526,-367,42,-71,-244,-31,-473,-280,206,-341,-437,-212,-432,144,8,-18,-18,-924,-508,-345,41,-718
84167,94,504,-30,-18,-183,280,-477,93,-13,-208,-600,-605,57,-71,-235,-69,-585,-351,174,-337,-400,-143,-501,102,-14,14,172,-1122,-606,-407,50,-661
84168,91,558,-14,-78,-179,304,-511,17,-56,-202,-505,-492,15,-77,-211,-268,-625,-361,182,-319,-346,-250,-413,119,-7,21,284,-1013,-591,-384,103,-627
84169,50,513,-54,-139,-189,296,-485,-46,-66,-199,-460,-234,18,-90,-224,-264,-577,-251,194,-330,-388,-420,-245,179,-9,-26,177,-820,-519,-382,95,-601
84170,62,490,-34,-125,-185,286,-288,9,-44,-200,-443,-151,74,-92,-232,-129,-489,-200,206,-348,-422,-315,-202,210,-6,-85,16,-788,-519,-411,86,-626
84171,80,508,-60,-117,-181,304,-295,-22,-43,-183,-435,-156,83,-65,-205,65,-475,-179,248,-329,-397,-316,-210,225,28,-66,-113,-845,-476,-352,159,-526
84172,73,494,-85,-107,-211,222,-445,-22,-55,-214,-564,-310,63,-59,-248,35,-586,-192,271,-344,-447,-260,-244,221,17,-44,-142,-974,-470,-342,160,-411
84173,-26,426,-148,-156,-200,262,-397,-74,-80,-231,-571,-424,31,-68,-213,-27,-662,-216,259,-334,-425,-215,-346,197,30,-14,-52,-978,-469,-290,257,-294
84174,-79,407,-152,-180,-184,336,-497,-151,-78,-198,-531,-330,37,-57,-195,-58,-765,-199,263,-289,-366,-122,-360,226,82,49,84,-904,-374,-158,436,35
84175,17,362,-117,-144,-194,392,-473,-91,-72,-197,-505,-324,40,-79,-220,-173,-686,-243,254,-310,-432,-128,-374,216,49,-39,-67,-769,-349,-244,267,-270
84176,106,301,-139,-78,-194,364,-409,-79,-72,-226,-502,-240,50,-103,-275,-269,-538,-246,235,-372,-547,-190,-308,206,3,-149,-294,-771,-440,-432,-51,-861
84177,163,395,-200,-26,-147,417,-377,1,-40,-173,-432,-177,75,-75,-229,-258,-617,-237,259,-358,-518,-134,-325,210,18,-108,-201,-959,-481,-448,-34,-824
84178,162,453,-211,-53,-150,420,-414,-27,-44,-188,-493,-185,69,-90,-211,-216,-494,-249,261,-352,-495,-198,-305,193,6,-120,-143,-950,-549,-520,-84,-797
84179,121,437,-234,-136,-182,497,-386,-118,-57,-173,-451,-120,65,-76,-216,-198,-471,-185,268,-336,-442,-174,-303,232,18,-80,-108,-878,-494,-468,-45,-719
84180,175,441,-78,-82,-168,440,-445,-34,-37,-178,-476,-241,105,-61,-222,-174,-393,-214,292,-313,-425,-105,-273,275,47,-31,-42,-873,-408,-371,61,-602
84181,111,362,-43,-63,-159,382,-461,33,-31,-176,-499,-220,125,-74,-234,-128,-439,-204,296,-310,-437,-155,-212,314,63,-37,-85,-850,-428,-379,51,-664
84182,85,393,-26,-86,-162,393,-434,16,-19,-184,-446,-270,118,-46,-223,-75,-477,-146,324,-321,-420,-134,-224,337,66,-10,-65,-820,-370,-298,116,-536
84183,143,486,79,-49,-158,417,-457,-43,-16,-177,-445,-694,144,-39,-199,-136,-477,-126,332,-297,-401,-161,-180,368,97,35,14,-666,-269,-158,255,-325
84184,111,570,38,-59,-153,423,-421,-16,-6,-155,-471,-927,213,-24,-202,-101,-574,-55,358,-258,-369,-156,-197,396,139,50,109,-666,-187,-93,298,-271
84185,49,508,-66,-101,-183,368,-476,14,-14,-183,-522,-863,216,-42,-213,-126,-543,-28,356,-266,-396,-182,-57,407,118,-5,22,-384,-175,-159,148,-663
84186,56,504,-50,-70,-171,324,-467,109,-36,-189,-537,-483,137,-48,-211,-55,-435,-83,301,-290,-417,-208,-38,393,100,-18,19,-399,-225,-249,104,-698
84187,59,535,-38,-54,-170,394,-407,74,-33,-171,-519,-286,90,-37,-172,168,-335,-199,276,-251,-336,-319,-269,326,101,34,106,-831,-317,-234,220,-483
84188,62,572,9,-162,-204,439,-389,-40,-68,-179,-448,-199,19,-50,-145,260,-285,-267,264,-228,-245,-448,-336,266,94,95,179,-777,-381,-212,265,-437
84189,107,591,74,-123,-207,318,-399,-37,-50,-193,-450,-167,55,-58,-145,202,-419,-246,263,-228,-222,-92,-339,234,97,129,264,-919,-426,-249,265,-325
84190,114,559,88,-105,-179,270,-361,-8,-18,-192,-455,-226,134,-36,-150,-44,-452,-214,268,-241,-295,48,-339,203,84,78,194,-931,-418,-284,203,-414
84191,134,569,84,-147,-178,285,-312,-65,-57,-181,-396,-215,61,-63,-159,-184,-470,-262,207,-281,-354,-26,-384,160,25,3,48,-1002,-581,-421,89,-564
84192,170,616,170,-133,-193,297,-302,34,-100,-170,-360,-285,-32,-70,-148,-222,-446,-251,186,-263,-329,13,-320,182,54,58,165,-1016,-543,-357,216,-396
84193,161,604,172,-143,-189,332,-319,25,-85,-157,-403,-447,36,-59,-136,-189,-439,-136,206,-269,-348,29,-291,230,69,67,239,-915,-514,-328,263,-248
84194,106,607,77,-98,-203,366,-325,32,-43,-166,-402,-549,112,-52,-153,-38,-484,-34,250,-289,-384,39,-338,238,55,25,106,-952,-503,-414,58,-487
84195,34,590,-87,-61,-197,385,-304,15,-24,-152,-414,-495,101,-24,-167,119,-356,-232,269,-261,-360,89,-331,255,84,61,28,-717,-396,-329,136,-519
84196,42,595,-75,-44,-185,337,-292,-33,-19,-160,-449,-304,132,-27,-146,158,-269,-212,270,-237,-365,102,-308,304,81,57,28,-598,-358,-260,200,-461
84197,39,537,-17,-46,-164,315,-299,-45,-11,-188,-552,45,202,-36,-194,287,-324,-119,298,-224,-335,122,-252,343,104,78,102,-659,-314,-223,236,-429
84198,40,550,118,-31,-185,344,-286,6,-36,-184,-512,100,91,-52,-171,89,-351,-155,287,-233,-351,83,-287,304,91,73,45,-629,-326,-273,152,-599
84199,10,569,155,-23,-206,300,-413,51,-52,-198,-567,28,26,-62,-185,38,-364,-156,278,-269,-387,75,-255,305,84,55,-8,-697,-341,-279,142,-432
84200,42,550,145,-33,-176,312,-378,52,-23,-181,-522,-430,131,-36,-170,99,-408,-194,308,-248,-373,27,-246,312,113,65,36,-678,-367,-281,202,-179
84201,95,542,170,-46,-177,342,-336,82,-36,-172,-446,-775,61,-19,-141,-20,-448,-200,321,-229,-337,159,-275,312,110,87,131,-731,-346,-231,321,70
84202,173,579,150,-73,-179,382,-415,118,-23,-190,-493,-930,71,-33,-168,-85,-479,-180,281,-258,-334,151,-325,284,77,51,83,-961,-468,-313,171,-211
