,Fp1,Fp2,F7,F3,Fz,F4,F8,FC5,FC1,FC2,FC6,T7,C3,Cz,C4,T8,TP9,CP5,CP1,CP2,CP6,TP10,P7,P3,Pz,P4,P8,PO9,O1,Oz,O2,PO10
125263,50,252,391,-32,183,823,525,125,-111,143,480,181,19,-209,202,171,321,168,-12,136,-94,285,296,286,48,93,284,89,115,-186,28,173
125264,13,248,367,-45,179,833,512,133,-113,162,456,171,32,-181,201,168,304,177,2,149,-102,297,317,312,69,110,299,82,125,-190,39,184
125265,-4,220,325,-55,170,834,492,118,-98,154,461,132,4,-207,210,167,240,177,-5,144,-103,252,333,311,61,107,282,51,95,-231,23,168
125266,-16,215,225,-49,165,803,460,189,-108,135,442,115,4,-206,197,128,248,161,-27,134,-120,328,306,302,54,90,274,26,66,-244,12,146
125267,-89,278,182,-23,156,790,374,278,-101,101,390,71,3,-202,140,60,239,129,-47,83,-202,203,255,245,-1,43,181,2,23,-288,-49,50
125268,-108,213,173,-38,146,743,319,180,-109,87,368,36,-27,-232,111,41,248,82,-79,52,-233,119,225,232,-25,23,145,-2,21,-294,-61,17
125269,-92,71,182,10,159,709,358,130,-118,95,373,2,-67,-228,115,24,171,98,-98,53,-247,76,231,222,-15,6,146,-6,19,-288,-64,-17
125270,-88,46,164,46,170,701,367,179,-100,94,362,0,-53,-226,123,38,120,99,-104,51,-245,-58,242,215,-26,18,114,-8,30,-295,-79,-85
125271,-70,190,231,31,163,733,411,259,-88,107,369,14,-19,-209,154,52,220,74,-78,78,-206,101,204,211,-12,33,139,-37,15,-301,-79,22
125272,-41,267,283,-13,149,748,401,242,-107,103,367,9,-47,-226,160,-5,145,93,-66,86,-222,138,229,199,-10,35,128,-85,-26,-331,-99,-8
125273,-3,318,305,15,171,794,441,251,-94,122,369,52,-7,-219,177,2,162,124,-70,87,-218,105,278,232,-2,41,120,-31,0,-318,-84,-8
125274,-41,309,295,4,177,774,471,77,-80,106,400,121,9,-200,176,51,229,173,-35,126,-190,128,310,265,20,70,150,18,54,-265,-39,32
125275,-32,235,247,29,154,733,464,85,-82,105,402,146,36,-202,185,64,248,203,-10,130,-193,144,344,311,67,84,169,20,87,-219,-3,45
125276,56,192,288,53,173,762,503,387,-33,128,424,75,70,-199,188,48,268,205,-3,145,-172,155,351,313,64,84,181,5,103,-200,4,89
125277,1,162,136,126,165,703,495,473,-29,117,402,-39,52,-214,170,79,305,222,2,128,-161,138,356,314,61,83,181,64,121,-174,12,53
125278,-17,181,71,196,169,677,418,580,-39,109,373,-319,62,-243,180,148,318,199,-10,126,-158,45,307,305,66,69,180,21,106,-204,-23,22
125279,40,224,220,87,165,727,416,399,-51,128,387,-29,49,-210,179,159,334,171,-1,138,-140,47,311,309,71,114,188,-40,109,-210,-12,51
125280,42,242,212,33,157,752,414,235,-66,120,360,177,51,-201,168,68,209,200,5,134,-158,93,345,325,69,100,189,-36,122,-188,-7,33
125281,-2,217,145,24,154,719,382,282,-72,107,386,129,60,-206,166,-84,172,212,-4,127,-169,38,357,330,98,84,145,24,138,-186,-2,-11
125282,-65,241,288,-12,158,771,358,224,-72,151,422,141,48,-182,186,-132,250,197,15,151,-165,93,346,346,97,115,144,45,159,-160,14,11
125283,-66,247,362,-48,142,820,356,116,-83,124,444,124,6,-191,164,-17,239,117,-16,136,-203,98,273,302,74,69,94,-39,113,-202,-2,-3
125284,-31,198,326,-52,132,810,344,80,-65,115,410,160,18,-179,166,-8,203,165,-7,140,-216,53,326,311,69,64,50,19,145,-174,2,-27
125285,4,29,376,-42,156,771,300,40,-88,115,291,139,-11,-199,141,-49,143,173,-16,97,-258,6,306,307,84,47,77,0,122,-176,-24,-24
125286,70,-18,370,-17,172,797,340,104,-93,102,255,109,-1,-201,117,-41,171,168,-34,86,-275,-90,256,300,59,39,67,-33,93,-211,-37,-1
125287,-3,45,337,-11,168,826,327,198,-79,98,271,86,6,-204,126,-68,218,155,-50,95,-270,12,248,295,49,33,56,-15,89,-215,-24,20
125288,-90,88,185,7,153,784,307,287,-70,68,266,0,-7,-204,101,-107,142,116,-52,89,-283,77,166,267,35,29,38,-154,53,-253,-42,-28
125289,-104,102,-57,-6,120,739,373,329,-87,80,266,11,12,-215,109,-96,79,160,-31,77,-277,-28,223,286,54,35,42,-146,66,-242,-46,-77
125290,-102,102,-1,-49,105,737,332,279,-85,86,272,77,14,-214,136,-31,127,195,-5,120,-240,17,300,339,82,83,87,12,135,-174,15,-23
125291,-196,191,143,-14,127,769,308,64,-76,103,305,157,11,-194,164,53,181,209,23,154,-194,34,340,365,124,115,135,13,159,-159,58,6
125292,-190,187,158,0,122,755,349,227,-83,90,327,72,32,-196,175,36,151,196,17,150,-197,-117,340,359,107,115,63,-78,140,-154,39,-7
125293,-150,165,80,9,125,709,305,363,-72,90,309,63,31,-181,166,-29,178,219,15,148,-195,-94,371,359,118,102,25,-18,166,-125,77,6
125294,-139,116,166,-29,94,687,284,257,-79,102,262,28,17,-176,160,-115,185,205,13,138,-222,-14,369,359,125,93,45,24,175,-119,68,0
125295,-54,52,238,-69,99,704,331,233,-81,86,273,60,28,-187,155,-114,210,193,26,158,-233,-29,336,353,144,84,52,-5,156,-128,59,13
125296,-9,47,274,-62,110,672,323,215,-81,95,263,98,42,-182,147,-30,196,200,8,158,-229,11,360,332,116,94,38,-22,100,-194,30,-5
125297,-18,44,313,-69,124,665,271,185,-88,105,336,123,28,-177,154,65,210,193,-4,144,-228,96,324,329,99,83,74,-21,95,-196,36,-4
125298,-43,151,369,-75,133,644,320,222,-78,108,346,104,36,-169,159,122,201,206,15,139,-216,73,342,354,115,101,141,45,169,-112,80,46
125299,-139,263,257,11,116,600,366,325,-59,92,341,91,71,-170,165,62,183,241,14,140,-218,177,352,371,114,118,158,86,212,-70,113,71
125300,-79,303,209,-5,114,623,337,327,-55,77,364,9,53,-187,161,-12,228,206,12,151,-205,172,313,359,124,130,162,97,242,-41,153,83
125301,-84,216,191,34,110,695,382,344,-58,95,370,64,51,-177,171,-159,233,202,19,172,-187,160,367,365,141,153,183,122,259,-15,165,91
125302,-38,183,294,-27,112,709,411,193,-90,98,341,66,27,-174,155,-125,266,214,6,152,-224,149,408,378,134,154,187,99,256,-64,129,85
125303,-47,160,394,-64,114,710,417,78,-103,117,333,92,30,-168,157,29,229,253,28,150,-195,112,412,389,143,155,186,52,251,-75,141,96
125304,-50,89,319,-80,102,657,366,110,-103,91,343,145,22,-169,137,26,227,247,29,143,-191,74,389,385,128,139,188,91,282,-28,167,152
125305,-31,49,361,-125,89,690,303,153,-112,108,318,175,11,-174,139,-11,263,227,13,140,-196,233,367,392,120,143,233,136,261,-73,196,234
125306,-8,86,411,-133,94,737,360,175,-117,131,303,193,15,-174,133,12,285,216,13,116,-191,187,362,369,116,143,222,140,246,-53,180,172
125307,-13,93,390,-139,99,755,347,222,-123,102,309,177,13,-179,144,29,313,215,9,122,-180,186,353,351,120,159,236,100,242,-73,160,148
125308,-1,160,371,-66,118,756,334,339,-87,101,345,191,65,-150,175,54,383,265,34,156,-161,195,384,399,139,178,282,143,261,-50,189,164
125309,-44,222,182,-21,115,695,393,305,-81,99,388,182,65,-148,179,71,434,242,31,157,-134,185,364,386,137,191,286,147,256,-64,164,132
125310,-48,217,77,20,118,718,391,332,-56,121,407,172,63,-146,189,92,409,257,25,172,-108,191,370,374,141,187,282,90,232,-112,134,65
125311,-60,142,178,64,130,706,413,430,-32,125,356,25,102,-148,200,126,361,333,47,179,-104,211,406,412,139,181,273,98,249,-98,118,85
125312,-14,165,202,82,143,748,405,433,-43,120,365,-55,99,-154,198,141,333,347,45,170,-94,148,433,409,119,167,294,114,247,-79,137,74
125313,-75,213,171,54,154,748,366,360,-57,78,376,130,80,-167,189,139,366,279,19,166,-92,143,422,393,119,172,299,127,250,-53,148,86
125314,-116,103,277,33,120,684,364,280,-75,47,345,236,65,-175,172,87,386,222,12,163,-139,190,403,365,123,179,229,120,236,-55,147,117
125315,-21,43,423,8,136,691,391,206,-75,78,362,304,71,-146,169,52,391,258,31,183,-130,206,434,390,158,201,264,132,277,-38,182,157
125316,5,83,400,-55,130,698,386,159,-80,80,328,259,29,-167,144,19,330,258,-2,164,-147,136,415,387,140,176,264,122,246,-72,160,120
125317,29,142,415,-45,143,688,413,167,-71,92,337,258,42,-172,168,58,327,266,21,186,-137,104,419,381,157,192,250,108,237,-81,163,124
125318,-10,191,320,-93,141,723,404,23,-81,114,353,273,47,-142,203,83,342,284,56,196,-112,154,421,420,196,220,279,143,267,-14,229,224
125319,-68,166,176,-62,135,808,334,78,-87,90,338,254,49,-128,196,64,332,300,67,186,-123,278,436,412,183,229,278,132,264,-17,219,220
125320,-106,146,211,-1,130,853,313,349,-92,109,363,148,40,-141,187,67,360,223,29,175,-127,184,379,388,154,207,247,115,241,-35,162,209
125321,-108,88,279,3,151,736,422,315,-86,136,470,154,37,-144,210,100,384,211,29,194,-82,138,369,387,170,213,274,157,261,-27,196,170
125322,-119,75,278,19,149,719,408,256,-106,120,507,143,31,-156,214,145,317,249,27,207,-84,76,410,404,178,228,249,151,266,-16,215,118
125323,-40,111,290,-71,141,781,365,229,-124,122,491,110,2,-158,202,195,329,219,10,193,-75,105,374,382,150,207,228,84,244,-31,194,115
125324,-11,196,265,-71,157,746,384,292,-120,119,403,43,-25,-142,191,146,364,131,-15,172,-105,139,315,320,128,212,239,101,235,-58,175,127
125325,59,240,186,-76,151,713,433,325,-113,110,321,64,-14,-169,170,64,244,205,-23,163,-102,140,372,337,122,195,240,104,205,-64,176,160
125326,87,319,345,-131,141,662,446,221,-108,94,301,102,-15,-192,153,-107,267,176,-26,155,-109,148,355,330,120,195,239,87,210,-64,174,149
125327,61,317,431,-108,148,667,415,229,-110,76,317,141,4,-180,142,-65,305,191,0,159,-115,203,357,349,122,201,248,80,230,-58,161,100
125328,2,285,386,-14,157,691,440,312,-78,75,343,139,31,-163,179,60,333,218,17,186,-123,192,379,374,154,233,272,118,228,-72,177,145
125329,3,265,434,-13,172,720,423,183,-72,105,370,167,26,-165,197,44,357,233,20,200,-110,92,378,375,164,261,249,152,243,-48,216,188
125330,59,277,402,27,178,763,393,140,-88,104,358,167,33,-165,192,13,400,226,-2,198,-112,281,377,388,158,243,251,161,246,-16,217,205
125331,-15,187,210,44,159,765,378,285,-90,87,341,141,38,-188,178,-3,362,229,13,181,-117,293,389,382,148,243,250,182,234,-15,222,226
125332,-80,136,156,56,142,761,402,315,-88,91,346,181,54,-189,170,2,331,251,21,178,-127,249,437,379,162,254,285,188,250,0,257,264
125333,-31,201,172,57,143,753,398,268,-79,100,357,139,53,-171,189,42,352,231,22,188,-113,275,442,388,168,241,306,199,262,14,251,295
125334,30,203,175,35,138,701,384,272,-68,80,360,113,47,-169,171,53,322,233,6,180,-116,251,453,375,144,203,252,205,255,-24,199,208
125335,37,172,140,5,151,724,374,290,-67,100,351,118,32,-152,162,37,295,242,3,173,-114,210,455,384,149,203,253,164,243,-62,187,190
125336,55,170,203,10,152,753,432,268,-90,110,340,117,0,-173,162,0,282,215,-19,135,-155,196,391,333,95,179,238,120,167,-126,123,178
125337,35,230,341,-31,164,740,460,177,-112,114,354,131,-10,-191,150,-14,238,185,-41,112,-181,195,372,292,68,157,239,119,163,-122,135,163
125338,3,198,421,-99,149,797,467,118,-125,128,359,120,-39,-206,141,11,220,165,-53,104,-178,166,358,274,58,127,227,130,152,-143,107,174
125339,15,193,395,-146,157,847,453,110,-144,128,351,142,-59,-196,146,27,216,149,-59,102,-177,167,311,284,73,121,210,113,150,-148,101,145
125340,56,223,390,-135,159,813,378,100,-140,113,362,127,-56,-187,140,39,209,159,-49,99,-165,166,317,288,72,120,204,106,176,-130,113,163
125341,30,140,276,-97,158,753,339,166,-133,106,372,90,-50,-189,140,53,220,150,-50,92,-162,116,305,286,60,121,207,109,156,-139,105,123
125342,-38,38,118,-77,151,748,262,162,-114,106,330,-30,-15,-168,139,73,218,186,-21,112,-129,131,307,293,83,146,234,119,173,-117,139,143
125343,-109,40,84,-29,148,666,338,216,-109,91,349,-119,-19,-173,161,81,257,192,-23,128,-115,157,302,302,80,169,270,108,171,-110,144,233
125344,-123,22,183,-1,148,745,400,356,-104,107,407,23,-57,-159,190,106,320,80,-47,124,-94,173,276,294,98,188,310,132,163,-94,141,176
125345,-74,55,284,-15,124,767,395,239,-115,118,381,64,-64,-173,168,90,198,76,-70,122,-119,76,297,255,58,145,273,106,127,-141,104,136
125346,7,169,352,-46,137,747,428,159,-126,127,381,135,-49,-169,165,87,102,193,-62,132,-123,112,379,280,80,138,263,69,119,-157,86,135
125347,15,168,283,-60,142,749,421,145,-135,114,370,97,-79,-162,177,164,195,119,-76,138,-97,128,288,255,86,133,244,23,115,-181,79,112
125348,29,76,174,-95,140,737,379,180,-132,118,338,69,-82,-156,175,177,227,92,-82,129,-102,-21,246,248,69,123,200,61,106,-200,43,53
125349,-36,62,33,-113,121,719,357,260,-120,110,313,-33,-87,-170,153,82,135,77,-65,117,-123,-1,215,239,32,112,200,26,73,-210,21,46
125350,-148,149,-31,-68,109,722,342,203,-142,98,320,-80,-99,-182,132,-48,128,25,-84,100,-147,13,166,200,22,104,184,4,42,-222,5,28
125351,-218,194,-43,-25,104,737,295,223,-124,79,279,-114,-105,-179,93,-203,141,-12,-93,72,-206,72,145,193,14,73,154,-6,45,-217,5,8
125352,-157,67,9,-5,86,705,282,109,-124,64,246,-142,-113,-189,64,-110,54,16,-110,59,-258,63,175,198,6,36,80,-25,75,-228,-1,3
125353,-126,25,5,-87,78,732,263,40,-150,86,195,-137,-126,-166,82,-83,6,13,-114,67,-279,41,162,191,25,33,72,-20,59,-242,-5,4
125354,-102,119,169,-115,106,804,254,84,-126,114,219,-61,-142,-134,103,-45,28,-5,-88,91,-223,62,160,185,50,65,142,-26,49,-231,12,14
125355,-183,231,170,-153,79,734,300,0,-157,104,262,-72,-182,-153,90,-43,43,-85,-111,70,-226,40,103,155,28,63,123,-81,31,-236,3,-6
125356,-159,276,195,-234,78,681,272,-29,-154,79,277,-63,-164,-146,78,-82,-17,-17,-107,72,-250,68,127,162,38,49,123,-71,27,-246,-17,7
125357,-21,248,291,-229,83,638,288,-44,-154,79,303,-37,-144,-157,102,-119,-5,-2,-91,84,-247,53,149,200,41,65,105,-52,53,-225,5,83
125358,-11,201,248,-242,58,568,331,-66,-170,67,253,-60,-149,-156,69,-133,30,-26,-97,81,-252,17,150,209,38,65,109,-40,94,-196,49,116
125359,-52,177,239,-248,40,633,313,-46,-173,53,233,-87,-130,-140,55,-90,4,-6,-88,77,-263,49,180,206,48,62,119,-28,125,-164,50,108
125360,-40,220,240,-219,70,654,322,-9,-150,67,297,-76,-116,-141,98,-78,0,12,-77,92,-248,82,178,220,57,82,137,-15,109,-150,68,88
125361,-17,225,245,-202,81,696,383,20,-145,70,346,-79,-130,-156,80,-70,1,-5,-90,79,-291,-56,149,214,53,68,98,-62,62,-199,17,8
125362,9,208,268,-161,79,736,406,42,-149,70,360,-50,-100,-128,79,-87,33,24,-68,96,-270,75,164,242,64,69,125,-75,92,-180,18,26
125363,-12,209,255,-143,85,742,364,62,-135,90,351,-49,-109,-136,88,-63,55,42,-65,89,-269,65,189,230,65,79,170,-115,85,-199,8,-11
125364,-66,164,176,-127,98,718,330,96,-109,71,268,-51,-80,-156,90,-67,73,52,-81,70,-264,14,216,230,67,81,160,-86,96,-191,28,-9
125365,-133,-41,1,-106,97,738,344,141,-110,71,129,-115,-50,-159,50,-78,77,28,-60,69,-274,35,186,231,57,83,108,-57,106,-179,41,11
125366,-194,-105,-77,-100,65,733,372,-40,-115,77,170,-78,-56,-150,62,-73,84,62,-49,73,-271,-21,203,231,72,69,68,-72,77,-190,31,10
125367,-194,10,-93,-47,63,696,344,140,-90,91,233,-141,-14,-137,78,-66,88,104,-20,98,-267,-2,221,268,76,101,108,-48,141,-154,58,35
125368,-195,134,-34,-31,57,678,294,328,-97,82,213,-172,-21,-155,60,-89,101,62,-28,75,-299,-22,195,266,53,76,89,-20,145,-157,39,15
125369,-201,185,-42,29,53,672,279,303,-100,61,194,-316,-32,-166,38,-145,49,70,-52,51,-307,-10,161,259,52,36,57,-43,128,-176,-9,-12
125370,-72,200,80,44,69,692,291,329,-80,68,225,-197,-38,-142,65,-116,88,58,-35,81,-296,18,190,249,74,64,83,4,140,-167,31,0
125371,-87,140,70,4,86,639,331,404,-87,76,253,-43,-40,-137,77,-88,140,26,-24,93,-270,49,220,251,89,88,104,45,178,-126,63,29
125372,-143,43,117,2,83,600,302,406,-79,70,242,-39,-11,-134,89,-100,76,103,-28,113,-240,36,264,296,92,108,113,25,208,-103,72,12
125373,-162,5,233,-32,86,645,297,165,-83,68,229,-24,-22,-149,106,-47,90,164,-18,125,-225,18,305,335,118,123,141,64,246,-70,95,33
125374,-157,65,164,-13,40,656,295,92,-76,66,223,-5,-17,-155,107,8,75,110,-18,108,-223,-11,262,326,115,117,139,53,222,-106,64,-17
125375,-96,111,155,-111,45,652,303,80,-98,74,276,-12,-24,-146,120,-6,85,73,-9,118,-192,-102,236,313,129,114,147,5,190,-138,35,-29
125376,-60,55,194,-165,42,661,306,41,-107,91,291,-6,-16,-131,142,-85,77,96,20,140,-174,-64,259,345,145,140,139,42,212,-115,53,-14
125377,-81,70,181,-200,61,659,315,80,-96,90,288,23,0,-114,122,-219,58,125,30,161,-178,66,282,383,175,140,165,-1,224,-95,71,2
125378,-156,147,125,-136,72,640,264,115,-80,80,271,24,-2,-134,104,-146,125,134,25,154,-173,31,325,378,171,154,152,77,265,-82,86,13
125379,-183,250,135,-84,79,600,267,98,-74,67,260,25,-12,-137,109,-60,165,137,26,153,-181,19,332,362,166,145,139,88,276,-56,101,40
125380,-149,281,105,-99,76,588,329,54,-98,57,282,-16,-48,-131,104,-52,123,116,5,138,-207,30,301,336,161,123,159,21,255,-66,114,62
125381,-121,198,114,-134,73,624,332,54,-106,59,281,-29,-65,-149,111,-30,73,94,-10,111,-188,57,333,325,145,132,195,37,266,-60,118,121
125382,-20,173,192,-181,79,674,338,82,-108,68,266,-9,-58,-156,114,1,76,141,-23,136,-181,146,362,337,152,148,232,66,292,-52,142,160
125383,-17,191,196,-186,53,691,301,76,-117,57,250,-17,-48,-152,98,10,113,117,-34,132,-183,169,316,327,142,129,254,83,260,-66,127,121
125384,-16,250,190,-132,57,643,304,91,-104,56,268,-20,-39,-140,116,9,113,131,-3,140,-164,173,310,356,167,135,247,79,269,-65,122,95
125385,19,233,248,-132,72,694,374,125,-80,86,285,10,-29,-142,131,17,158,154,26,165,-153,206,327,392,187,199,297,118,316,-17,178,139
125386,-5,121,233,-153,43,706,343,135,-115,55,283,-31,-41,-171,107,-14,158,128,15,146,-168,164,319,376,178,183,317,85,305,-24,160,115
125387,-35,95,224,-130,54,697,308,146,-107,52,284,-41,-37,-163,120,-5,156,141,23,142,-154,139,334,369,171,192,331,99,317,2,168,139
125388,-62,161,207,-116,64,720,309,160,-93,74,291,17,-34,-136,127,4,152,146,18,148,-165,171,348,369,170,203,303,110,308,-5,176,153
125389,-61,157,158,-115,51,700,369,183,-91,42,275,24,-19,-150,93,-12,129,160,4,131,-164,185,359,354,162,177,260,97,287,-10,184,98
125390,-86,141,94,-87,59,673,466,257,-65,51,274,38,-20,-147,103,-1,143,175,10,138,-188,107,363,349,179,172,242,75,288,-30,168,60
125391,-126,141,-73,-76,69,677,447,281,-53,82,287,2,-12,-118,124,-5,148,178,19,156,-169,206,309,340,191,182,248,49,255,-45,167,168
125392,-132,133,-52,-61,62,665,389,68,-80,68,296,-75,-36,-147,117,-13,160,157,-8,149,-181,267,229,315,173,161,245,42,212,-48,164,181
125393,-116,64,135,-86,53,653,364,74,-115,42,301,-115,-99,-153,108,2,231,8,-49,117,-185,194,139,242,133,136,229,-24,130,-113,86,139
125394,-85,59,157,-51,59,646,348,310,-91,67,298,-156,-64,-152,98,-17,133,43,-57,97,-194,152,200,240,102,103,184,-21,141,-147,39,109
125395,-112,44,209,-16,62,705,340,242,-71,79,312,-8,-35,-140,110,-6,76,118,-21,119,-193,135,279,292,111,105,194,72,205,-106,77,102
125396,-101,29,246,-52,74,744,344,126,-89,91,344,-4,-52,-121,123,-10,157,98,-23,98,-188,121,265,302,122,105,176,30,179,-109,60,64
125397,-52,77,182,-101,80,752,347,142,-106,104,413,-41,-70,-140,127,4,154,90,-45,91,-201,66,269,291,116,85,160,0,168,-116,40,41
125398,-69,154,168,-51,107,785,452,259,-78,122,468,-73,-34,-166,147,9,136,131,-17,106,-192,128,307,316,118,110,195,0,205,-103,80,84
125399,-143,208,132,14,113,777,433,276,-76,115,388,-165,-23,-166,140,69,136,156,-31,95,-200,105,285,317,133,107,193,-23,206,-93,81,81
125400,-107,175,134,-5,111,779,345,230,-67,114,329,-102,-37,-143,147,146,192,105,-18,104,-192,110,285,307,129,123,169,33,223,-70,96,88
125401,-184,190,280,1,111,774,250,168,-81,109,324,88,-40,-141,153,92,176,132,-18,124,-165,126,342,326,133,124,190,51,242,-68,83,71
125402,-117,272,324,-18,125,693,242,204,-95,103,311,132,-10,-128,167,26,115,194,-12,151,-125,69,374,355,167,149,235,40,251,-44,89,52
125403,79,310,195,-176,94,757,346,248,-110,100,336,125,-34,-157,150,-145,128,141,-19,148,-122,194,357,322,146,153,261,66,251,-39,119,46
125404,80,243,221,-189,59,757,379,184,-117,103,330,96,-60,-164,126,-57,159,119,-54,104,-164,110,315,301,118,129,183,36,210,-94,92,58
125405,60,138,254,-162,69,724,383,97,-124,85,324,71,-75,-177,110,61,159,121,-67,83,-167,86,288,290,97,107,121,5,188,-106,83,57
125406,73,168,301,-168,111,729,402,54,-116,100,356,81,-81,-162,126,29,195,125,-62,81,-180,140,316,304,110,117,164,72,232,-64,122,87
125407,23,270,289,-154,110,709,404,80,-132,97,339,65,-78,-183,142,5,194,118,-69,83,-180,144,316,287,117,114,184,61,239,-73,118,114
125408,57,308,304,-145,109,725,407,72,-134,99,348,53,-92,-215,133,22,194,113,-67,85,-171,178,302,280,83,108,234,73,252,-56,134,127
125409,38,287,315,-142,137,793,410,64,-140,114,369,42,-90,-211,124,22,192,131,-81,72,-165,163,315,293,68,113,223,95,258,-39,163,115
125410,-8,304,256,-68,138,799,447,108,-146,105,385,43,-95,-223,131,42,209,140,-98,81,-153,184,324,296,69,126,210,116,268,-10,177,136
125411,-78,287,20,-50,119,763,453,233,-142,95,352,31,-75,-210,111,15,202,136,-104,65,-196,165,291,275,43,119,194,106,264,-13,188,140
125412,-204,231,-320,55,121,721,440,401,-100,104,326,-49,-74,-202,95,-4,233,112,-102,41,-217,133,232,257,44,95,173,53,239,-26,176,126
