,Fp1,Fp2,F7,F3,Fz,F4,F8,FC5,FC1,FC2,FC6,T7,C3,Cz,C4,T8,TP9,CP5,CP1,CP2,CP6,TP10,P7,P3,Pz,P4,P8,PO9,O1,Oz,O2,PO10
70934,-275,321,-103,89,91,318,210,104,-137,14,138,63,171,139,115,71,242,-47,-151,33,-187,244,149,-13,-138,90,358,-34,260,89,-111,-146
70935,-232,253,-103,82,73,330,230,299,-123,36,178,57,207,149,144,95,273,-16,-138,54,-139,255,152,17,-120,124,383,10,302,107,-60,-126
70936,-174,283,-62,82,88,330,242,302,-107,63,199,39,231,170,162,109,317,-5,-139,56,-112,267,146,43,-103,143,370,83,333,159,-40,-94
70937,-132,359,7,67,98,375,277,240,-119,53,197,54,230,171,171,142,325,0,-125,70,-128,300,176,65,-88,154,347,96,359,188,0,-78
70938,-69,441,113,88,99,398,284,189,-112,58,211,145,251,170,191,167,343,30,-102,87,-100,325,200,84,-74,157,349,114,378,198,8,-68
70939,-56,432,160,83,86,414,287,180,-112,57,209,169,251,184,175,124,338,39,-106,73,-110,278,194,89,-85,133,272,117,375,173,-12,-68
70940,-87,379,181,71,103,403,288,179,-107,55,238,183,261,186,188,134,344,45,-85,88,-128,286,202,117,-61,157,303,140,395,215,16,-28
70941,-146,314,163,69,79,389,264,107,-128,31,230,175,235,145,153,104,334,36,-107,79,-157,299,191,104,-68,157,301,155,380,220,2,-53
70942,-93,384,255,86,101,372,315,144,-115,18,225,196,261,156,161,127,380,78,-84,94,-122,313,242,125,-78,158,332,195,430,248,38,-21
70943,-37,449,308,88,112,364,338,140,-104,44,215,212,264,159,149,138,429,112,-82,89,-116,295,297,146,-70,168,356,181,443,235,12,-30
70944,-30,434,305,101,110,359,321,159,-118,44,210,179,249,139,159,143,446,98,-94,73,-129,322,281,128,-86,150,326,133,430,225,7,-39
70945,-100,401,236,103,108,325,294,171,-131,26,179,156,215,107,127,125,444,8,-151,44,-156,296,222,62,-120,100,313,125,394,256,4,-31
70946,-142,387,194,118,98,329,302,185,-122,39,172,179,220,137,128,104,387,24,-149,32,-168,292,229,46,-134,115,300,128,388,212,-26,-129
70947,-69,360,141,125,117,350,286,205,-126,32,156,202,226,135,122,94,309,49,-150,9,-197,252,234,53,-152,108,288,95,355,169,-41,-113
70948,-75,344,118,159,124,333,288,259,-103,21,159,188,223,116,114,59,304,17,-157,12,-190,249,204,43,-158,81,288,98,373,171,-14,-64
70949,-83,387,137,184,127,341,304,228,-105,43,146,183,240,109,118,66,318,34,-140,30,-181,269,175,47,-141,122,323,115,385,204,0,-67
70950,-83,463,90,163,109,345,312,164,-119,57,153,126,246,114,130,88,301,46,-134,45,-165,285,143,55,-149,111,342,69,351,186,-9,-83
70951,-122,476,112,109,113,359,302,141,-125,62,164,95,229,119,137,89,342,-5,-146,45,-146,292,133,74,-138,114,347,93,364,208,-4,-50
70952,-121,452,102,116,117,380,310,192,-126,66,172,121,238,108,154,98,336,13,-125,64,-126,302,168,83,-127,143,387,150,406,246,51,-14
70953,-140,421,31,112,156,405,321,216,-102,97,189,154,241,147,172,134,280,32,-121,90,-111,359,191,80,-102,151,426,148,394,248,56,59
70954,-181,339,44,94,127,386,291,143,-125,68,165,153,247,152,159,202,238,43,-130,82,-110,364,178,61,-99,142,420,151,382,244,47,30
70955,-207,343,122,120,125,407,286,128,-125,88,140,132,258,165,178,221,256,53,-113,111,-101,379,174,66,-101,158,425,91,358,209,41,26
70956,-205,340,149,120,116,419,257,138,-97,94,122,114,248,173,197,172,295,3,-110,120,-83,391,130,35,-107,183,436,48,320,202,29,41
70957,-189,296,101,101,100,386,243,88,-122,85,174,123,229,146,175,41,307,5,-118,104,-86,377,101,36,-105,175,437,44,305,179,37,11
70958,-148,305,82,62,80,395,228,82,-136,99,172,93,227,152,166,-56,325,-5,-125,102,-102,379,88,48,-99,164,444,74,320,181,6,1
70959,-105,387,144,62,78,417,265,93,-124,79,189,129,232,166,166,95,282,-6,-123,107,-93,396,109,48,-101,169,461,76,320,188,20,18
70960,-61,396,189,112,117,408,324,169,-136,91,201,168,227,158,161,131,258,4,-145,75,-104,387,105,14,-118,148,470,69,308,185,0,40
70961,-36,437,172,147,122,420,380,176,-114,102,229,131,218,154,177,127,317,-61,-155,65,-123,387,82,-4,-124,146,457,46,296,177,22,52
70962,-40,476,147,141,120,432,399,150,-139,96,231,94,202,142,158,128,291,-55,-163,77,-110,365,43,-18,-141,129,433,-3,251,130,-28,3
70963,-87,488,86,107,105,404,391,127,-131,86,233,89,186,138,158,145,322,-60,-154,79,-107,336,65,-16,-139,126,436,15,273,142,-36,-14
70964,-205,423,7,76,75,359,336,106,-132,65,210,71,194,146,161,151,312,-56,-160,64,-122,255,105,-2,-127,115,401,29,293,124,-60,-53
70965,-263,391,-31,61,79,352,332,107,-138,72,202,81,208,142,155,121,274,-6,-157,78,-107,317,145,3,-114,119,421,39,299,160,-83,-72
70966,-210,399,18,60,83,360,322,103,-132,75,202,81,209,132,159,133,290,-3,-147,82,-97,351,180,7,-99,140,453,-34,286,158,-49,-70
70967,-169,385,61,84,104,383,329,124,-126,70,224,117,220,147,192,188,320,0,-134,96,-56,344,192,31,-94,169,470,31,311,183,-33,2
70968,-166,373,67,97,107,397,362,64,-135,93,238,118,232,143,204,179,354,36,-119,108,-48,365,220,72,-77,190,474,141,362,225,6,-3
70969,-180,367,49,90,120,394,333,-114,-125,106,213,147,241,152,183,161,363,62,-98,109,-73,380,239,95,-58,179,420,158,405,260,48,36
70970,-199,391,-31,96,98,374,302,139,-113,85,202,122,246,140,170,140,334,31,-117,94,-92,363,218,68,-61,160,348,167,400,264,45,54
70971,-182,437,-26,93,90,380,317,222,-120,73,194,140,264,158,154,128,349,51,-112,94,-138,364,232,80,-69,143,388,185,417,263,45,13
70972,-172,446,46,85,94,380,312,185,-127,73,204,181,272,163,171,149,368,47,-116,86,-128,386,213,88,-83,160,396,199,414,253,43,-11
70973,-201,393,58,58,82,362,295,151,-133,70,204,142,247,124,152,131,359,40,-141,71,-139,389,165,60,-100,139,398,169,388,256,22,-46
70974,-155,362,123,66,88,378,309,111,-112,80,190,124,237,132,155,140,343,22,-149,62,-138,374,137,49,-103,149,389,139,377,259,10,-27
70975,-198,286,151,50,89,361,282,97,-122,42,162,103,199,125,140,105,334,-35,-174,28,-162,349,92,13,-138,108,303,143,375,225,-11,-28
70976,-207,235,79,66,79,347,214,84,-132,45,155,82,209,135,96,88,281,-43,-165,0,-207,338,104,1,-158,69,259,132,334,174,-43,-62
70977,-195,248,39,55,76,336,197,79,-146,60,127,82,208,141,73,55,222,-44,-159,3,-241,290,112,-21,-169,36,225,117,305,131,-82,-122
70978,-224,260,16,23,54,335,188,68,-152,30,81,26,156,113,57,20,204,-92,-200,-4,-266,250,34,-74,-189,0,188,17,230,58,-151,-191
70979,-238,271,-10,22,36,321,205,61,-155,35,85,13,157,137,69,19,226,-109,-201,-1,-256,251,22,-99,-195,20,186,6,190,40,-131,-136
70980,-284,283,-66,48,56,319,210,107,-138,52,71,17,172,171,83,35,261,-107,-176,22,-241,246,48,-77,-168,29,198,-16,227,34,-124,-103
70981,-314,274,-99,50,54,331,199,152,-139,57,78,17,210,187,110,33,201,-55,-166,36,-240,242,66,-58,-143,38,205,-47,224,42,-148,-127
70982,-303,249,-126,26,42,332,199,106,-156,53,78,14,186,171,98,18,145,-65,-169,25,-263,234,63,-83,-171,18,190,-13,209,75,-149,-135
70983,-277,238,-126,-42,34,305,154,59,-189,46,82,-19,131,158,74,3,172,-141,-192,2,-284,219,13,-90,-177,-2,171,-61,176,40,-157,-142
70984,-209,254,-92,-37,42,314,174,75,-189,37,95,-4,137,166,86,19,183,-102,-202,-7,-261,218,7,-94,-194,-7,162,-91,146,22,-151,-147
70985,-203,268,-23,-13,43,302,205,83,-174,38,100,-28,131,146,93,15,222,-84,-202,1,-262,228,12,-82,-202,-5,169,-37,157,52,-141,-173
70986,-239,242,51,-14,49,281,200,26,-190,32,106,8,131,150,89,11,259,-107,-204,2,-255,242,31,-74,-183,12,179,-13,183,69,-144,-156
70987,-287,181,37,-20,37,290,192,23,-161,37,99,14,160,157,87,4,197,-91,-205,22,-256,245,52,-58,-182,15,181,-89,196,75,-91,-163
70988,-286,246,23,3,51,310,240,83,-132,46,133,100,181,173,104,29,186,-48,-174,38,-228,275,92,-50,-159,66,221,-64,246,121,-74,-104
70989,-292,296,-22,21,60,305,256,71,-142,43,133,106,196,170,107,33,226,-40,-141,39,-188,279,113,-38,-156,82,261,-15,284,175,-50,-59
70990,-277,340,-21,3,52,304,232,46,-154,33,104,123,193,172,99,23,214,-39,-159,34,-205,253,103,-23,-157,90,274,4,279,173,-29,-88
70991,-279,334,9,30,60,295,241,40,-127,42,107,111,212,179,112,41,215,-40,-150,55,-192,234,83,1,-125,119,302,32,305,161,-11,-57
70992,-314,319,36,32,49,292,214,27,-133,49,103,95,192,182,93,38,191,-43,-155,64,-175,269,30,-24,-134,116,310,-14,241,140,-29,-62
70993,-344,282,16,-5,18,280,169,-2,-143,44,81,98,174,167,86,46,166,-46,-166,60,-179,300,49,-20,-125,122,304,-9,271,159,-2,-37
70994,-355,207,0,1,30,264,147,7,-143,26,81,88,182,179,82,115,187,-37,-142,54,-168,268,86,8,-133,137,326,13,301,171,10,-65
70995,-362,169,-13,11,26,231,145,-5,-158,9,72,55,144,173,80,93,155,-61,-162,45,-185,265,47,-16,-144,119,314,-66,256,124,-2,-61
70996,-262,244,59,-13,39,280,206,-134,-147,54,123,127,198,198,108,70,205,-3,-126,84,-127,280,61,26,-94,137,359,0,306,166,34,-63
70997,-207,269,89,-2,53,317,226,-114,-139,66,133,148,222,198,145,-57,268,9,-107,102,-101,299,84,54,-78,179,400,103,388,251,67,-71
70998,-209,256,48,13,45,295,217,186,-135,60,121,118,228,182,123,-71,271,-5,-112,85,-115,318,95,54,-89,177,439,132,388,242,47,-38
70999,-235,218,26,4,46,292,204,170,-138,48,115,130,226,168,107,56,249,4,-115,97,-115,335,92,43,-96,187,438,110,368,238,60,-19
71000,-227,228,10,11,67,315,234,147,-122,72,144,139,257,180,140,83,301,24,-87,113,-89,337,155,57,-69,208,450,162,393,267,95,-20
71001,-243,248,52,37,60,337,228,165,-123,62,130,156,247,162,133,91,318,37,-95,91,-89,350,162,70,-68,208,486,149,383,249,103,17
71002,-246,254,102,57,66,335,237,146,-137,49,130,147,236,160,134,74,317,33,-99,101,-83,351,159,87,-73,217,487,125,386,223,88,15
71003,-224,295,103,71,82,353,257,174,-117,79,152,145,253,169,142,85,339,58,-77,123,-65,378,197,122,-32,217,512,166,435,297,89,55
71004,-206,316,108,55,68,333,251,161,-137,52,153,114,256,157,120,70,329,43,-91,106,-72,338,170,97,-65,183,491,132,430,292,110,63
71005,-208,299,82,54,70,330,235,142,-138,68,172,135,245,173,145,65,343,54,-76,112,-76,341,183,92,-59,199,490,149,423,283,133,69
71006,-235,280,20,17,66,342,199,117,-129,64,154,88,238,172,136,86,298,75,-91,115,-72,345,197,119,-64,192,465,132,417,281,137,80
71007,-258,284,-32,21,80,345,192,96,-137,63,146,102,241,182,144,94,305,74,-87,109,-99,329,154,114,-61,156,396,105,420,272,110,91
71008,-271,321,30,36,67,345,235,59,-157,58,155,74,199,181,135,65,345,-13,-94,99,-133,264,100,92,-80,141,375,94,379,208,62,14
71009,-257,278,57,33,82,347,257,58,-145,75,128,93,195,178,122,38,335,-38,-114,77,-142,250,101,76,-87,125,376,95,371,226,47,-27
71010,-252,217,6,39,90,347,228,104,-130,75,106,127,247,188,122,22,209,40,-94,69,-162,239,191,94,-82,108,346,85,388,225,35,-92
71011,-283,157,-81,44,83,352,200,167,-134,49,87,93,246,174,96,-10,152,25,-97,60,-195,213,161,74,-109,97,308,45,374,212,7,-114
71012,-284,203,-102,71,95,361,185,224,-122,65,50,70,243,164,85,-19,197,-6,-101,64,-186,214,130,77,-108,91,305,58,370,212,0,-91
71013,-325,264,-122,108,103,338,169,244,-105,71,44,31,251,162,93,-3,240,-17,-108,54,-182,235,92,60,-116,89,323,11,347,166,-34,-99
71014,-286,283,-56,75,114,343,206,172,-98,56,106,8,241,170,107,16,240,0,-110,72,-155,248,91,52,-116,102,329,20,341,168,-48,-111
71015,-223,296,7,51,104,355,230,114,-116,52,108,-30,234,146,89,28,167,33,-125,55,-137,272,90,43,-126,106,351,42,344,182,-20,-116
71016,-268,288,26,113,96,345,218,78,-119,65,115,-25,212,130,92,39,185,-29,-134,55,-135,295,64,25,-126,110,375,4,332,179,-6,-88
71017,-353,306,13,130,100,358,202,38,-116,56,103,-38,214,123,88,34,224,-89,-147,34,-147,259,69,8,-143,88,355,5,334,167,-23,-83
71018,-292,296,46,58,94,347,192,51,-104,46,88,57,242,135,75,-7,247,-42,-150,34,-184,248,105,8,-136,88,316,-10,308,164,-44,-114
71019,-232,245,80,60,105,343,184,83,-92,59,87,127,260,147,83,7,306,18,-109,53,-149,270,160,49,-112,105,347,32,322,184,-7,-53
71020,-235,250,117,71,112,341,189,95,-77,62,111,161,275,158,100,35,294,45,-87,57,-148,246,173,74,-87,108,368,31,326,185,-13,-38
71021,-264,273,100,32,93,320,201,105,-97,62,120,183,265,151,106,61,320,53,-84,62,-143,247,186,73,-103,128,405,26,331,161,-18,-31
71022,-256,290,136,32,102,313,211,99,-98,69,130,192,263,150,127,69,361,79,-72,94,-85,375,171,97,-51,175,468,90,352,194,16,28
71023,-242,248,145,4,65,284,190,79,-133,44,120,172,245,141,115,62,349,47,-84,83,-84,389,147,84,-56,180,482,106,336,211,33,18
71024,-222,246,134,16,53,274,181,83,-111,57,126,167,254,156,138,63,354,74,-85,107,-95,347,166,89,-59,179,474,118,346,230,50,23
71025,-223,260,137,43,57,286,204,99,-106,53,139,127,236,151,138,63,293,40,-78,84,-110,314,147,64,-65,172,422,81,333,205,44,10
71026,-223,236,157,46,63,296,211,82,-100,41,146,129,225,146,120,53,290,34,-100,73,-133,289,148,55,-82,159,338,65,325,206,33,-57
71027,-241,231,101,33,53,300,198,65,-103,44,124,129,227,175,116,40,355,14,-96,84,-127,293,145,57,-70,156,351,40,317,158,10,-65
71028,-287,225,11,12,59,281,170,-35,-113,20,100,113,215,179,109,23,275,-2,-102,86,-159,315,88,45,-73,155,347,-3,292,132,-25,-30
71029,-270,266,-85,21,60,291,145,-162,-131,33,71,119,200,178,104,18,255,14,-104,101,-147,295,94,69,-68,163,361,33,316,154,-13,-45
71030,-255,319,-60,71,71,318,176,129,-109,55,95,53,236,179,97,51,244,5,-80,95,-147,267,102,74,-48,172,353,36,324,136,-25,-75
71031,-232,331,-62,68,74,312,165,174,-122,49,112,65,229,195,112,148,255,5,-71,106,-137,223,89,68,-44,165,355,-52,327,141,-19,-64
71032,-301,288,-87,108,51,294,173,165,-112,34,104,48,236,188,114,112,291,16,-71,124,-108,217,88,69,-42,199,381,-46,306,179,25,14
71033,-286,206,-12,107,61,304,164,143,-107,56,138,92,262,207,152,44,327,23,-64,149,-79,276,84,96,-5,228,427,18,334,194,47,43
71034,-255,163,-10,76,68,306,168,141,-106,63,111,92,260,189,143,-127,386,-38,-54,148,-92,274,33,81,-3,219,443,38,307,181,28,-11
71035,-241,229,30,48,46,284,176,151,-129,36,79,115,271,188,101,-108,263,5,-77,127,-117,220,83,75,-15,216,450,8,310,169,1,-56
71036,-204,261,105,31,62,292,183,90,-112,44,101,151,277,181,133,32,253,64,-49,150,-96,215,135,97,9,250,454,32,351,176,3,-99
71037,-190,264,106,28,63,316,206,67,-117,61,120,155,265,201,142,20,297,44,-40,170,-92,217,123,112,14,241,405,47,354,187,11,-102
71038,-189,282,83,34,57,305,204,103,-120,70,132,138,284,235,173,30,303,61,-8,182,-73,258,154,146,62,257,451,107,395,244,66,-49
71039,-244,295,63,38,59,316,189,146,-99,70,125,105,312,246,186,28,303,55,0,217,-49,274,162,156,82,293,444,49,370,241,87,-32
71040,-252,236,69,63,58,314,172,147,-96,64,116,155,291,252,200,20,307,50,11,217,-68,277,150,122,72,278,433,-30,339,203,59,8
71041,-247,187,36,58,50,282,162,142,-97,59,111,120,279,247,188,37,283,37,24,212,-59,276,136,108,59,274,440,-18,341,213,77,34
71042,-248,209,31,59,52,270,178,182,-83,61,105,47,287,257,169,27,247,44,-6,192,-52,274,92,106,41,284,463,-19,336,212,85,34
71043,-256,252,58,42,38,256,174,181,-95,45,104,37,281,239,145,38,228,41,-30,171,-70,266,55,87,27,256,460,-42,330,180,52,-9
71044,-258,265,49,33,37,238,135,137,-106,37,119,101,267,231,153,73,286,0,-36,180,-71,299,94,77,23,241,444,17,348,200,62,-1
71045,-238,270,75,49,55,265,177,132,-121,42,119,183,261,237,162,78,308,31,-15,174,-48,277,155,106,44,271,424,66,383,231,66,-5
71046,-256,247,92,19,32,275,180,110,-140,34,127,186,268,234,151,65,261,48,-37,164,-61,245,122,96,37,257,442,23,341,193,48,-36
71047,-286,231,56,7,32,277,175,100,-127,46,128,136,253,217,153,72,265,12,-51,179,-70,282,89,80,20,259,466,2,335,217,55,-17
71048,-287,234,80,14,37,327,214,89,-134,71,138,136,243,211,167,81,280,11,-43,178,-50,327,113,86,38,275,473,34,346,260,82,55
71049,-311,268,116,37,54,376,254,80,-127,96,155,150,261,227,167,100,283,25,-40,185,-35,343,110,73,40,288,482,24,311,203,86,64
71050,-317,256,166,63,64,387,252,102,-126,103,183,135,268,227,167,94,304,18,-47,184,-39,353,110,61,18,271,491,16,298,157,48,54
71051,-321,219,141,71,52,382,235,119,-117,82,172,129,254,207,158,96,325,-24,-48,160,-45,353,70,23,18,253,478,19,286,168,50,6
71052,-283,186,60,114,57,371,259,139,-97,98,174,117,274,214,175,91,308,0,-37,182,-37,346,85,34,22,269,505,55,296,198,47,5
71053,-243,193,17,58,45,327,243,149,-116,79,155,64,267,207,144,76,254,-7,-66,159,-69,308,115,20,-9,255,484,47,284,209,27,1
71054,-280,221,-2,24,39,284,242,138,-119,63,134,54,242,213,131,46,215,-30,-76,137,-112,268,109,3,-37,220,444,25,263,180,-4,8
71055,-402,219,-88,12,24,272,236,107,-133,64,123,11,219,221,121,31,195,-58,-84,126,-113,269,78,-8,-48,191,423,-48,227,121,-16,36
71056,-452,223,-137,-2,11,280,234,96,-143,60,137,25,220,234,141,41,210,-58,-61,134,-106,217,34,-19,-54,172,375,-119,210,124,-43,-84
71057,-413,169,-154,-51,19,284,255,-13,-134,79,137,35,218,243,152,45,247,-37,-58,148,-103,226,17,-28,-36,186,374,-69,234,145,-33,-93
71058,-394,158,-126,-31,22,268,223,-190,-153,86,130,66,195,243,154,40,297,-86,-76,148,-103,238,-30,-35,-23,190,385,-76,242,146,-30,-49
71059,-340,143,-91,-49,27,260,191,53,-156,66,94,-44,196,227,146,29,262,-141,-79,126,-109,235,-63,-36,-36,165,352,-147,234,125,-44,-42
71060,-276,202,-44,-66,29,277,204,107,-141,76,112,1,199,220,147,19,242,-76,-101,121,-104,223,-4,-12,-37,156,356,-80,266,145,-39,-59
71061,-231,247,37,-23,37,283,212,92,-142,82,127,38,201,199,136,38,287,-86,-112,113,-116,227,27,-22,-39,151,369,-28,265,144,-45,-91
71062,-228,257,91,3,57,296,222,89,-127,91,151,93,218,199,166,77,321,-56,-101,155,-67,238,81,0,-27,204,413,26,315,176,-16,-81
71063,-228,268,131,-8,68,295,221,95,-112,65,158,123,228,194,155,101,282,-7,-92,154,-42,281,104,33,-15,238,468,43,327,208,24,-2
71064,-282,262,119,45,51,283,210,80,-121,54,116,118,232,161,141,111,281,-25,-108,137,-61,243,91,13,-24,230,462,17,294,176,7,38
71065,-294,249,91,28,59,293,161,58,-119,60,129,108,227,161,154,202,310,-1,-99,137,-35,318,106,36,0,248,492,46,309,182,-2,71
71066,-297,235,81,-21,54,330,182,70,-122,51,156,78,232,174,151,193,312,26,-80,146,-36,324,122,54,6,230,478,71,328,196,7,21
71067,-298,296,87,26,62,328,214,111,-129,59,173,83,272,192,138,144,340,21,-70,140,-41,289,136,62,-8,207,440,35,341,213,8,-47
71068,-391,300,73,54,71,325,161,167,-113,66,132,88,273,197,155,15,368,40,-48,168,-11,348,135,86,22,242,514,46,355,213,24,4
71069,-367,251,102,54,47,298,151,113,-108,56,121,110,294,202,145,-57,302,92,-27,164,-40,313,171,106,30,250,509,54,387,200,1,-37
71070,-348,251,115,26,54,277,196,101,-108,61,141,116,292,211,151,104,274,46,-27,160,-23,338,154,109,36,251,490,20,362,209,7,-33
71071,-334,261,97,-5,43,303,232,54,-119,58,162,116,282,219,175,143,336,-29,-40,163,-15,412,133,88,40,246,459,86,369,256,50,69
71072,-289,317,102,9,63,330,282,99,-88,105,199,171,304,233,187,141,357,72,-15,176,4,400,185,116,34,268,479,106,397,281,62,70
71073,-329,322,58,8,36,306,256,102,-111,88,194,147,286,194,159,132,304,50,-42,151,-1,354,136,83,-6,242,468,54,354,229,24,-14
71074,-286,294,79,-21,45,317,238,53,-126,92,165,106,274,181,155,119,300,10,-60,143,-41,350,139,53,-10,238,424,72,333,227,39,-15
71075,-245,302,83,-1,81,328,256,90,-110,88,182,116,278,198,190,107,318,31,-42,174,4,345,191,90,17,245,455,54,342,243,49,4
71076,-239,300,33,46,82,341,264,169,-94,91,192,144,299,190,187,144,371,76,-45,169,25,346,229,104,38,285,507,119,370,264,74,49
71077,-268,282,-98,80,79,367,248,149,-89,113,201,78,307,182,194,148,341,46,-54,162,18,355,198,95,14,293,520,110,371,265,68,85
71078,-275,259,-153,52,89,375,233,61,-93,93,197,159,288,166,173,134,313,62,-76,142,4,355,211,86,0,259,480,120,365,242,62,46
71079,-312,209,-119,88,108,382,219,288,-94,90,182,72,312,149,154,108,320,53,-74,122,-26,382,178,74,5,249,476,115,344,244,54,14
71080,-313,213,-68,106,132,401,198,288,-78,94,169,29,296,145,143,98,365,16,-66,123,-33,390,143,51,-17,245,495,124,345,250,85,23
71081,-283,189,26,106,127,398,195,206,-116,97,158,64,253,129,131,81,394,-34,-99,113,-30,382,107,42,-32,245,511,122,359,255,97,38
71082,-263,110,112,126,141,422,234,188,-83,115,179,70,276,140,142,101,312,17,-91,127,-20,418,160,68,-28,259,524,135,385,297,135,92
71083,-241,60,154,116,132,440,251,148,-74,116,208,148,281,138,151,115,347,41,-82,128,-14,451,204,75,-36,255,572,173,413,320,126,88
