,Fp1,Fp2,F7,F3,Fz,F4,F8,FC5,FC1,FC2,FC6,T7,C3,Cz,C4,T8,TP9,CP5,CP1,CP2,CP6,TP10,P7,P3,Pz,P4,P8,PO9,O1,Oz,O2,PO10
205598,83,350,697,168,241,440,117,326,398,188,301,555,464,103,242,244,242,78,-108,35,-27,263,-7,222,22,258,167,82,292,449,73,419
205599,182,407,740,194,230,408,137,401,394,162,249,638,491,117,212,201,336,109,-105,32,-68,165,49,239,11,229,113,59,283,418,51,203
205600,249,432,761,224,225,396,170,412,399,159,257,631,497,115,247,256,388,159,-70,51,15,101,123,270,30,268,210,194,344,429,104,-47
205601,237,418,721,144,211,399,159,296,367,157,240,580,443,102,231,245,265,115,-88,16,-14,64,96,259,27,230,161,102,338,433,71,327
205602,195,437,724,147,232,329,187,302,387,166,206,612,468,121,212,203,186,138,-82,27,-39,69,183,287,29,216,64,-100,360,441,82,447
205603,212,345,731,189,224,287,162,407,408,145,253,605,502,116,223,177,208,163,-78,15,-53,13,341,299,21,201,63,53,368,390,8,335
205604,266,222,687,186,225,384,90,471,425,160,333,546,501,106,249,201,243,157,-71,20,-42,-35,336,300,17,208,85,97,363,407,43,337
205605,268,214,633,153,216,406,82,438,398,149,350,476,465,102,262,228,111,60,-114,32,8,89,83,211,-20,229,161,-200,224,419,63,325
205606,290,278,739,179,227,343,51,459,399,136,332,501,467,115,261,181,114,71,-113,31,32,113,28,203,-5,229,222,-97,238,419,74,300
205607,264,325,764,152,204,381,124,276,398,148,279,528,444,108,244,145,176,82,-81,50,36,190,48,250,47,252,234,107,321,474,136,251
205608,229,404,692,166,200,336,236,215,402,160,241,496,440,118,279,212,118,64,-97,72,75,330,-58,242,64,303,294,154,324,502,131,324
205609,239,490,630,206,210,281,256,313,419,167,256,520,479,130,298,239,112,71,-73,88,102,263,-51,243,79,312,331,214,322,501,119,317
205610,250,506,689,185,202,278,262,318,400,174,228,526,461,122,268,261,70,37,-78,73,64,218,-75,230,75,283,270,225,304,522,140,376
205611,208,490,713,176,208,295,279,329,389,151,244,459,434,115,257,244,85,6,-109,55,28,237,-116,177,42,287,192,58,253,478,112,443
205612,253,521,764,174,230,306,299,299,405,150,267,502,437,134,266,209,115,-5,-97,71,51,238,-109,174,53,288,176,31,263,484,107,471
205613,256,512,796,167,232,293,291,248,405,151,244,512,427,121,268,-59,179,-8,-119,77,76,231,-97,184,58,287,171,34,237,459,124,417
205614,280,465,821,156,229,318,278,220,396,171,250,475,423,126,289,-57,151,-5,-115,113,138,205,-85,161,54,337,259,46,221,480,112,434
205615,245,372,765,117,224,311,313,204,367,162,251,469,406,112,266,267,146,-40,-126,91,99,227,-76,137,44,319,249,-28,214,468,92,468
205616,219,333,708,95,221,399,236,212,374,180,259,480,423,108,266,513,176,-14,-143,44,-29,262,-40,151,47,272,156,-1,247,436,73,377
205617,213,292,696,148,237,483,146,249,373,221,306,469,426,107,276,345,123,-10,-140,66,-8,227,-56,162,39,253,103,-6,251,413,52,301
205618,213,275,669,132,244,427,138,261,394,213,287,442,422,100,265,265,66,-13,-115,83,34,280,-78,156,34,286,174,15,272,452,108,438
205619,199,301,617,123,213,406,153,256,378,194,286,481,410,112,252,280,105,-2,-110,55,33,258,-46,149,32,281,173,24,271,460,105,410
205620,212,378,657,136,223,360,125,272,376,170,295,550,419,109,260,264,180,11,-108,52,45,286,-24,173,37,273,224,6,255,433,59,226
205621,252,436,749,197,244,370,141,325,384,176,333,624,448,107,250,254,146,38,-113,48,23,191,-23,170,18,256,209,-65,216,337,-20,198
205622,252,447,780,227,268,420,178,335,404,206,361,597,452,103,261,264,166,17,-120,39,12,102,-30,156,-1,217,119,-22,226,356,26,295
205623,179,349,751,219,241,365,189,323,400,165,319,597,452,99,237,238,235,49,-115,26,6,70,12,178,18,225,122,65,294,419,58,360
205624,191,302,751,221,259,324,212,354,400,163,301,621,485,115,248,224,270,99,-100,46,25,182,47,215,57,291,166,61,324,474,80,437
205625,172,291,747,192,250,356,218,351,406,184,362,554,482,110,273,226,212,65,-110,47,30,213,7,209,56,286,171,96,322,484,121,393
205626,149,240,750,161,233,374,110,371,380,156,352,530,441,94,277,234,180,40,-114,36,23,216,-11,217,32,286,199,149,324,487,116,351
205627,85,235,731,209,233,365,34,430,410,164,356,548,479,98,265,224,199,61,-107,46,8,250,-3,220,38,308,202,94,315,499,137,239
205628,31,254,625,246,209,468,-10,472,408,179,396,459,453,90,268,197,120,14,-127,41,20,281,-23,195,29,283,218,-109,258,460,125,279
205629,85,269,461,207,194,487,0,475,379,170,359,400,441,98,284,163,78,0,-136,26,4,226,-53,191,21,273,165,-166,264,492,136,451
205630,185,273,505,181,215,397,100,380,392,178,317,521,455,123,304,151,122,46,-95,73,4,205,22,236,73,301,136,11,321,544,187,543
205631,267,397,623,206,228,325,221,371,404,175,350,606,460,121,300,221,108,58,-95,77,33,248,26,238,75,311,141,-21,279,508,164,473
205632,298,502,690,224,242,326,254,419,422,151,289,560,472,127,279,253,233,72,-104,86,47,196,57,244,63,326,187,70,307,512,143,421
205633,264,493,749,179,238,330,281,340,401,135,308,429,439,115,282,211,252,20,-131,63,8,100,20,208,40,290,192,81,277,488,148,285
205634,307,538,799,218,246,310,336,382,419,149,247,480,467,124,288,260,319,72,-112,88,29,174,65,244,64,330,241,148,333,541,156,316
205635,328,551,807,174,245,302,326,287,412,136,239,538,453,119,292,285,465,118,-83,101,71,167,150,293,100,354,258,203,369,558,195,297
205636,334,465,782,199,245,344,312,319,413,158,320,552,451,125,302,324,401,121,-75,109,115,25,141,287,118,357,331,139,343,529,169,23
205637,326,367,683,206,251,421,259,344,394,169,358,579,481,104,313,337,284,128,-83,78,123,136,138,280,104,358,343,42,348,556,201,410
205638,312,331,714,194,237,463,113,372,392,156,302,602,499,102,302,309,310,155,-85,81,90,170,238,327,104,341,291,139,409,598,241,470
205639,294,379,823,224,244,411,157,397,416,145,301,611,502,95,292,295,365,174,-64,91,97,183,282,326,94,330,278,153,420,588,226,317
205640,272,384,800,198,233,277,217,351,413,136,288,521,487,88,242,-12,222,119,-100,74,85,283,200,283,82,323,273,155,399,567,238,383
205641,274,368,828,174,231,282,199,325,410,128,281,500,494,93,242,-117,140,85,-111,64,56,302,98,283,75,315,192,228,414,604,224,603
205642,272,433,876,216,246,256,263,317,416,132,278,518,502,97,241,248,153,73,-100,44,22,339,-46,253,65,316,164,280,393,594,237,661
205643,245,413,787,216,250,296,289,333,410,156,310,481,489,93,237,504,151,61,-121,17,-97,331,-87,247,66,294,157,383,408,572,240,612
205644,159,384,727,186,249,315,196,301,396,162,299,470,466,78,241,344,147,46,-124,31,-62,206,-62,256,81,284,141,309,420,567,247,509
205645,141,396,751,205,247,360,253,319,395,174,340,548,479,78,223,265,153,56,-120,40,-25,139,-52,246,65,276,121,195,370,537,192,435
205646,225,347,785,214,246,410,223,368,405,170,367,600,496,79,233,309,171,72,-102,31,3,224,-33,207,40,288,168,137,340,504,158,428
205647,204,359,778,218,234,419,166,356,408,176,352,571,493,74,259,299,221,69,-111,23,-5,198,-27,216,38,282,173,168,354,489,133,439
205648,201,324,771,244,236,440,155,389,413,172,326,526,502,62,242,238,217,42,-136,7,-18,143,14,209,24,250,149,197,346,510,159,423
205649,224,382,661,254,240,391,149,494,430,177,331,520,529,78,253,257,182,71,-123,24,21,161,60,221,27,288,227,144,357,540,184,436
205650,191,410,564,203,242,355,176,485,421,178,349,510,528,94,260,228,175,93,-103,30,25,206,126,248,40,306,224,133,373,531,142,428
205651,233,435,680,175,217,346,177,419,395,155,354,461,508,93,257,184,187,92,-107,17,10,244,186,281,43,272,182,230,420,507,159,355
205652,255,411,764,179,212,329,151,376,403,144,284,577,517,68,240,170,246,129,-112,8,-2,257,189,283,48,273,196,45,398,500,159,429
205653,189,408,836,218,222,352,136,369,412,139,215,655,518,90,202,119,253,148,-99,5,-57,200,176,269,39,264,152,-72,347,507,148,409
205654,165,386,832,149,227,322,108,352,400,124,260,594,491,84,210,121,174,109,-109,6,-43,199,97,226,27,261,225,-87,310,468,87,292
205655,185,426,781,157,230,339,90,338,404,167,267,510,478,87,212,133,205,75,-125,-1,-13,205,50,190,23,269,217,-261,278,440,74,371
205656,154,387,718,197,225,410,105,414,424,195,268,524,492,110,227,230,285,92,-121,11,0,172,47,179,20,267,183,-59,307,462,133,454
205657,160,358,666,244,226,343,126,468,410,187,299,521,496,84,263,244,285,116,-117,17,38,178,77,217,30,280,248,115,337,459,116,383
205658,225,355,727,233,236,341,145,458,406,196,281,557,522,80,273,248,281,122,-112,29,47,169,109,221,21,285,262,16,343,448,92,295
205659,235,410,807,217,244,369,164,454,408,196,269,612,519,75,253,247,291,169,-106,24,20,164,187,251,14,267,191,-100,350,460,84,344
205660,288,419,843,182,237,394,182,307,393,191,254,624,485,90,238,225,196,161,-92,27,4,219,161,239,31,282,182,-6,315,442,91,390
205661,279,390,843,200,227,364,135,272,398,169,257,607,478,83,228,174,242,123,-107,11,-6,177,78,215,16,254,132,50,273,424,62,432
205662,287,438,813,168,237,367,182,306,397,188,333,536,467,90,239,169,277,84,-105,12,-5,218,-9,206,28,255,100,121,263,423,83,409
205663,307,407,819,150,233,405,187,320,392,193,293,502,457,116,239,166,213,84,-90,31,-10,270,-31,241,37,278,125,241,305,465,122,406
205664,312,406,815,174,239,317,153,326,412,156,213,456,465,131,229,191,217,41,-76,49,2,311,-101,210,63,283,175,318,332,490,122,424
205665,307,405,790,158,220,246,90,303,407,145,223,395,428,121,224,213,121,-13,-100,47,4,255,-199,170,52,281,185,173,266,471,120,396
205666,286,411,749,144,219,236,-9,274,385,161,288,414,427,132,254,200,98,-5,-111,62,7,188,-203,154,42,292,190,181,258,440,87,373
205667,257,418,713,142,221,285,-54,246,371,165,376,472,443,137,302,230,151,10,-108,83,44,228,-163,169,37,323,255,180,284,435,83,351
205668,233,358,677,117,184,357,35,235,365,181,464,467,429,142,316,186,152,3,-143,81,57,201,-141,178,32,312,273,153,269,436,83,226
205669,232,272,630,123,190,406,175,277,373,207,336,469,439,146,319,-89,195,18,-114,108,136,159,-98,216,41,337,306,176,262,435,78,147
205670,214,259,604,114,177,370,224,296,352,178,260,458,440,138,293,42,225,37,-93,87,134,207,-53,214,60,351,307,132,266,451,104,423
205671,177,331,541,183,183,329,182,387,371,170,280,493,462,136,258,371,234,44,-95,65,30,172,-27,223,61,291,158,134,289,454,87,504
205672,148,464,540,193,201,287,248,474,384,165,278,561,483,150,267,521,283,95,-85,69,-52,144,0,224,60,256,88,133,289,431,69,397
205673,157,513,646,166,196,315,279,441,406,175,321,639,488,151,294,338,378,113,-88,87,21,242,74,255,81,292,165,183,355,471,120,428
205674,71,484,719,181,185,319,205,373,394,169,317,685,495,134,295,220,371,131,-89,60,16,205,131,279,76,285,190,300,360,481,111,417
205675,95,445,725,172,206,365,197,352,384,185,294,650,481,153,310,242,341,129,-71,64,30,255,113,255,81,299,202,235,354,461,111,417
205676,140,444,717,105,193,380,154,271,352,174,328,563,446,141,324,293,246,67,-91,66,76,293,44,217,84,306,212,57,296,432,106,403
205677,200,395,773,99,177,404,197,234,390,163,343,570,463,158,311,317,232,122,-70,93,79,298,147,268,98,319,252,132,344,466,127,409
205678,221,328,814,100,167,436,253,233,372,163,401,579,443,129,310,324,215,133,-94,80,88,137,185,265,61,300,227,20,295,423,35,337
205679,216,344,790,115,173,435,261,251,369,184,442,542,470,131,330,362,147,104,-98,88,109,145,122,232,73,316,255,-129,279,441,94,358
205680,186,362,772,157,166,327,196,289,396,163,310,506,500,140,292,293,222,117,-59,89,86,301,165,272,89,336,313,-54,349,518,152,420
205681,205,409,766,149,177,285,173,310,403,128,248,445,503,147,255,197,243,96,-61,99,52,289,114,268,92,322,259,-26,352,493,154,407
205682,246,425,756,152,206,349,194,320,395,151,266,455,491,161,266,186,245,81,-64,103,46,265,79,273,92,333,202,107,379,527,173,495
205683,244,341,704,132,192,408,156,383,402,160,258,471,488,158,284,246,201,74,-67,117,59,297,27,254,126,340,182,63,368,524,185,517
205684,203,295,658,43,193,502,46,272,387,192,280,455,468,171,307,230,232,57,-76,115,62,277,59,239,146,343,228,57,366,530,174,457
205685,41,270,639,83,178,461,18,279,395,205,295,453,462,162,295,206,285,52,-95,106,29,271,23,218,112,340,228,87,321,467,111,369
205686,72,293,598,179,190,297,76,359,406,189,290,511,487,148,255,237,314,101,-64,88,2,242,90,258,124,327,192,184,375,472,132,320
205687,182,463,617,197,206,259,184,295,402,156,322,527,468,146,249,297,274,106,-86,70,15,272,121,244,112,320,223,134,329,451,75,296
205688,276,556,656,204,204,301,232,289,404,153,290,507,476,149,261,280,238,69,-96,64,33,246,50,218,118,315,187,37,290,444,62,341
205689,339,510,642,130,196,327,277,237,376,161,326,466,450,133,258,248,158,8,-115,62,-3,186,-61,167,75,275,124,-129,234,400,39,354
205690,324,336,635,122,189,312,228,205,378,158,298,482,460,138,263,249,138,47,-111,65,15,234,-3,195,78,317,176,-106,289,467,104,407
205691,265,256,621,121,217,333,231,230,406,190,279,497,474,172,289,297,196,80,-82,85,42,214,109,240,118,340,246,-83,327,478,111,378
205692,222,359,608,97,191,351,200,205,380,168,273,474,456,134,265,143,148,33,-111,55,-3,199,78,190,78,288,196,-156,256,420,39,335
205693,211,446,609,137,195,357,156,232,388,167,259,535,446,136,260,-202,93,18,-110,29,-1,182,-21,178,64,264,120,-69,237,395,34,356
205694,208,545,658,206,216,335,176,280,396,168,255,583,471,144,254,-73,115,26,-104,48,42,172,-89,180,75,267,130,91,280,443,82,406
205695,238,516,664,226,223,301,207,293,410,138,232,522,484,137,255,327,64,34,-101,54,-33,116,-99,172,91,259,160,146,306,461,77,393
205696,265,487,666,223,231,300,154,295,423,143,242,433,477,145,243,490,138,26,-93,52,-74,132,-29,205,84,261,220,364,356,439,82,61
205697,300,428,665,221,237,395,131,315,417,151,250,421,467,158,276,375,204,30,-83,91,69,213,-29,231,127,360,483,280,369,529,177,18
205698,292,374,694,206,198,428,99,302,404,137,318,419,460,133,262,187,249,5,-105,48,40,145,-58,207,101,300,382,211,334,537,190,363
205699,286,376,701,189,223,429,30,311,412,156,338,430,459,139,275,216,271,19,-81,59,34,76,41,225,82,298,330,61,330,496,132,161
205700,273,381,644,226,229,410,19,390,411,144,317,502,481,135,267,246,309,73,-85,67,33,106,128,245,90,286,344,-15,305,445,72,250
205701,269,371,636,218,215,376,82,437,432,129,318,559,508,134,245,179,280,97,-83,27,-34,163,160,244,72,236,71,-123,303,410,45,485
205702,346,447,753,245,240,347,166,406,428,122,292,536,506,143,238,135,143,79,-62,35,-36,244,133,234,67,242,45,-126,297,445,98,470
205703,343,507,776,229,259,330,213,356,441,147,304,473,498,146,256,167,159,62,-74,56,-16,259,85,214,72,266,78,49,277,484,118,505
205704,350,497,751,207,269,360,167,352,438,164,361,459,484,161,272,158,208,51,-107,46,-29,218,48,213,68,272,66,90,302,492,139,481
205705,355,524,747,240,272,348,175,376,437,169,382,440,473,128,248,168,142,25,-105,44,-2,245,-72,193,53,273,135,-12,298,499,143,508
205706,269,483,708,248,250,374,211,399,432,158,340,422,472,110,237,187,125,-1,-105,30,-9,209,-93,184,33,273,151,-104,249,478,108,505
205707,203,473,725,273,256,406,188,393,431,184,358,442,474,130,258,220,103,29,-113,21,1,195,-61,199,31,268,175,-98,274,483,107,377
205708,222,520,688,279,260,387,162,343,429,177,347,472,491,126,272,243,99,64,-110,22,49,284,34,222,46,289,282,-90,306,494,151,343
205709,253,542,650,250,255,336,150,382,417,166,307,482,492,128,277,214,143,75,-115,34,57,285,79,227,45,289,277,-1,326,500,137,472
205710,289,512,653,270,251,312,187,422,411,148,299,480,490,110,264,219,166,57,-122,0,30,188,112,208,33,272,159,24,318,478,124,429
205711,296,428,684,255,246,437,199,404,418,163,313,474,490,114,276,247,144,50,-122,37,46,204,35,197,49,294,198,108,316,486,146,371
205712,296,376,751,215,242,480,220,298,403,179,347,497,458,102,279,246,102,34,-125,37,40,184,3,167,37,289,146,236,300,458,105,376
205713,332,391,783,217,245,459,181,262,406,176,336,514,457,113,293,244,130,34,-137,44,52,179,0,186,54,294,180,202,307,482,104,319
205714,344,446,804,212,247,411,234,315,419,162,343,502,462,123,307,310,154,43,-103,74,98,262,32,216,87,323,280,150,321,502,158,329
205715,307,473,764,207,252,383,226,379,448,159,323,511,492,126,261,290,192,60,-103,57,40,265,59,218,76,319,282,119,333,492,141,309
205716,242,404,728,305,258,401,251,422,454,137,306,578,531,126,236,236,192,61,-105,59,5,206,4,227,67,297,237,182,338,506,114,401
205717,199,467,780,316,264,356,237,432,455,109,273,668,537,123,223,229,207,90,-95,37,-13,85,10,245,47,253,96,170,314,479,124,414
205718,138,591,706,293,264,341,274,438,450,132,310,666,533,118,247,259,220,72,-100,43,-6,118,-46,233,57,252,81,240,302,485,135,384
205719,191,570,624,268,234,366,255,419,448,144,383,613,516,133,245,225,258,70,-83,52,13,201,-45,239,67,285,132,292,353,528,157,443
205720,214,468,665,240,228,411,206,393,444,145,271,518,496,141,229,7,216,88,-84,47,5,200,12,229,73,291,158,165,327,490,124,373
205721,195,409,774,247,227,455,142,440,443,164,314,546,517,125,254,-231,287,131,-94,48,52,164,139,242,63,290,156,84,347,478,124,309
205722,299,498,870,261,226,393,183,548,452,168,362,638,564,124,258,68,349,190,-63,26,50,178,280,289,63,283,129,197,400,452,132,319
205723,373,546,914,259,250,406,189,492,437,156,346,610,533,131,238,409,182,158,-81,21,-67,211,209,234,38,250,115,-133,327,467,127,401
205724,272,498,871,230,239,439,119,352,411,180,359,594,514,108,258,416,442,226,-69,44,-65,139,405,278,77,288,144,-34,374,503,154,183
205725,263,533,794,183,238,408,146,296,390,179,377,582,501,137,289,324,291,207,-63,56,82,32,351,311,110,373,363,-143,404,528,158,-68
205726,276,512,715,192,225,400,200,339,406,176,348,525,505,151,293,340,34,145,-84,86,97,43,217,295,111,374,392,-250,364,551,194,252
205727,270,535,689,238,221,359,251,418,409,156,280,439,490,138,299,307,-36,87,-86,97,104,146,71,257,122,382,412,15,337,539,182,281
205728,284,572,623,253,226,343,236,427,405,156,305,367,490,135,285,243,47,56,-86,83,58,124,0,242,136,339,255,280,344,568,192,482
205729,283,544,570,220,213,374,126,391,406,155,327,441,498,144,287,219,188,100,-69,94,19,116,46,270,148,327,154,220,382,592,221,495
205730,226,449,597,188,180,403,151,401,398,136,324,507,502,140,265,171,219,146,-56,78,-3,92,242,300,123,308,112,-55,411,578,226,405
205731,237,401,562,211,202,405,72,405,412,153,296,479,497,139,267,190,164,99,-67,90,14,34,117,268,133,315,94,-217,387,615,252,454
205732,238,409,554,164,203,363,44,353,400,142,282,396,477,134,271,297,49,8,-117,76,136,99,-49,193,111,340,389,-327,254,570,202,34
205733,215,332,522,139,197,424,59,299,387,141,306,376,451,127,307,243,-43,-22,-109,87,191,177,-75,153,98,411,780,-197,197,473,109,-373
205734,273,394,566,110,219,414,104,203,389,177,352,425,466,142,305,184,-10,-11,-73,98,103,179,-146,199,115,383,380,96,272,510,146,227
205735,323,447,692,138,227,375,211,361,396,170,323,579,497,148,268,145,26,57,-57,63,-22,197,-85,210,98,275,-202,0,298,546,183,747
205736,299,401,682,193,235,396,276,546,429,182,325,661,531,144,271,171,143,113,-41,66,0,133,41,249,103,299,-55,-262,317,568,199,568
205737,270,358,725,257,247,349,286,554,465,178,324,688,585,173,312,226,380,239,21,99,55,152,394,352,154,368,125,-234,436,614,233,396
205738,149,394,672,223,245,331,255,423,453,166,339,602,553,153,313,262,283,214,20,112,59,181,381,374,163,386,170,96,458,615,228,484
205739,-138,389,571,326,242,449,189,434,438,189,362,547,511,161,321,238,184,140,-19,101,57,168,105,289,144,357,100,122,406,610,260,580
205740,-7,390,570,315,242,424,210,407,436,193,401,482,493,151,338,285,172,91,-36,89,86,156,-5,262,133,365,89,137,388,610,251,538
205741,142,427,594,268,222,411,175,439,436,194,397,600,530,147,339,270,299,159,-18,107,88,78,117,311,147,369,145,47,408,619,266,435
205742,218,459,718,279,226,459,143,428,436,216,361,702,563,157,349,267,307,294,3,121,147,139,484,391,166,400,392,-58,471,580,197,-30
205743,310,513,734,237,233,403,145,357,409,197,336,591,535,149,329,265,36,252,0,134,164,262,548,410,185,446,504,154,563,603,234,301
205744,345,540,725,218,230,376,186,388,425,191,346,557,513,174,307,234,138,187,6,126,91,259,269,373,201,402,180,-5,511,690,330,809
205745,355,491,806,221,234,397,232,348,427,204,421,529,480,196,323,225,-35,74,-10,120,86,262,-2,282,164,365,135,-319,342,645,286,686
205746,356,511,790,190,232,416,266,292,408,236,439,448,421,173,337,243,-158,-41,-64,118,64,278,-289,214,148,361,193,58,307,594,214,575
205747,278,617,726,170,222,389,288,295,408,214,368,392,405,169,329,220,-135,-78,-75,130,108,247,-371,199,148,402,308,374,326,582,205,461
