,Fp1,Fp2,F7,F3,Fz,F4,F8,FC5,FC1,FC2,FC6,T7,C3,Cz,C4,T8,TP9,CP5,CP1,CP2,CP6,TP10,P7,P3,Pz,P4,P8,PO9,O1,Oz,O2,PO10
90496,237,328,288,170,-161,353,276,239,33,60,16,230,303,-128,174,300,143,-59,-69,46,64,364,159,30,39,286,270,-39,109,14,-5,-73
90497,261,403,349,187,-143,368,269,259,34,72,63,185,309,-123,195,342,162,-59,-58,39,68,352,203,53,74,297,273,-12,136,33,23,-5
90498,201,420,416,161,-131,433,231,234,27,87,76,171,323,-114,202,340,189,-54,-58,48,96,402,190,56,81,318,369,-116,103,28,60,144
90499,144,376,382,122,-138,457,212,128,-12,105,211,160,287,-131,204,276,125,-44,-102,17,58,382,81,-3,24,289,348,-253,22,-48,7,119
90500,152,329,402,118,-138,497,261,160,-23,99,195,207,259,-139,216,343,53,-87,-102,19,95,332,74,-6,1,310,397,-280,-23,-65,11,82
90501,117,272,395,129,-140,372,283,177,-3,103,125,192,291,-130,229,319,74,-86,-76,36,124,412,182,31,35,336,424,-142,74,28,115,224
90502,44,213,313,121,-158,68,138,132,-3,134,196,127,274,-129,246,158,51,-146,-100,28,82,348,161,5,31,319,387,-173,63,26,87,202
90503,116,266,330,146,-154,109,214,124,-10,120,104,200,263,-136,258,198,-12,-134,-102,39,142,391,69,-5,40,344,413,-278,-1,-18,52,167
90504,173,317,299,127,-169,304,261,227,-4,91,82,159,275,-147,247,261,89,-103,-102,37,149,394,119,13,22,327,376,-174,31,-6,72,170
90505,210,354,406,206,-124,405,354,302,31,82,25,186,321,-129,211,288,225,-89,-64,32,120,392,238,43,55,336,424,-149,84,39,101,250
90506,158,293,380,256,-133,416,427,242,42,85,73,231,328,-107,237,249,200,-58,-59,46,142,256,267,69,57,336,436,-57,156,88,140,283
90507,131,302,290,226,-156,370,417,134,23,71,105,166,300,-107,237,189,153,-48,-71,57,124,345,255,80,73,354,451,39,238,155,183,267
90508,108,302,299,224,-177,346,392,286,31,82,111,204,344,-101,239,253,191,-20,-41,72,138,320,307,129,87,389,483,142,316,183,188,279
90509,149,253,357,197,-162,368,341,292,31,64,92,254,333,-113,230,336,230,-1,-43,53,116,414,329,130,75,359,420,131,304,123,125,285
90510,190,226,399,182,-149,367,321,278,46,82,74,270,350,-116,201,348,186,-14,-64,49,97,470,245,69,28,307,402,-162,92,3,68,194
90511,176,240,398,132,-171,341,291,278,33,63,69,218,335,-140,199,298,159,-32,-67,52,105,444,242,77,29,302,409,-111,97,-2,81,201
90512,185,316,274,111,-156,264,315,291,34,86,118,309,341,-113,235,360,186,-19,-42,97,155,486,322,135,83,367,460,16,210,88,167,316
90513,242,324,389,260,-158,287,366,417,41,83,136,335,373,-115,239,436,230,-9,-47,83,153,522,308,124,60,340,451,-46,180,54,126,281
90514,279,338,398,320,-156,355,399,526,45,91,117,307,372,-90,237,391,243,4,-29,76,156,615,334,121,91,372,516,-8,223,105,158,355
90515,181,381,368,259,-169,306,363,366,27,85,181,416,343,-113,253,373,259,23,-43,80,181,547,409,138,96,402,530,217,317,172,215,399
90516,180,370,370,218,-155,265,389,353,40,108,195,353,348,-107,284,438,177,14,-47,85,204,525,422,146,104,397,545,293,350,184,223,382
90517,205,329,368,168,-135,381,461,302,37,120,171,342,353,-122,263,420,186,16,-51,76,141,558,374,114,80,368,515,43,237,102,171,336
90518,219,332,415,125,-136,439,480,352,23,111,163,327,342,-132,237,393,249,-13,-64,62,167,555,344,83,65,369,493,-32,138,62,138,259
90519,238,276,437,183,-143,423,287,281,37,98,259,327,342,-108,263,388,318,17,-55,90,195,562,376,112,78,386,502,35,199,89,150,259
90520,223,256,342,216,-153,423,193,191,13,93,262,253,316,-125,264,428,313,24,-49,66,198,527,369,115,61,380,551,36,195,78,148,301
90521,104,272,364,199,-171,277,153,249,37,80,210,231,339,-128,250,412,284,22,-62,46,177,474,380,82,41,350,590,-63,114,1,76,262
90522,52,336,388,192,-167,277,247,220,19,100,224,219,309,-117,264,431,294,-37,-67,42,175,461,349,74,41,351,573,-46,136,20,107,288
90523,115,340,400,176,-143,498,397,183,4,96,175,198,292,-114,268,284,303,-37,-64,80,152,419,325,104,66,373,492,81,226,95,185,414
90524,104,317,381,151,-152,547,292,219,5,97,148,295,305,-151,221,229,283,-56,-70,52,132,400,342,84,51,372,530,80,202,88,140,258
90525,148,309,330,187,-152,349,193,305,31,66,289,387,321,-142,192,416,232,-37,-86,10,101,435,354,64,7,332,486,27,178,51,114,248
90526,212,235,362,206,-165,0,150,291,25,55,153,260,315,-140,189,331,235,-12,-90,-1,97,417,337,50,-1,322,453,85,181,46,89,158
90527,252,217,418,222,-168,31,327,233,30,49,104,209,322,-134,213,285,206,-14,-71,10,117,505,328,75,20,296,466,77,219,69,111,242
90528,276,296,431,196,-150,316,379,273,23,63,165,251,338,-95,220,362,165,-4,-45,55,147,469,404,104,37,329,544,47,214,79,126,228
90529,285,378,450,135,-167,377,326,253,26,72,167,254,359,-89,228,361,158,57,-30,69,180,469,705,142,65,369,582,17,240,113,184,394
90530,234,406,435,121,-205,337,497,209,36,34,-79,229,341,-105,215,283,149,24,-27,68,170,564,429,134,81,365,516,87,289,170,215,511
90531,136,228,325,98,-182,298,423,173,6,62,13,190,304,-112,225,240,147,-13,-42,63,176,495,255,123,60,347,501,214,308,165,182,337
90532,138,165,338,103,-154,220,371,122,8,64,103,197,304,-110,225,301,144,-52,-48,41,138,395,223,110,45,292,432,209,285,93,120,124
90533,141,276,379,121,-162,255,343,191,10,58,128,159,303,-113,216,383,267,-75,-74,32,111,386,246,59,37,285,430,77,210,60,125,228
90534,96,272,281,120,-194,300,258,226,-3,74,95,180,301,-99,230,429,336,-66,-69,46,142,488,205,60,44,345,497,44,230,100,168,302
90535,123,262,341,118,-176,309,273,187,0,59,63,228,285,-105,220,410,238,-72,-70,27,124,572,259,76,25,353,461,206,249,117,133,149
90536,106,261,353,137,-179,347,342,190,3,70,99,286,280,-126,227,404,210,-62,-69,28,145,547,284,70,6,344,495,178,252,116,153,260
90537,58,282,294,105,-171,350,413,217,19,84,74,275,307,-95,245,372,222,-51,-53,79,176,537,310,103,68,366,564,182,290,156,213,407
90538,73,291,312,137,-180,322,391,226,32,86,118,114,332,-116,237,350,115,-94,-74,57,145,572,186,30,26,332,521,-178,84,-4,84,284
90539,81,335,321,170,-181,310,375,244,33,92,164,104,323,-121,247,339,138,-61,-79,48,158,568,169,17,2,326,542,-221,13,-39,57,182
90540,118,348,298,169,-185,217,403,297,16,85,111,103,283,-133,243,348,131,-103,-94,59,149,474,243,33,15,321,503,5,150,41,73,127
90541,152,298,235,76,-191,197,346,292,9,79,113,133,295,-141,234,368,206,-96,-95,41,148,429,268,53,18,332,480,104,173,65,88,194
90542,134,268,227,52,-165,-35,348,171,-2,62,149,197,295,-142,231,339,220,-55,-83,43,183,477,299,63,20,375,539,223,235,94,134,244
90543,95,231,249,131,-178,451,228,151,-12,91,97,198,305,-134,229,350,133,-34,-66,49,186,502,344,98,40,408,591,262,298,121,166,217
90544,-18,199,251,108,-180,542,199,191,0,109,54,229,311,-137,219,405,100,-60,-82,20,107,484,284,45,2,342,503,-1,210,101,166,368
90545,-23,225,308,136,-170,255,193,179,-2,97,236,299,292,-154,192,475,122,-114,-121,-4,111,493,137,-33,-52,298,487,-341,-6,-39,108,388
90546,27,231,301,150,-168,188,234,185,-10,72,216,151,301,-157,181,337,186,-76,-117,4,113,435,172,-7,-44,291,491,-179,3,-73,48,184
90547,4,200,208,115,-173,334,226,181,-4,84,126,37,281,-162,208,253,135,-56,-113,-18,124,429,164,19,-37,277,454,-158,81,-35,36,88
90548,22,241,263,176,-170,204,256,248,5,86,94,235,308,-158,229,179,221,-33,-98,-12,132,456,219,45,-2,289,426,-125,115,8,93,253
90549,5,252,364,226,-171,104,330,334,43,65,58,228,350,-145,209,277,258,-4,-61,37,155,453,298,89,27,341,520,13,199,97,165,359
90550,45,347,408,216,-167,257,329,373,55,53,76,186,345,-136,197,378,233,-23,-45,43,171,474,349,99,42,363,559,58,259,153,217,398
90551,120,353,397,163,-170,282,350,291,42,31,29,206,331,-145,186,387,254,-13,-55,35,146,611,349,94,37,331,553,30,241,129,198,334
90552,173,259,348,164,-164,297,314,235,28,23,-17,256,350,-148,155,364,256,16,-68,15,124,558,404,116,43,315,504,295,325,148,156,322
90553,178,266,390,183,-175,338,304,264,36,53,42,337,353,-118,165,363,223,-6,-24,27,130,483,471,156,74,330,517,464,448,214,203,336
90554,178,345,370,225,-173,352,336,321,30,60,29,362,331,-109,197,412,276,-12,-42,38,178,452,361,104,47,333,541,-39,221,82,136,298
90555,172,254,303,182,-189,204,323,323,22,54,31,298,326,-122,184,316,311,-8,-55,42,160,373,292,61,44,323,503,-205,130,30,115,301
90556,101,178,335,169,-195,128,239,125,13,71,70,289,328,-117,201,172,258,4,-59,33,119,401,296,55,27,307,465,-128,92,9,90,267
90557,74,213,329,138,-215,197,233,99,6,46,90,257,315,-134,190,196,195,-47,-74,16,68,431,299,55,-2,249,370,-137,50,-74,-11,96
90558,104,233,287,157,-198,361,283,245,33,51,-21,228,303,-116,167,303,329,-42,-60,32,70,386,361,87,29,290,422,4,151,9,65,181
90559,62,289,179,157,-202,402,272,213,9,57,73,245,315,-123,180,353,370,-52,-69,24,95,483,359,94,36,302,449,128,247,94,135,237
90560,125,238,167,111,-203,327,287,312,11,63,114,272,335,-120,178,349,291,4,-71,17,109,466,372,102,31,299,429,187,289,104,134,229
90561,148,195,237,87,-204,321,255,350,27,80,165,284,317,-118,193,313,301,19,-71,24,115,485,338,98,27,289,435,49,207,72,109,221
90562,148,221,294,136,-191,311,296,353,24,68,238,332,331,-125,223,412,214,0,-75,15,133,495,295,68,18,289,488,-150,62,0,91,296
90563,129,253,349,105,-195,220,409,304,12,39,-46,277,341,-111,180,386,249,13,-66,20,133,466,361,87,44,303,518,39,161,69,137,384
90564,101,321,445,7,-194,223,256,185,6,76,10,253,344,-93,189,346,259,18,-41,49,136,480,346,91,45,306,464,-45,172,94,149,353
90565,141,352,431,-70,-180,230,352,18,5,90,70,305,335,-91,211,365,266,10,-54,40,125,523,334,89,49,313,475,-114,183,97,143,316
90566,115,229,406,43,-202,298,385,62,-20,56,87,291,296,-118,184,254,247,-16,-91,7,86,455,331,59,11,264,433,-28,139,25,74,274
90567,82,274,401,142,-167,266,401,126,-9,60,139,285,289,-130,193,245,216,-34,-93,15,67,417,295,39,13,261,382,-45,81,-38,21,237
90568,30,302,378,179,-179,206,287,165,-3,36,60,279,303,-117,180,330,250,-25,-67,25,105,501,314,54,37,293,444,-6,136,27,112,349
90569,-7,237,361,173,-202,240,248,195,-10,49,66,284,304,-110,170,353,261,-17,-73,24,109,395,331,61,44,312,467,41,170,64,126,327
90570,-31,162,334,125,-198,229,150,180,-14,53,56,280,298,-121,184,309,237,-22,-52,28,97,433,348,112,57,308,448,136,242,101,143,285
90571,52,242,288,138,-179,139,191,210,-21,62,159,279,310,-125,188,349,212,-3,-30,46,95,490,372,135,85,344,445,233,321,167,192,324
90572,142,292,341,158,-193,140,200,250,-3,55,53,270,315,-110,190,386,233,17,-11,65,104,476,368,123,85,353,443,168,308,188,206,328
90573,99,334,335,199,-197,333,187,335,18,84,-11,240,343,-108,203,234,222,-18,-48,46,128,427,262,80,50,315,437,-160,93,-1,80,285
90574,91,280,218,196,-195,407,201,345,-5,58,-10,247,322,-126,181,189,203,-43,-63,27,109,330,293,58,36,285,405,-79,70,-46,73,276
90575,78,171,248,163,-209,365,176,298,-22,63,-19,293,315,-142,178,291,251,-43,-70,33,92,332,280,55,32,278,415,29,144,67,153,348
90576,9,214,302,182,-188,370,199,250,8,94,38,208,335,-111,199,257,263,-19,-51,24,82,427,253,36,26,270,416,45,145,37,81,323
90577,16,251,341,155,-186,287,211,141,3,72,73,199,320,-132,194,202,223,3,-69,34,82,454,564,69,23,262,389,-12,149,8,46,182
90578,109,296,385,140,-181,-72,142,168,-1,84,111,272,327,-136,201,177,251,4,-66,45,139,501,438,78,33,267,459,-51,138,11,11,115
90579,131,202,408,131,-197,59,257,223,9,97,201,279,316,-130,229,99,270,-8,-68,47,118,493,112,74,26,274,501,75,167,29,-1,-158
90580,112,213,296,100,-222,194,398,281,3,92,98,300,323,-124,201,203,251,-12,-73,25,67,456,97,59,22,243,289,76,183,38,13,-27
90581,68,202,198,78,-195,253,349,244,-10,73,45,318,327,-121,187,265,289,-8,-72,39,65,414,220,95,51,278,334,232,260,89,88,140
90582,59,109,255,130,-174,391,344,270,10,74,-9,220,344,-117,185,296,354,-23,-39,50,75,477,344,148,83,289,338,404,377,175,177,216
90583,10,103,238,132,-195,323,389,326,10,53,21,166,330,-125,152,271,365,-59,-56,42,38,432,308,110,77,269,337,276,343,211,216,279
90584,35,160,219,140,-195,313,392,384,13,56,74,231,312,-112,179,252,278,-61,-55,47,69,400,257,91,75,288,371,65,252,142,137,200
90585,18,135,215,154,-191,341,383,441,25,69,51,124,325,-116,190,296,210,-108,-82,28,80,394,161,9,7,230,318,-317,-5,-78,-46,74
90586,-6,158,241,135,-196,300,318,360,16,51,-27,111,293,-156,145,325,224,-84,-107,-24,25,371,202,-43,-44,159,249,-233,-100,-160,-100,47
90587,-7,215,273,56,-209,315,255,291,1,39,-50,237,289,-135,161,344,217,-48,-114,-10,27,330,243,4,-6,189,282,-132,-1,-85,-35,108
90588,-54,150,281,36,-196,272,243,152,-17,56,-34,299,290,-129,154,326,173,-35,-124,0,32,287,226,0,-3,192,254,-232,-11,-113,-58,49
90589,-11,110,314,87,-207,266,146,76,-36,62,18,274,255,-143,163,298,189,-38,-106,3,48,393,253,27,3,231,390,-93,30,-62,-14,78
90590,19,113,317,97,-212,307,75,50,-40,72,126,282,257,-135,163,285,182,-32,-102,8,56,426,316,40,7,247,370,76,110,-2,29,120
90591,21,132,339,64,-187,355,176,75,-25,73,165,260,237,-141,165,259,174,-32,-115,4,14,394,338,36,-2,221,257,180,149,38,49,175
90592,47,218,338,23,-177,509,22,25,-31,107,300,248,230,-151,200,221,162,-36,-133,-9,42,379,292,35,-7,228,334,40,140,35,47,140
90593,21,222,292,-8,-207,439,-2,38,-54,115,140,214,232,-167,171,216,177,-76,-147,-33,20,405,235,-9,-34,217,290,-105,96,7,52,166
90594,16,243,228,100,-211,-89,274,245,-27,70,-132,188,272,-155,135,185,134,-34,-96,-20,1,293,271,39,2,239,281,70,187,71,49,152
90595,31,178,212,163,-212,-54,364,399,17,33,-51,267,323,-125,147,216,231,-6,-48,6,42,249,366,81,36,248,373,201,241,95,75,159
90596,22,79,166,169,-224,231,275,317,0,54,-67,304,316,-129,142,219,272,-9,-66,3,30,384,374,79,43,255,397,118,194,95,84,198
90597,63,155,279,142,-219,137,264,204,-3,24,-93,419,326,-142,108,254,222,13,-60,5,9,423,266,99,52,248,300,-74,123,57,71,223
90598,60,234,280,148,-219,166,317,167,12,24,-26,431,354,-135,125,256,232,9,-42,13,13,435,199,91,70,278,334,-88,120,41,88,225
90599,-5,250,279,184,-229,154,258,188,4,24,-1,288,335,-115,142,264,258,-1,-50,31,64,462,320,74,63,302,397,-49,106,24,62,232
90600,7,284,325,173,-215,188,231,208,0,39,-37,289,307,-104,153,293,288,-2,-58,45,109,492,257,76,83,310,388,-162,121,40,96,237
90601,51,281,348,157,-201,391,322,244,9,37,-6,159,328,-96,162,293,246,38,-25,51,108,488,243,105,76,309,386,-58,155,82,138,243
90602,73,187,357,151,-202,343,328,230,22,48,26,223,334,-96,157,257,235,24,-31,66,71,439,311,118,85,327,438,68,220,133,176,301
90603,7,168,300,80,-224,302,267,166,17,56,90,231,310,-102,189,202,295,18,-29,68,100,472,403,128,102,363,435,234,361,202,238,336
90604,-22,253,275,83,-237,177,253,168,-2,42,78,210,311,-118,182,78,340,7,-22,70,94,456,425,149,98,357,381,239,339,185,197,222
90605,-27,197,308,119,-237,124,226,29,-30,9,-5,246,295,-117,146,30,269,-15,-40,56,86,450,366,117,94,338,392,19,223,103,150,241
90606,10,130,221,104,-242,231,210,148,-19,9,1,247,305,-112,157,235,225,7,-43,64,101,499,350,108,105,344,449,15,176,102,188,356
90607,67,174,250,95,-261,326,197,276,1,41,56,273,357,-95,192,449,304,57,-26,97,142,550,428,161,143,404,526,244,322,221,305,471
90608,46,180,230,91,-274,345,168,247,-7,48,13,233,327,-111,202,415,306,2,-39,91,142,507,367,113,118,384,521,41,270,198,331,503
90609,70,170,289,29,-226,214,69,208,-23,75,33,267,303,-89,225,378,373,-18,-43,101,149,514,344,103,114,384,492,-79,205,154,242,388
90610,91,150,312,64,-223,108,171,152,-18,87,122,313,292,-93,220,394,339,4,-38,88,149,471,381,107,91,352,445,66,254,132,121,143
90611,57,135,276,120,-220,127,194,187,-16,59,48,255,306,-111,199,326,266,-30,-49,76,131,488,348,71,54,322,405,72,230,103,73,91
90612,42,178,347,150,-227,226,242,242,-5,39,4,221,324,-118,179,341,208,-28,-60,64,125,483,299,57,63,340,447,-1,161,63,95,263
90613,26,267,310,132,-198,355,352,216,5,61,42,255,338,-93,195,339,239,-10,-35,72,97,439,329,65,68,336,475,50,138,60,118,289
90614,-2,282,251,71,-222,111,324,218,-6,38,20,234,292,-111,191,375,223,-64,-56,71,113,411,337,63,59,330,474,44,128,47,99,253
90615,-12,245,110,77,-218,-244,346,307,-2,37,8,114,345,-90,206,399,319,-38,-33,106,162,495,384,95,112,374,539,119,209,132,183,402
90616,21,253,138,27,-196,-123,301,406,17,30,-66,149,359,-79,189,417,260,-51,-8,105,145,566,288,102,116,396,570,-43,208,142,197,403
90617,17,269,262,77,-205,-77,279,393,22,7,-96,244,327,-82,171,223,205,-68,-12,94,115,432,276,92,113,375,469,7,226,144,180,292
90618,-19,157,245,89,-235,237,191,234,10,49,-23,159,341,-92,179,195,189,4,-6,78,67,398,325,114,116,333,377,174,283,183,227,382
90619,-16,101,298,83,-236,453,151,123,-8,50,-13,108,316,-110,168,232,118,-3,-30,68,60,395,376,105,119,334,388,229,295,189,237,327
90620,-5,150,308,91,-223,348,307,107,-2,46,85,245,299,-104,167,248,104,-16,-29,66,71,410,425,134,110,328,374,347,352,168,137,220
90621,67,189,285,157,-212,229,241,90,4,47,135,282,314,-117,166,247,164,-25,-34,46,41,419,482,65,65,280,322,-78,94,-62,-86,-2
90622,100,153,276,213,-226,170,216,78,-17,35,74,163,271,-119,139,240,165,-100,-79,16,4,386,341,-33,8,220,259,-620,-208,-225,-142,-111
90623,71,232,253,158,-220,172,187,102,-11,21,129,158,282,-95,147,220,161,-73,-48,32,31,318,104,58,73,245,260,-40,103,-25,-16,-27
90624,12,243,215,139,-238,230,216,108,-11,16,7,159,293,-78,153,254,153,-91,-31,59,46,279,78,89,96,285,320,43,206,60,55,162
90625,31,190,278,129,-241,247,299,79,4,13,-198,191,290,-80,138,301,140,-87,-33,55,63,261,120,58,96,278,344,-153,78,-20,9,94
90626,40,133,263,85,-241,280,272,58,-13,17,-49,171,281,-91,152,311,88,-92,-46,47,71,483,148,50,77,264,336,-147,36,-65,-36,10
90627,19,103,240,107,-239,209,313,152,3,30,-38,183,327,-82,165,265,153,-60,-14,56,44,483,228,109,109,271,247,74,201,52,-11,-124
90628,-28,130,221,99,-256,120,205,188,-15,25,-5,175,289,-102,170,151,147,-77,-38,29,28,417,188,60,69,257,222,-97,111,14,-1,22
90629,-2,169,158,109,-229,-257,111,241,-3,11,62,161,280,-100,164,144,185,-116,-67,17,29,397,120,-11,12,219,251,-426,-119,-167,-86,74
90630,-3,240,133,166,-226,299,114,310,8,58,54,165,303,-91,175,142,193,-101,-59,27,28,313,168,9,40,228,223,-170,-32,-122,-86,20
90631,-71,161,86,219,-240,374,133,332,11,69,42,236,321,-89,157,150,199,-118,-57,38,16,292,211,22,31,226,229,65,79,-88,-141,-112
90632,-49,44,94,239,-225,178,69,434,34,25,-19,175,338,-111,119,184,160,-128,-39,35,12,289,227,30,42,239,332,133,134,-46,-82,-91
90633,-94,23,155,212,-217,214,112,335,27,13,-12,-107,311,-137,125,214,77,-186,-83,8,-30,285,82,-45,-5,185,141,-277,-85,-186,-144,36
90634,-155,78,184,101,-192,281,169,65,24,32,-11,-53,249,-119,144,280,67,-234,-115,9,6,313,-23,-134,-44,170,188,-678,-306,-311,-195,8
90635,-75,77,183,94,-193,123,152,104,12,29,-5,60,285,-121,158,160,-24,-169,-75,23,29,279,103,-46,4,205,205,-354,-90,-179,-147,-56
90636,46,179,266,121,-208,-138,195,73,2,35,28,148,272,-119,147,49,72,-124,-58,34,7,323,148,-3,25,235,172,-223,-19,-128,-114,-4
90637,47,222,200,89,-212,80,227,-27,-12,74,0,210,259,-108,167,151,68,-116,-74,40,20,293,131,-13,12,219,216,-242,-21,-126,-107,19
90638,35,135,182,81,-229,375,176,-4,-29,45,11,119,240,-111,161,185,0,-145,-102,24,3,278,78,-25,-2,213,258,-234,-19,-141,-118,36
90639,42,62,165,50,-205,325,205,6,-34,46,-26,83,235,-127,135,295,-3,-178,-112,27,4,291,75,-21,0,230,276,-146,3,-107,-79,100
90640,-35,164,139,5,-200,288,266,-3,-51,41,-147,96,230,-117,140,218,11,-208,-103,36,52,298,86,-33,4,259,332,-159,0,-78,-14,163
90641,-130,266,129,-25,-215,232,318,56,-34,44,-90,140,247,-111,172,126,-6,-195,-86,55,109,281,86,-23,36,306,416,-179,25,-42,19,217
90642,-110,301,134,38,-201,237,340,106,-21,33,-44,23,265,-112,181,265,-66,-180,-75,64,134,269,41,-37,29,319,451,-195,32,-53,-22,109
90643,-70,208,135,80,-218,238,339,196,-10,44,-31,-30,256,-116,191,306,-5,-163,-97,53,115,415,30,-51,15,303,342,-183,22,-76,-8,130
90644,-63,139,156,71,-235,304,243,184,-3,43,33,-1,257,-109,208,248,97,-163,-101,34,95,299,100,-33,19,283,301,-138,28,-54,8,138
90645,-44,165,180,24,-233,173,101,57,-9,17,15,-46,249,-142,161,195,47,-197,-119,27,64,353,149,-38,6,273,287,-196,23,-66,-6,100
