,Fp1,Fp2,F7,F3,Fz,F4,F8,FC5,FC1,FC2,FC6,T7,C3,Cz,C4,T8,TP9,CP5,CP1,CP2,CP6,TP10,P7,P3,Pz,P4,P8,PO9,O1,Oz,O2,PO10
108902,136,220,409,184,-36,494,203,395,80,291,470,363,273,28,161,393,204,335,235,324,196,274,345,254,61,506,598,283,375,299,364,279
108903,69,155,345,171,-45,473,129,379,79,297,432,349,264,33,125,322,192,330,237,316,149,230,366,251,61,485,553,412,426,332,381,257
108904,27,131,314,148,-54,467,56,366,80,292,385,336,237,4,94,206,171,303,208,285,82,156,377,263,29,436,470,491,440,359,368,292
108905,-16,152,321,129,-38,440,-11,332,58,259,311,286,218,-5,88,212,102,246,189,271,58,110,283,216,-6,407,384,273,332,261,293,233
108906,-33,131,296,163,-29,432,-107,353,73,275,290,285,242,7,86,224,85,222,175,284,70,129,190,180,-10,405,363,62,260,211,240,188
108907,-35,156,282,172,-30,417,-132,366,85,282,336,357,260,18,83,244,120,261,201,287,67,180,242,203,9,408,409,166,318,258,292,242
108908,-37,143,271,187,-27,475,-79,426,112,296,376,348,277,49,126,283,140,285,208,293,57,203,285,220,21,397,406,229,363,289,263,244
108909,3,99,252,189,-40,515,-47,391,115,310,397,294,271,51,140,272,178,288,223,306,82,196,325,257,32,394,429,349,424,316,288,283
108910,0,123,268,178,-32,498,-44,400,112,329,400,359,280,65,140,299,213,306,255,329,97,221,349,266,62,399,449,335,452,326,340,331
108911,-114,109,306,213,-38,523,-40,453,127,335,417,392,295,68,155,231,201,320,246,326,123,197,329,254,55,395,428,238,382,268,271,306
108912,-183,111,326,188,-56,483,7,442,119,330,424,365,300,70,149,228,183,328,247,342,135,229,330,265,53,414,452,300,422,307,305,359
108913,-68,149,359,128,-28,460,62,388,113,311,342,381,292,75,132,193,228,312,262,363,131,251,365,267,91,433,475,381,477,348,327,365
108914,11,109,398,143,-44,465,24,394,106,300,347,423,297,64,128,156,263,319,280,368,110,159,377,272,109,401,418,352,457,316,275,270
108915,18,168,393,163,-40,438,2,429,100,303,382,443,329,69,156,285,270,330,289,379,144,112,356,297,129,431,423,374,455,317,307,257
108916,-124,155,339,170,-24,453,-18,413,125,302,383,438,342,83,141,304,265,341,305,378,184,154,377,307,159,470,463,402,440,340,355,291
108917,-163,94,347,159,-48,427,-20,413,144,295,347,451,351,93,107,211,250,366,319,403,169,250,384,312,195,496,496,395,439,349,391,292
108918,-45,183,379,138,-40,443,24,419,138,319,356,491,339,90,114,189,246,355,329,397,171,237,351,310,204,516,526,297,412,369,416,372
108919,15,233,362,131,-36,445,29,390,138,326,347,470,329,89,109,170,217,314,325,390,151,207,293,262,168,511,493,160,328,352,483,379
108920,44,233,401,140,-39,454,-19,363,153,330,333,489,326,106,111,181,149,303,330,421,157,224,270,267,186,553,523,127,316,421,579,474
108921,23,286,416,169,-48,458,-39,373,143,301,304,478,317,94,84,155,131,305,310,400,131,224,269,272,179,544,493,123,290,378,522,449
108922,107,281,455,184,-29,462,-16,414,153,317,277,514,343,94,90,135,219,340,288,395,88,180,304,261,140,496,400,185,221,169,216,161
108923,149,229,443,159,-44,433,-42,376,120,291,272,419,292,75,86,106,205,295,267,365,65,99,299,225,92,426,303,200,224,104,91,25
108924,100,182,375,147,-47,442,-128,326,81,288,304,285,233,43,68,113,152,239,241,342,82,116,274,206,105,444,305,175,223,146,172,25
108925,63,149,337,143,-37,417,-168,285,66,260,280,251,191,10,33,102,94,196,209,329,59,122,227,165,78,464,349,109,217,171,232,106
108926,45,137,308,142,-44,424,-184,277,51,244,274,221,162,-5,17,80,79,170,172,320,55,106,200,153,53,454,359,49,219,162,179,49
108927,75,176,330,153,-21,425,-103,292,68,246,263,249,177,-2,31,90,99,185,179,325,73,115,237,174,84,471,420,111,276,184,189,21
108928,53,225,298,164,-38,418,-128,277,72,261,244,264,177,13,44,122,91,209,210,357,121,132,274,219,107,534,500,178,357,279,334,183
108929,57,308,294,174,-31,440,-110,283,91,294,292,263,210,27,91,136,60,240,225,391,156,108,306,274,146,586,568,272,471,394,498,381
108930,61,339,328,176,-37,481,-53,297,92,290,301,281,248,36,102,144,90,276,259,415,175,128,377,329,207,643,598,404,603,489,591,414
108931,70,277,343,169,-31,486,-3,293,120,291,343,312,268,60,90,190,117,319,300,409,164,257,396,352,217,634,575,453,633,484,505,256
108932,53,252,314,137,-35,483,-51,254,88,289,352,241,224,38,78,177,140,284,279,407,150,217,368,332,202,616,549,422,622,511,542,279
108933,30,216,271,114,-43,471,-90,206,44,266,342,119,183,16,57,152,25,219,236,378,150,112,277,301,183,628,605,263,537,526,641,412
108934,55,119,248,104,-37,481,-118,166,47,268,343,17,170,7,80,213,-4,173,210,360,177,85,235,306,184,646,647,195,535,588,709,521
108935,21,94,230,86,-49,491,-162,149,-1,265,352,19,120,-32,72,212,-46,127,160,327,143,48,195,253,124,592,544,142,471,506,575,394
108936,-23,118,190,100,-44,504,-186,193,19,260,331,90,141,-17,73,114,-55,169,156,328,130,98,233,258,109,560,518,164,452,424,482,343
108937,-41,184,220,106,-45,492,-151,209,46,271,411,134,195,0,82,145,-4,199,198,340,135,166,281,298,148,577,556,225,504,474,492,268
108938,-32,205,295,135,-46,504,-55,196,70,279,396,206,216,6,77,196,29,202,219,346,128,153,292,315,174,588,564,240,520,476,474,200
108939,-48,245,328,158,-39,504,-19,230,88,289,385,232,232,20,103,277,100,257,246,357,154,158,330,340,180,607,561,310,554,499,503,208
108940,6,286,320,169,-47,508,-50,292,92,274,373,221,246,21,97,329,141,257,263,375,140,127,347,345,187,619,553,309,571,528,570,294
108941,44,291,324,155,-57,501,2,305,76,275,376,206,224,11,76,253,77,252,250,379,119,135,324,324,189,584,537,322,577,546,548,283
108942,55,277,295,171,-40,485,46,307,79,276,381,202,218,15,88,239,-3,227,238,372,141,147,305,306,207,599,538,284,561,558,573,302
108943,30,228,290,170,-29,498,70,314,66,265,349,246,212,-2,86,221,39,206,217,335,102,155,248,271,180,558,501,136,466,497,521,278
108944,29,253,282,163,-40,457,61,307,50,257,269,262,190,-33,44,199,23,208,196,303,72,102,228,253,150,516,431,149,431,435,449,214
108945,58,265,285,138,-43,443,18,277,21,246,271,221,170,-42,37,224,41,207,176,289,38,61,228,243,135,510,384,161,430,432,433,188
108946,42,267,296,147,-43,469,-46,295,2,235,276,174,148,-59,33,189,18,179,147,284,46,75,228,217,116,484,386,133,420,397,425,191
108947,59,292,319,153,-39,447,-84,311,35,245,280,203,148,-53,38,142,16,200,148,289,48,93,226,218,118,464,408,151,419,409,424,196
108948,72,314,330,188,-24,473,-46,314,56,281,340,267,168,-37,91,129,3,234,161,327,78,0,259,225,139,494,432,159,416,420,456,260
108949,139,238,369,204,-29,463,-48,364,57,289,364,300,193,-19,87,167,12,231,173,314,74,-58,256,218,134,501,426,196,412,375,443,265
108950,121,117,370,204,-39,464,-68,374,74,282,384,365,197,-28,96,188,28,237,164,311,63,6,261,211,113,468,372,244,407,312,328,42
108951,11,78,362,207,-41,472,-62,336,52,277,335,382,206,-21,118,163,62,252,175,320,82,39,282,225,104,481,401,267,430,338,387,139
108952,5,118,312,185,-35,484,-117,322,81,302,315,298,195,-15,123,151,40,232,169,302,97,92,257,192,99,467,431,251,388,296,341,198
108953,-69,134,269,162,-32,466,-144,289,53,287,296,209,185,-37,102,137,-13,190,133,281,79,72,202,171,52,417,417,194,357,200,214,55
108954,-48,205,312,141,-47,415,-190,291,35,261,265,237,187,-56,64,102,-19,190,132,273,36,38,188,152,12,381,404,172,357,188,210,68
108955,-5,208,338,163,-40,423,-167,331,66,263,278,283,196,-27,60,108,-26,196,136,241,38,62,142,128,-5,375,406,7,271,154,193,72
108956,-4,179,349,177,-29,435,-208,338,61,262,330,268,185,-29,79,132,-26,205,127,238,47,31,126,133,-18,385,419,-83,236,134,204,37
108957,-3,170,355,173,-35,451,-290,336,63,269,320,264,195,-21,83,170,15,219,155,252,42,55,185,176,23,400,414,97,332,203,296,165
108958,40,68,374,148,-31,477,-321,316,69,268,350,283,195,-4,96,137,36,196,164,255,54,64,154,174,25,404,395,61,285,196,296,166
108959,50,-34,380,168,-37,500,-255,328,83,268,332,294,218,-15,80,103,54,189,173,266,47,104,167,180,14,415,415,48,282,224,317,215
108960,44,114,427,217,-29,475,-120,367,121,284,323,361,263,25,65,77,116,243,200,308,69,146,294,244,70,459,474,225,396,314,429,291
108961,41,208,398,200,-50,486,-81,381,113,280,309,347,255,12,45,28,98,228,181,301,58,123,273,228,72,472,509,360,445,380,482,239
108962,49,203,417,241,-53,494,-60,438,125,272,278,387,265,-4,36,59,119,247,203,313,47,70,279,244,57,470,480,412,517,417,537,305
108963,54,255,429,260,-39,441,-58,443,125,232,237,337,268,-5,26,120,151,237,184,272,42,20,328,245,48,456,398,425,527,383,438,218
108964,85,277,420,239,-40,420,-55,418,108,220,166,344,227,-52,-2,128,94,194,127,229,-22,10,201,169,-20,368,254,88,296,126,171,8
108965,107,236,425,241,-24,396,-31,447,104,217,171,379,230,-45,-28,109,80,201,146,232,-14,0,176,189,0,376,303,-40,265,185,283,158
108966,96,246,390,210,-35,403,-72,426,75,208,177,374,224,-39,-30,-26,81,199,136,238,-25,-25,219,212,42,398,295,37,318,254,346,230
108967,86,183,409,214,-52,375,-111,442,63,206,173,398,210,-39,-34,-66,104,218,113,229,-75,-17,235,186,-12,319,230,81,270,139,139,14
108968,88,170,378,239,-49,393,-96,458,96,218,191,422,226,-49,-17,21,114,256,127,239,-52,17,309,213,14,346,260,198,344,158,153,49
108969,111,228,409,244,-43,436,-57,447,107,235,245,458,250,-21,29,120,113,288,185,275,8,15,320,260,68,392,308,219,379,219,244,99
108970,129,236,446,248,-50,458,-25,450,111,260,281,401,260,-3,47,226,98,288,192,309,48,77,287,249,80,435,368,202,372,237,241,122
108971,144,272,449,248,-54,473,32,417,124,275,301,399,246,15,73,228,194,282,192,327,77,89,295,260,101,465,455,265,403,311,293,178
108972,84,261,450,243,-52,470,-33,391,106,265,283,400,247,14,69,139,226,276,192,332,62,63,319,254,88,473,408,319,416,328,332,143
108973,48,203,444,253,-42,468,-119,405,75,246,285,378,232,-9,58,94,202,257,187,301,24,97,269,216,59,441,349,220,374,302,318,162
108974,62,167,438,220,-34,461,-132,384,63,243,275,351,224,-16,43,86,118,228,182,280,6,19,235,180,41,404,299,89,273,193,228,105
108975,38,144,388,198,-46,458,-168,337,57,247,314,384,200,-29,47,112,119,215,149,275,16,20,197,176,11,383,282,39,223,104,119,46
108976,-5,179,329,196,-45,492,-171,333,59,259,346,349,183,-7,76,126,144,225,166,301,39,19,228,195,40,420,349,130,265,169,157,42
108977,6,246,337,208,-44,472,-87,337,62,254,326,374,229,2,112,144,208,258,210,330,93,104,301,242,87,450,415,244,351,248,251,129
108978,5,247,342,222,-41,476,-42,368,78,266,336,420,215,1,121,138,170,281,219,322,79,150,328,264,102,456,407,337,384,295,306,228
108979,29,268,385,235,-30,529,0,399,88,275,338,470,231,0,117,126,165,289,240,319,88,104,326,274,108,447,346,377,389,289,281,152
108980,66,259,406,244,-25,529,8,413,82,282,344,437,227,-14,100,138,113,232,218,299,87,99,254,218,92,436,359,197,332,269,302,221
108981,134,339,409,216,-23,592,42,365,78,292,372,345,210,0,105,121,107,178,188,303,82,137,204,192,74,438,384,101,272,256,324,262
108982,137,379,365,189,-29,563,24,308,63,294,404,272,171,-9,110,135,73,150,151,305,111,141,184,164,57,472,453,94,259,304,388,378
108983,182,373,379,176,-41,531,-26,272,42,268,367,249,143,-45,92,102,76,112,142,297,95,152,142,122,51,467,463,48,219,289,435,479
108984,227,290,404,193,-39,538,-79,276,42,250,328,182,136,-46,83,124,83,110,122,296,80,152,167,132,30,467,452,99,253,277,389,447
108985,127,166,390,206,-33,547,-101,273,39,261,304,145,128,-62,64,169,59,91,109,266,44,70,185,131,-11,404,332,186,263,194,182,96
108986,47,129,330,203,-32,556,-105,250,40,277,321,201,154,-53,108,270,38,124,136,291,112,71,214,160,33,446,396,248,297,244,242,147
108987,16,169,275,183,-48,542,-83,241,6,275,332,199,155,-62,112,190,22,134,124,298,91,102,220,148,19,437,372,226,276,179,125,10
108988,76,279,288,157,-36,503,-71,249,6,270,343,201,127,-56,134,66,16,130,133,301,72,48,184,132,3,434,346,103,251,202,198,57
108989,90,301,348,168,-53,512,-84,239,21,273,290,185,130,-54,111,74,16,127,123,308,62,46,147,114,20,429,308,31,198,140,147,-58
108990,96,270,311,168,-38,539,-67,270,30,309,342,165,130,-26,116,141,-2,127,127,323,88,53,148,137,38,468,314,67,261,203,245,37
108991,58,224,270,164,-26,565,-39,247,34,309,358,189,140,-21,151,213,-20,132,124,321,101,59,152,150,29,469,349,111,278,205,246,96
108992,45,251,290,156,-39,593,-38,214,28,312,347,141,132,-43,147,307,-44,115,95,306,91,27,146,118,-13,452,327,101,231,117,120,9
108993,92,287,289,174,-27,573,-23,221,24,313,343,111,137,-42,142,330,0,103,119,315,134,-13,166,137,12,467,410,87,244,160,213,141
108994,108,245,309,173,-32,564,-7,266,28,305,358,200,155,-45,137,216,22,161,138,312,113,-78,182,121,2,452,368,64,223,131,144,28
108995,63,121,296,137,-40,534,-50,263,12,282,371,187,155,-51,121,80,9,183,123,298,88,11,220,152,4,466,383,210,293,183,197,80
108996,97,211,322,163,-41,505,-15,261,18,260,317,233,161,-57,86,25,48,177,113,298,81,93,227,183,23,467,440,249,316,211,247,124
108997,61,354,344,172,-21,509,8,278,60,282,354,249,179,-35,105,65,69,207,134,309,101,96,209,169,27,485,462,138,279,224,288,141
108998,-22,255,313,182,-40,491,-40,261,53,288,382,220,182,-36,119,110,16,155,142,300,118,136,172,163,4,499,474,58,265,220,317,245
108999,-27,252,357,219,-38,470,-32,281,62,287,375,229,201,-18,118,128,15,151,131,302,120,175,163,152,22,506,513,84,259,229,342,315
109000,71,329,404,252,-19,485,0,325,84,302,377,287,214,0,139,130,37,193,144,308,135,175,166,173,44,498,521,139,287,213,288,248
109001,85,365,404,257,-20,508,10,347,86,308,404,315,219,-9,138,133,23,184,159,312,137,185,176,162,49,476,494,127,282,225,296,254
109002,66,340,401,247,-37,504,-9,311,68,298,388,251,202,-21,126,104,39,163,141,293,94,108,165,143,10,445,428,120,258,207,221,172
109003,22,316,360,193,-48,490,-13,261,45,263,359,189,158,-48,94,106,-26,96,108,253,36,33,52,82,-40,395,331,-48,130,79,131,57
109004,-80,210,335,187,-40,507,-75,273,53,255,335,184,148,-61,83,96,-60,75,89,265,20,14,48,68,-23,383,342,-47,127,100,169,138
109005,-24,151,331,214,-24,491,-179,315,60,248,328,218,156,-53,66,101,-68,73,104,257,8,11,55,72,-24,382,298,-25,134,80,150,62
109006,41,216,317,190,-44,462,-266,288,27,231,354,199,136,-71,55,77,-92,70,92,232,-17,-3,31,53,-46,361,264,-66,99,61,125,28
109007,48,193,322,197,-48,497,-206,338,40,247,366,181,166,-62,83,133,-75,87,94,253,16,-21,63,73,-40,350,255,-38,87,65,137,57
109008,83,218,380,244,-46,495,-77,375,70,263,365,257,198,-49,91,130,-58,113,126,279,13,0,73,111,-12,375,293,-18,123,69,119,70
109009,112,222,390,260,-51,474,-37,393,99,283,361,320,244,-28,113,70,-75,164,155,297,9,-6,84,137,15,394,330,-10,161,95,147,34
109010,166,256,429,268,-5,514,-19,438,115,335,390,344,261,-1,156,159,-90,208,183,332,53,11,113,173,39,396,334,12,180,108,166,70
109011,133,258,433,237,-23,506,-22,365,89,305,349,245,217,-10,118,181,-60,167,162,316,56,30,82,160,2,378,281,-13,189,129,177,129
109012,105,251,397,201,-40,494,-14,306,63,290,359,189,215,-9,104,127,-37,150,152,298,49,47,100,159,-1,374,260,-11,186,135,162,127
109013,88,242,383,175,-37,486,-11,289,74,272,348,205,220,-19,105,43,-54,148,139,274,33,4,118,149,-12,338,232,12,188,98,72,17
109014,57,252,402,170,-33,448,-40,277,55,244,340,170,199,-36,82,49,-116,126,117,268,-7,-51,87,128,-35,308,190,-2,172,47,15,-61
109015,54,199,339,168,-40,435,-66,302,61,238,317,163,206,-40,46,92,-62,132,135,243,-16,-18,106,138,-32,303,185,63,173,53,6,-98
109016,29,142,297,170,-36,450,-35,318,70,266,340,173,233,-27,81,126,-29,170,168,269,3,12,159,160,7,314,200,197,240,100,21,-61
109017,-40,145,226,133,-44,433,-40,296,46,253,294,153,199,-21,76,103,-142,125,153,262,5,0,76,130,11,293,193,47,169,60,-4,-81
109018,-39,172,218,121,-29,448,-94,286,66,272,311,142,206,-11,77,99,-132,124,166,264,0,-6,63,126,-2,311,187,-53,120,28,-16,-95
109019,-51,167,219,115,-26,485,-171,280,76,292,309,150,216,-8,89,114,-118,127,180,272,-4,-4,106,153,20,340,194,79,189,56,2,-84
109020,-81,158,211,138,-30,476,-142,302,77,288,303,168,216,4,106,204,-100,129,174,286,-7,-82,70,136,6,333,185,-10,175,33,-30,-139
109021,-64,119,182,157,-44,491,-107,359,97,286,257,164,231,16,92,264,-82,112,166,270,-3,-142,38,93,-8,334,179,-145,99,-20,-57,-154
109022,-48,196,145,178,-51,458,-80,364,94,288,223,187,217,2,90,228,-129,109,160,290,2,-85,65,118,-2,333,174,-112,102,-8,-27,-89
109023,-16,196,153,176,-36,478,-32,321,79,301,326,201,195,-2,116,93,-90,112,143,294,-6,-28,92,106,-7,336,146,-98,72,-12,-13,-89
109024,-21,164,198,144,-42,476,-17,236,58,279,286,197,168,-19,97,-36,-79,112,141,302,-15,-170,97,107,0,341,150,-50,103,7,19,-66
109025,-5,181,202,135,-32,456,-47,204,33,275,254,176,156,-16,87,-37,-119,117,134,309,-27,-319,101,108,18,345,160,-54,127,19,10,-71
109026,-17,140,205,103,-36,488,-90,227,18,280,231,167,144,-18,74,-28,-148,103,112,282,-27,-170,83,100,4,359,175,-67,116,11,32,-59
109027,-77,136,243,107,-55,500,-141,266,19,271,251,186,137,-22,84,-28,-149,110,126,288,-1,-110,80,100,8,376,239,-37,134,42,111,-21
109028,-53,164,260,146,-44,494,-115,269,30,291,280,169,162,-9,104,-9,-64,130,152,331,48,-101,134,155,63,443,362,71,236,153,234,108
109029,-28,143,248,131,-46,487,-119,263,43,315,270,188,185,6,118,41,-26,134,180,364,71,-24,171,192,96,476,392,162,311,227,258,155
109030,-38,109,270,136,-49,522,-174,261,41,320,304,218,192,3,120,105,-12,135,193,378,83,29,148,175,95,465,367,131,255,144,140,28
109031,-68,118,282,152,-51,488,-169,260,62,310,360,152,206,20,150,119,10,142,221,381,85,50,171,199,106,477,382,109,247,133,164,55
109032,-49,155,303,175,-57,466,-87,285,65,314,362,151,233,22,163,115,72,176,232,375,95,43,214,196,114,476,371,106,272,156,173,92
109033,-16,144,298,184,-45,454,-73,300,86,303,325,207,248,17,136,124,48,184,237,357,64,54,183,186,94,462,359,48,233,140,174,128
109034,-76,78,258,158,-49,461,-117,277,53,264,309,161,215,-28,99,135,-67,132,187,310,51,50,113,137,51,448,364,-13,185,99,161,97
109035,-40,145,292,186,-37,482,-94,276,56,244,308,143,190,-31,74,197,-110,103,142,282,55,63,96,109,26,427,382,-11,172,87,175,83
109036,93,239,333,185,-25,457,-46,279,74,259,329,249,199,-17,63,144,-95,126,180,291,53,90,140,139,45,448,407,35,207,117,245,126
109037,88,248,381,164,-32,443,5,316,64,262,298,314,225,-25,62,68,-57,177,201,317,58,65,152,173,62,446,435,52,250,182,277,195
109038,60,137,359,173,-48,479,-10,294,54,271,292,301,213,-20,75,89,-44,177,187,308,57,128,159,189,66,452,469,73,271,200,297,243
109039,124,195,369,181,-26,482,32,297,65,287,305,235,233,6,92,125,14,210,205,313,76,155,180,181,51,458,473,127,299,226,310,264
109040,146,251,360,160,-35,524,111,214,74,291,352,118,212,0,94,174,39,163,185,333,86,155,184,177,57,470,526,144,319,271,333,263
109041,143,320,311,152,-36,535,107,241,63,282,370,157,201,-4,57,161,13,140,195,320,65,190,190,180,64,470,518,155,326,272,337,219
109042,134,273,328,194,-46,509,66,314,66,278,335,204,203,-24,26,118,12,118,177,277,36,186,167,178,47,444,478,146,306,250,294,231
109043,78,253,314,212,-38,481,-40,329,56,239,290,184,212,-54,-22,96,2,124,165,237,0,108,180,137,13,388,437,146,299,203,225,156
109044,67,220,295,207,-52,448,-105,335,61,210,285,151,203,-64,-26,165,-33,116,142,227,-24,16,180,142,-11,367,377,139,274,190,242,125
109045,81,206,278,201,-27,455,-64,333,67,213,261,162,198,-62,10,163,-17,114,135,220,-18,-21,172,137,-23,345,310,169,255,183,210,161
109046,62,206,271,211,-34,487,-103,332,54,232,295,200,204,-60,29,133,16,117,134,217,-30,-18,166,100,-54,299,254,123,214,113,116,31
109047,45,220,280,218,-58,474,-234,349,65,222,287,236,228,-58,9,124,42,148,153,211,-53,13,202,105,-46,312,234,216,245,146,142,45
109048,35,275,317,223,-64,467,-234,372,75,241,319,278,251,-29,54,142,76,204,180,263,-10,-18,245,141,0,349,279,289,314,230,245,176
109049,85,199,338,212,-46,499,-158,378,98,262,331,277,269,7,84,209,60,216,206,325,62,46,236,199,35,411,390,202,340,298,391,375
109050,105,178,365,214,-43,488,-77,367,98,286,322,314,298,21,109,192,78,232,222,350,78,27,245,202,55,435,400,194,321,297,433,360
109051,102,205,392,202,-47,487,-20,390,116,294,381,380,306,49,148,176,134,271,247,370,95,-46,295,218,77,446,423,287,355,315,428,383
