,Fp1,Fp2,F7,F3,Fz,F4,F8,FC5,FC1,FC2,FC6,T7,C3,Cz,C4,T8,TP9,CP5,CP1,CP2,CP6,TP10,P7,P3,Pz,P4,P8,PO9,O1,Oz,O2,PO10
6626,313,438,137,171,316,304,316,339,294,319,302,1081,294,374,688,215,12,233,30,644,-74,192,27,858,524,298,580,-68,397,-189,426,180
6627,325,463,93,143,311,311,338,253,279,341,324,1095,288,363,682,178,32,263,25,638,-68,114,88,854,508,303,640,-187,377,-198,425,220
6628,341,458,130,134,324,352,330,195,299,347,345,1161,290,388,682,316,87,309,21,641,-67,64,165,883,505,278,473,-362,378,-162,449,611
6629,256,392,154,126,317,373,295,295,301,341,380,1167,299,382,694,331,75,312,39,623,-43,-70,219,901,485,252,406,-246,356,-241,357,476
6630,255,314,146,124,316,467,360,288,283,353,395,1094,313,366,708,183,-12,287,15,608,-50,-76,225,874,470,219,397,-366,299,-341,278,135
6631,259,288,115,140,306,423,290,326,289,342,316,1247,323,360,683,221,-162,282,22,607,-55,53,183,878,487,245,508,-374,341,-273,334,240
6632,258,398,62,134,314,355,251,289,302,340,338,1197,287,361,641,347,-90,238,23,605,-122,205,59,845,491,248,528,-73,336,-267,339,322
6633,285,482,21,116,316,337,270,243,284,333,338,1026,274,346,591,285,-83,176,8,570,-207,145,-37,815,470,211,394,-99,323,-258,372,355
6634,280,439,38,128,320,324,268,218,265,332,306,940,247,370,613,220,-95,114,5,573,-162,116,-208,802,481,199,363,118,334,-214,411,338
6635,239,444,70,118,316,291,271,184,274,334,235,911,242,369,585,195,-72,112,-3,550,-177,65,-282,781,460,194,317,209,300,-241,367,355
6636,243,452,13,108,301,267,245,193,280,322,201,889,246,366,580,101,-128,133,9,559,-202,153,-192,794,453,181,357,288,379,-270,352,324
6637,195,392,-42,120,302,261,185,309,310,321,201,987,293,369,595,-22,-175,177,15,562,-203,-5,-83,841,456,173,375,109,403,-282,331,274
6638,205,397,101,145,297,251,172,309,297,317,170,1027,287,353,580,24,-130,180,3,552,-235,12,-87,799,429,134,273,-243,319,-302,323,352
6639,243,439,149,131,307,299,221,261,281,327,194,991,297,381,617,163,-49,185,19,568,-190,58,-22,799,433,179,298,-345,305,-277,349,270
6640,264,441,129,116,321,314,241,234,285,338,231,1031,307,388,651,180,10,230,33,598,-114,0,69,841,470,245,492,-120,377,-244,365,-74
6641,249,408,71,137,299,321,243,286,277,336,228,1081,321,377,675,221,-64,194,48,612,-97,52,-83,834,503,257,566,132,414,-211,387,136
6642,252,404,113,186,323,308,217,339,295,354,237,1073,348,401,670,113,-34,208,80,621,-148,61,-123,861,536,253,428,303,473,-181,433,502
6643,263,402,151,181,316,323,209,286,311,353,259,1044,332,383,663,74,38,190,64,637,-166,72,-126,874,539,226,353,107,471,-156,448,601
6644,270,420,139,155,316,376,277,308,299,333,299,1105,340,397,654,72,29,235,71,632,-195,-56,-47,886,545,202,244,76,519,-133,472,539
6645,252,376,143,182,327,374,282,342,299,337,314,1112,358,399,663,87,-20,289,90,627,-181,55,28,905,553,226,314,173,526,-132,503,480
6646,272,355,206,164,323,369,194,334,303,349,225,1145,376,398,643,-2,32,301,105,636,-181,158,42,910,556,245,396,204,551,-90,540,554
6647,273,375,183,118,310,309,167,279,296,350,200,1099,341,390,642,95,11,268,88,634,-147,186,45,905,559,245,441,127,506,-146,459,527
6648,269,366,177,134,317,290,179,267,308,356,219,1107,332,398,649,161,78,236,71,634,-138,213,-49,871,563,269,486,-14,446,-180,428,551
6649,277,386,158,167,326,286,188,317,303,351,221,1127,329,398,651,66,45,232,79,642,-123,201,-63,853,570,262,505,33,489,-171,447,411
6650,271,405,127,160,326,272,233,333,300,333,209,1186,334,383,650,64,-66,214,75,633,-109,189,-98,827,535,248,524,-44,409,-234,387,68
6651,280,389,152,183,322,278,241,354,310,339,205,1330,343,376,649,119,-135,217,79,628,-135,159,-117,836,510,241,522,-76,359,-271,372,194
6652,283,359,153,178,321,286,194,382,310,327,206,1340,348,359,635,107,-146,250,79,611,-236,51,-81,841,491,179,343,-30,404,-248,363,473
6653,241,370,11,148,337,311,211,371,312,352,278,1129,340,372,651,204,-34,222,61,606,-203,-44,-10,835,479,192,364,-21,416,-242,371,355
6654,231,369,0,165,334,345,244,334,320,372,308,1107,321,369,662,286,-22,208,34,605,-163,2,7,836,450,195,395,14,429,-260,356,323
6655,273,360,127,190,335,320,271,353,317,363,245,1108,325,355,634,167,72,232,25,564,-206,-11,74,833,434,173,339,-52,410,-268,339,409
6656,314,407,136,159,328,315,268,382,302,352,207,1048,326,357,596,74,55,242,8,538,-245,-60,76,804,430,145,319,-243,359,-306,310,283
6657,303,433,109,140,342,327,275,316,278,378,249,847,299,356,633,101,130,224,22,572,-145,89,113,825,479,208,437,-163,407,-252,375,306
6658,275,420,132,126,314,322,244,291,266,352,268,947,298,350,662,36,74,250,20,601,-80,272,131,853,480,257,519,-142,443,-187,431,408
6659,276,445,169,96,313,305,238,240,281,380,298,1158,305,384,686,-190,-66,247,57,630,-44,287,91,829,512,253,486,-119,389,-246,351,305
6660,273,425,150,90,311,325,234,201,272,393,374,1069,286,389,715,-38,31,224,48,658,-13,136,105,839,533,264,477,48,408,-222,376,286
6661,251,441,98,125,294,348,285,232,266,385,392,1015,294,383,715,193,77,207,45,649,-61,37,25,839,515,232,388,41,414,-223,382,311
6662,277,440,121,137,300,341,305,324,281,402,353,1036,311,392,701,364,11,193,62,644,-122,189,-32,854,506,254,432,-122,393,-213,413,384
6663,265,427,67,140,294,322,274,426,293,354,215,1089,346,366,680,408,65,247,62,657,-120,194,75,887,523,246,420,-223,415,-192,434,456
6664,291,476,53,162,320,341,295,395,307,365,213,1123,393,401,639,383,138,322,84,648,-156,218,194,924,551,234,391,-104,449,-171,426,509
6665,324,525,194,179,342,364,381,291,312,384,280,1142,371,407,674,277,18,292,94,637,-154,127,198,930,550,235,385,-113,461,-182,426,448
6666,343,529,185,144,327,337,346,256,293,376,263,1123,357,413,700,292,149,306,97,654,-107,21,281,956,563,272,413,-56,538,-134,505,449
6667,307,486,97,139,316,348,302,289,300,376,288,1092,356,407,686,293,166,267,100,673,-94,183,206,947,563,304,459,103,544,-99,500,506
6668,275,431,95,159,322,376,274,268,302,380,279,1091,322,409,694,231,101,233,81,677,-90,316,92,922,587,296,505,73,522,-115,497,521
6669,264,426,143,139,310,388,271,245,306,379,290,1101,299,382,682,222,95,224,64,684,-84,258,56,914,583,299,513,151,519,-164,451,461
6670,298,450,221,149,325,375,289,261,287,385,285,1134,314,375,684,225,56,248,59,663,-97,208,74,889,579,288,519,168,578,-128,457,460
6671,314,473,267,183,324,363,278,295,300,394,298,1184,345,410,685,119,143,302,113,657,-102,194,167,939,613,301,595,159,656,-42,557,445
6672,242,461,159,147,306,361,267,301,296,383,291,1180,341,385,671,178,48,253,89,652,-92,159,51,898,569,287,555,93,507,-111,476,454
6673,220,431,76,117,317,388,272,308,281,393,336,1198,315,374,680,325,12,246,68,648,-84,198,66,889,560,262,502,-61,439,-210,400,404
6674,210,389,37,100,305,404,258,317,281,394,340,1157,323,384,679,316,-50,228,56,639,-63,193,38,852,536,265,682,-206,397,-220,411,234
6675,219,389,-10,118,302,386,200,283,289,384,326,1121,302,384,663,209,-193,181,62,633,-103,83,-91,792,527,270,650,-394,342,-170,423,129
6676,263,435,-85,147,316,387,174,397,330,404,268,1178,369,423,682,131,-62,302,112,645,-90,196,138,879,555,281,647,-486,447,-141,470,-29
6677,230,405,0,143,299,418,241,314,299,409,262,1080,355,412,657,181,-63,291,99,652,-90,108,240,905,558,259,651,-430,423,-178,427,216
6678,219,354,142,102,275,439,211,218,257,400,268,1056,319,389,637,121,20,261,87,639,-124,131,264,906,556,233,564,-240,392,-210,392,390
6679,255,318,157,63,276,433,232,287,267,399,285,1151,345,392,656,98,31,254,114,659,-158,101,129,906,567,241,353,-40,414,-162,450,686
6680,280,340,162,113,302,400,304,292,313,392,322,1218,353,398,648,97,-159,221,138,641,-196,89,-93,881,575,217,187,87,401,-183,438,600
6681,291,408,209,128,302,332,357,267,299,379,282,1174,351,419,641,120,33,198,125,641,-188,111,-132,892,574,237,251,186,394,-204,420,454
6682,309,497,145,99,289,289,390,269,303,360,273,1050,344,409,633,184,4,174,130,651,-169,180,-177,889,570,253,337,184,433,-171,450,533
6683,370,554,156,140,313,289,387,282,337,357,260,1003,337,407,643,182,55,152,147,658,-123,311,-188,883,588,277,423,210,443,-132,489,546
6684,407,584,259,173,349,300,399,297,332,373,245,1048,355,419,636,177,167,192,142,667,-100,309,-95,899,586,302,471,222,478,-119,507,492
6685,364,550,235,135,327,302,373,244,302,347,254,1005,313,396,650,192,60,199,115,668,-87,281,-93,879,593,312,513,236,492,-105,511,460
6686,310,487,187,97,305,276,344,176,280,360,257,968,282,391,681,208,44,180,110,678,-90,221,-71,876,589,338,548,216,506,-90,527,395
6687,300,498,172,104,327,292,359,203,291,367,282,1061,298,394,689,231,48,205,108,666,-67,97,-22,875,572,338,604,143,469,-110,507,276
6688,307,471,151,92,321,325,331,197,287,361,313,1096,283,392,664,270,66,211,104,646,-105,-171,16,871,542,267,514,97,453,-155,448,372
6689,283,400,163,100,308,328,266,200,279,375,339,1031,271,398,661,319,48,223,83,633,-93,-43,88,860,536,257,472,161,465,-168,443,434
6690,246,365,128,79,303,356,239,199,293,384,378,970,249,391,662,240,-19,133,47,622,-130,167,-34,789,506,223,417,-51,359,-236,389,439
6691,230,376,85,85,318,343,194,255,286,365,354,918,248,390,651,154,29,105,36,617,-142,220,-112,769,490,220,451,-238,315,-245,377,507
6692,203,371,55,99,306,344,219,298,281,349,299,1122,277,386,626,135,-97,195,49,613,-157,152,-6,770,474,208,430,-212,315,-257,360,429
6693,199,369,1,91,294,405,245,299,283,367,305,1232,299,381,641,147,-30,265,61,621,-173,179,148,796,491,223,438,-31,369,-274,352,427
6694,188,403,58,109,300,388,231,247,276,372,283,1273,303,381,649,125,138,296,59,632,-153,250,274,870,504,241,480,101,454,-234,375,461
6695,191,404,94,111,309,375,273,242,269,363,264,1189,297,373,660,160,63,276,84,668,-140,118,189,884,520,260,514,-314,429,-201,411,463
6696,213,450,76,71,315,359,322,228,266,398,315,1119,301,388,694,224,-39,251,85,664,-120,-40,51,866,543,270,458,-153,414,-192,423,427
6697,213,448,56,72,309,331,312,199,261,376,310,1005,297,410,690,213,-44,212,98,670,-116,78,-24,860,551,277,521,-49,388,-204,398,347
6698,182,384,-44,60,265,303,290,268,258,351,263,967,337,387,670,160,-3,205,103,663,-114,238,-111,861,550,290,533,63,358,-218,401,439
6699,202,412,-51,97,278,290,260,338,298,351,263,938,345,410,665,30,7,228,109,674,-91,249,-80,909,563,283,470,367,438,-172,437,547
6700,256,433,119,113,312,322,218,235,293,355,272,1143,304,403,681,-18,31,199,100,666,-78,156,-114,869,550,288,458,251,423,-163,460,514
6701,276,419,129,81,313,340,247,179,274,366,309,1090,287,396,696,257,35,161,71,650,-73,181,-147,819,529,279,466,-28,411,-155,474,487
6702,272,424,137,95,297,348,256,174,278,381,281,969,298,387,647,189,78,194,77,644,-147,255,-12,875,535,266,473,257,523,-140,458,497
6703,280,458,183,135,324,333,228,229,306,378,225,1011,324,408,626,-30,88,225,118,664,-186,264,32,907,535,251,467,276,521,-153,442,472
6704,261,419,52,96,304,318,185,267,278,361,251,956,279,388,645,122,76,184,79,624,-161,139,-86,814,496,236,477,-23,377,-246,371,183
6705,239,397,55,124,320,325,233,295,285,374,283,963,293,396,654,299,-6,160,60,614,-87,138,-84,783,494,281,705,-23,372,-278,330,-18
6706,239,364,146,114,298,323,253,232,292,369,257,993,269,368,628,187,-21,151,36,578,-130,13,-48,776,465,232,594,36,380,-251,352,199
6707,252,359,181,92,296,292,224,208,277,349,245,1052,257,384,625,97,9,204,42,582,-164,-6,29,809,475,203,456,-15,403,-262,356,29
6708,259,327,142,59,313,325,172,149,266,358,226,1023,243,397,638,148,84,188,67,627,-127,95,87,846,508,239,592,93,475,-174,426,231
6709,227,330,89,52,315,349,149,91,268,357,247,990,214,378,656,151,52,162,60,620,-159,119,62,826,475,214,438,96,454,-160,435,584
6710,207,319,90,52,304,319,158,98,271,359,219,961,211,376,620,72,-13,153,14,602,-210,61,25,789,460,182,260,10,375,-277,343,536
6711,180,300,36,44,314,331,207,121,261,359,216,936,228,389,639,87,-78,110,20,607,-198,127,-28,754,468,202,338,-98,323,-306,339,680
6712,215,366,60,67,333,355,210,158,254,368,232,991,235,393,647,88,-41,118,36,627,-179,176,-122,754,481,219,378,-365,328,-194,415,733
6713,274,441,125,130,352,346,226,262,296,356,247,1128,269,407,637,125,45,250,63,616,-202,-5,70,798,447,198,314,-491,319,-288,329,437
6714,252,427,22,136,345,339,300,313,293,346,258,1220,325,380,643,246,36,339,76,596,-204,-124,382,875,446,193,330,-748,382,-345,268,239
6715,207,402,-100,102,322,360,227,320,293,355,283,1302,331,377,640,257,-50,340,75,625,-157,-106,393,910,482,206,442,-444,392,-306,292,243
6716,226,393,-29,93,342,405,173,267,267,373,294,1196,265,370,647,146,-259,207,44,605,-166,-61,110,809,452,208,476,-328,312,-305,302,271
6717,263,387,124,89,350,415,233,248,277,360,337,1015,229,360,640,146,-109,129,38,616,-170,53,-47,770,476,187,337,-43,326,-277,330,369
6718,293,408,170,94,344,397,191,181,282,369,312,987,245,372,676,212,-39,114,41,649,-138,151,-136,814,509,230,346,401,405,-232,390,443
6719,330,422,146,94,341,421,281,103,270,383,303,910,222,390,683,199,-96,80,48,634,-139,174,-221,789,511,255,408,180,386,-218,409,480
6720,323,462,124,105,341,373,344,163,294,349,255,946,251,396,677,235,-32,126,83,649,-110,121,-156,794,532,269,438,167,391,-189,435,462
6721,286,499,21,92,329,347,351,207,280,347,252,945,270,400,684,227,-11,141,94,677,-113,187,-112,804,537,275,470,234,429,-169,445,459
6722,244,466,-48,115,315,345,274,324,297,345,217,968,290,413,657,159,18,143,82,660,-129,247,-91,808,543,245,423,201,434,-175,426,460
6723,230,422,41,117,314,288,222,229,302,338,197,969,262,409,640,117,91,141,63,646,-153,222,-112,787,535,247,370,173,412,-212,404,477
6724,257,414,99,87,315,320,270,141,292,359,219,958,220,392,651,127,-72,131,42,643,-166,124,-129,748,509,227,371,-13,329,-281,335,425
6725,245,410,47,72,286,355,297,203,284,366,281,1016,270,387,656,138,-51,185,58,639,-145,78,-54,760,516,236,396,-105,301,-302,321,345
6726,266,427,83,94,305,334,271,249,322,364,246,1086,313,413,667,182,130,217,88,644,-126,93,8,812,537,243,476,53,398,-255,351,187
6727,254,491,160,94,307,309,261,222,306,368,226,1085,309,414,647,180,128,211,109,633,-145,26,79,829,531,227,503,-74,423,-253,369,299
6728,257,520,220,111,313,322,280,263,313,376,240,1060,333,419,650,66,-5,219,99,631,-210,15,94,825,527,176,292,-120,410,-255,354,546
6729,272,511,210,110,301,336,265,311,311,376,239,1068,321,395,643,-57,-26,210,77,618,-211,69,33,787,526,184,295,-40,340,-307,309,420
6730,286,520,163,100,290,348,233,236,290,383,226,1036,305,387,640,-139,-9,193,66,614,-162,115,-40,760,506,180,352,-103,283,-313,305,377
6731,314,523,164,100,303,364,208,158,294,392,257,1042,296,391,669,1,14,151,60,622,-97,207,-91,737,492,221,405,-26,297,-303,325,399
6732,344,526,173,94,321,387,259,137,279,402,313,1084,295,405,678,18,-7,163,76,641,-87,207,-60,762,518,229,428,27,318,-292,338,408
6733,358,556,187,116,338,387,366,195,296,374,290,1049,329,399,670,88,99,183,89,650,-102,155,-13,772,528,236,469,109,340,-246,366,382
6734,346,575,187,140,349,385,393,210,300,364,293,1078,332,377,669,432,1,171,61,621,-130,158,-116,760,513,244,540,-46,287,-269,341,296
6735,388,561,170,142,349,373,379,237,320,369,288,1170,355,393,639,578,-5,200,74,622,-218,153,-96,773,505,217,493,-114,291,-274,317,417
6736,347,557,177,127,331,361,347,195,329,378,286,1134,325,391,655,323,9,160,68,644,-159,235,-37,785,491,254,479,-140,303,-254,362,611
6737,312,528,78,144,316,353,362,275,328,356,259,1064,322,384,647,243,1,182,75,635,-167,250,28,787,503,259,506,-127,370,-250,360,566
6738,292,531,-23,171,332,370,328,420,352,356,275,1137,393,412,653,220,32,298,130,641,-145,180,201,871,544,249,565,96,479,-202,396,438
6739,331,556,74,186,342,407,274,356,326,385,301,1145,362,412,662,270,-51,265,104,651,-97,228,91,861,537,281,707,-100,392,-203,427,253
6740,347,546,114,164,350,388,283,286,329,392,348,1166,355,380,678,369,-59,270,70,637,-29,285,146,826,507,303,881,-44,367,-263,360,-255
6741,347,522,162,175,351,459,344,278,311,413,420,1179,348,366,640,363,21,244,41,584,-89,146,97,776,446,210,655,-191,283,-346,262,164
6742,349,493,164,209,366,445,348,368,306,392,413,1183,356,366,641,357,116,223,28,573,-119,-42,90,777,442,173,516,-417,290,-317,292,381
6743,360,505,102,218,373,400,342,535,352,383,305,1179,411,372,622,351,26,277,74,595,-102,95,217,807,474,208,534,-379,331,-299,306,174
6744,359,498,156,232,372,395,309,516,363,393,260,1175,439,390,622,266,15,327,88,598,-123,203,356,868,510,238,601,-344,428,-216,382,327
6745,381,511,248,154,352,372,320,229,311,340,205,1158,329,364,573,147,75,267,41,552,-275,149,283,841,471,140,291,-193,394,-287,338,543
6746,412,466,259,135,327,388,333,201,296,335,219,1183,303,335,558,146,52,195,19,536,-311,79,55,789,435,107,176,-211,337,-293,334,635
6747,419,534,216,124,358,400,369,235,295,360,277,1194,325,335,593,157,-80,167,11,536,-285,18,-108,787,433,96,193,116,338,-265,347,653
6748,385,627,120,149,362,407,380,271,306,376,289,1139,317,320,604,117,-24,166,3,549,-246,226,-170,786,435,143,337,283,323,-229,377,614
6749,356,621,160,181,355,410,365,302,312,388,308,1087,319,326,599,176,25,136,7,552,-238,237,-202,767,434,138,386,192,319,-259,353,484
6750,353,599,211,171,360,410,356,273,321,382,292,1088,318,339,618,283,58,154,26,547,-223,182,-152,749,461,147,413,264,390,-207,406,511
6751,374,562,195,166,361,440,345,297,328,383,305,1048,315,324,605,274,47,164,-2,543,-194,78,-103,770,446,139,475,265,436,-179,407,411
6752,382,564,233,172,371,439,350,240,319,373,309,1008,289,335,595,231,-35,159,22,528,-200,21,10,809,444,143,399,170,458,-219,410,387
6753,368,565,220,146,394,365,345,142,318,381,280,1016,290,347,614,192,-23,190,43,545,-208,76,99,831,465,178,397,37,451,-197,435,564
6754,370,471,194,136,384,367,276,161,304,371,233,1009,256,312,602,188,-12,141,-2,541,-205,200,-27,763,441,152,412,-202,305,-235,393,570
6755,373,502,184,141,381,366,295,175,297,359,267,1066,265,305,579,197,-79,125,-26,522,-245,82,-102,731,421,112,348,-219,220,-339,273,537
6756,415,576,207,145,385,363,357,244,320,372,298,1147,280,304,591,264,-103,158,-30,526,-241,11,-76,735,395,128,401,-57,258,-346,250,311
6757,368,596,119,158,385,378,329,256,330,383,295,1132,282,328,597,243,6,179,-7,532,-202,-69,-9,768,438,162,471,149,310,-304,299,125
6758,356,598,152,149,389,379,282,245,320,371,266,1109,275,332,589,211,-65,189,-13,542,-181,-44,10,771,422,171,555,-14,322,-295,331,125
6759,380,583,193,166,376,407,297,264,305,379,303,1066,287,313,588,263,66,183,-30,544,-141,232,19,744,395,175,738,-397,246,-327,266,125
6760,410,585,193,163,380,392,289,240,315,397,282,990,274,308,575,183,22,174,-58,514,-174,211,83,775,389,142,615,-173,284,-395,205,315
6761,396,602,179,173,361,299,225,230,307,356,222,1007,266,270,508,29,-8,149,-94,442,-330,18,44,744,354,39,153,-75,254,-429,179,420
6762,368,530,153,166,374,388,154,265,309,372,296,1030,297,276,524,99,-79,137,-93,459,-309,135,-28,727,380,73,145,-231,262,-304,294,535
6763,342,445,143,120,355,491,155,188,284,411,338,1027,252,271,571,139,-101,154,-99,475,-300,197,-26,739,375,103,271,-4,300,-337,268,428
6764,362,551,179,132,400,465,263,196,289,409,318,983,241,297,605,143,-1,110,-77,519,-225,220,-180,715,411,138,465,71,222,-398,224,-68
6765,279,539,176,136,387,384,282,226,281,395,281,929,238,303,603,194,-122,30,-75,516,-201,127,-271,662,391,135,520,-246,150,-425,180,92
6766,254,520,142,130,362,340,334,265,295,386,309,967,248,309,610,160,-90,67,-66,516,-167,-29,-198,716,401,124,436,-1,227,-329,266,411
6767,275,507,36,116,365,318,320,281,303,389,271,980,276,296,601,156,-53,98,-47,536,-188,-45,-165,732,415,119,318,134,279,-315,285,384
6768,223,464,-47,122,353,338,290,261,312,386,263,992,291,315,595,205,-81,99,-32,528,-205,49,-195,723,424,110,233,53,287,-318,293,638
6769,252,439,28,139,360,425,341,226,308,401,305,1004,260,317,613,227,-67,109,-31,524,-222,-39,-168,730,416,126,326,-135,235,-335,265,403
6770,305,532,79,146,366,414,347,208,311,400,295,1033,266,322,612,157,16,143,-19,534,-240,-75,-98,767,438,127,335,-123,258,-370,249,275
6771,325,497,81,149,362,351,294,182,313,387,240,1074,289,328,608,68,-55,159,-2,561,-194,87,-92,803,464,153,364,51,304,-334,289,475
6772,324,441,137,147,358,322,232,217,306,382,204,1104,313,334,604,-125,-30,242,25,554,-235,-148,121,835,462,104,191,-169,340,-373,248,388
6773,326,439,117,121,344,299,213,238,307,362,155,1152,336,338,596,-16,-43,321,51,554,-251,-20,429,900,468,126,288,-736,378,-362,242,204
6774,291,430,-7,101,354,308,201,258,333,383,211,1143,346,339,605,232,23,318,70,589,-252,44,542,918,515,161,456,-867,368,-306,306,312
6775,270,466,49,119,356,295,253,190,317,365,188,1023,235,320,570,207,-30,113,10,547,-325,117,-2,789,480,124,297,-243,287,-305,307,528
