,Fp1,Fp2,F7,F3,Fz,F4,F8,FC5,FC1,FC2,FC6,T7,C3,Cz,C4,T8,TP9,CP5,CP1,CP2,CP6,TP10,P7,P3,Pz,P4,P8,PO9,O1,Oz,O2,PO10
122260,454,627,770,199,356,507,624,222,495,165,451,1265,-17,438,367,304,482,176,-33,360,376,605,286,308,34,482,434,183,535,61,261,435
122261,491,665,808,198,350,521,682,256,490,153,449,1305,4,439,392,76,547,208,-23,370,405,563,291,280,54,478,428,180,531,53,261,436
122262,493,679,814,199,363,530,743,244,501,162,458,1274,11,453,400,69,486,171,-14,390,464,435,193,269,68,531,445,169,500,68,258,497
122263,478,651,723,197,377,538,692,264,495,163,431,1208,4,460,390,435,410,119,-51,394,428,320,69,244,51,494,423,89,427,27,230,356
122264,437,630,551,215,350,565,705,360,486,149,421,1168,6,457,348,656,474,142,-47,359,328,448,156,236,22,461,498,79,432,4,206,138
122265,416,658,618,219,348,555,606,305,497,141,527,1127,6,454,368,447,473,160,-43,364,378,593,270,246,21,487,595,30,456,6,201,255
122266,391,527,768,186,319,508,526,239,484,149,597,1136,-22,445,384,269,458,144,-55,361,354,543,258,232,15,451,479,-5,430,-8,177,403
122267,380,496,810,188,326,556,521,244,488,153,573,1173,-40,448,387,302,432,99,-55,352,298,489,196,223,8,415,345,-3,399,-11,181,488
122268,409,508,806,163,318,541,458,194,495,138,511,1097,-45,451,366,328,398,78,-71,353,291,505,180,205,14,437,340,81,417,2,194,467
122269,479,531,833,164,345,501,564,195,487,111,281,1088,-42,445,311,294,441,112,-72,332,286,495,204,232,16,448,390,94,443,12,210,434
122270,530,572,877,186,367,518,606,207,476,119,271,1137,-44,434,312,301,538,100,-70,309,259,478,206,215,-12,404,339,-6,403,-37,155,411
122271,526,606,902,207,376,589,581,199,498,144,339,1144,-54,448,340,329,498,85,-111,309,282,430,156,185,-18,390,351,-86,332,-101,109,400
122272,502,614,830,224,375,558,603,269,484,152,368,1122,-62,424,334,318,424,79,-125,324,316,428,136,182,-25,400,450,-186,334,-86,117,215
122273,418,599,683,230,349,519,632,328,491,130,418,1138,-41,397,322,247,405,70,-141,290,278,399,179,168,-70,384,438,-12,357,-86,90,153
122274,437,620,763,241,357,524,658,298,490,117,349,1195,-30,389,303,188,355,94,-114,284,224,431,184,164,-53,356,328,53,342,-87,113,330
122275,532,670,810,252,386,474,567,319,508,132,381,1244,18,431,318,197,460,153,-78,326,242,507,223,208,-8,396,301,55,399,-2,195,464
122276,498,572,791,263,380,548,547,296,514,132,400,1166,-9,432,326,211,483,130,-78,325,254,505,171,209,-11,406,322,8,394,-21,166,233
122277,470,559,817,281,361,549,554,282,500,98,313,1109,-38,411,316,238,419,83,-95,301,279,489,129,188,-28,403,430,-107,344,-86,116,82
122278,433,522,777,273,364,626,541,345,506,115,372,1122,-25,409,325,234,420,92,-94,313,281,396,124,199,-27,406,370,84,378,-43,175,517
122279,416,504,741,261,361,634,480,391,515,133,418,1159,-4,414,337,268,437,102,-97,314,305,495,138,189,-15,405,384,214,375,-41,160,446
122280,441,439,790,278,379,594,523,373,529,122,435,1164,-24,421,325,248,409,81,-124,321,318,514,117,165,-44,418,450,264,358,-87,137,286
122281,447,447,792,269,371,604,490,319,532,133,429,1122,-52,403,315,230,271,30,-134,301,284,422,23,156,-68,397,384,299,344,-118,90,284
122282,482,528,833,263,385,545,491,328,526,108,387,1137,-26,411,318,228,443,44,-114,316,312,403,9,179,-41,411,356,124,338,-22,167,313
122283,472,583,867,277,370,434,463,347,529,71,301,1139,-15,396,283,219,524,65,-126,303,299,448,56,197,-38,423,426,201,362,-26,173,172
122284,502,634,852,263,360,515,384,295,529,94,336,1196,21,395,282,234,552,113,-89,295,275,537,184,225,-18,409,403,293,404,-29,177,266
122285,474,502,788,282,393,510,350,421,540,125,426,1268,43,392,291,117,569,185,-69,289,210,502,226,238,-16,359,156,329,425,-36,154,481
122286,407,275,823,292,359,606,363,431,523,138,434,1331,37,411,302,-30,541,178,-80,299,233,442,203,226,-27,347,103,260,426,-74,129,402
122287,438,403,834,277,365,620,489,389,500,148,404,1393,22,419,310,52,491,149,-80,293,271,480,134,221,-35,359,215,141,387,-75,117,375
122288,553,675,913,295,390,531,610,401,519,123,295,1471,40,425,292,251,507,176,-59,302,258,499,169,230,-4,366,298,137,400,-20,168,434
122289,568,809,966,294,375,453,672,409,517,104,314,1447,56,414,223,287,548,186,-67,272,161,480,218,205,-22,341,288,106,417,-28,160,429
122290,517,784,947,302,364,394,656,362,517,93,280,1309,43,406,225,196,637,198,-82,280,177,471,293,228,-23,356,299,129,447,6,204,434
122291,527,784,954,297,366,371,645,350,533,85,236,1277,48,417,247,200,686,221,-61,299,205,448,368,267,-18,350,303,180,474,7,207,338
122292,570,767,1007,321,373,417,650,388,540,99,270,1314,76,425,265,197,654,249,-42,297,220,513,382,245,-9,372,356,91,488,-11,188,290
122293,536,721,948,321,398,452,660,386,546,132,327,1308,91,442,289,213,617,243,-38,294,254,528,380,264,-9,394,429,60,475,-20,176,274
122294,485,709,892,282,376,508,697,394,523,133,468,1248,50,411,281,236,541,160,-77,279,232,362,229,218,-59,363,331,59,373,-99,112,289
122295,470,678,892,277,371,475,659,362,525,101,402,1180,43,400,259,190,471,136,-86,259,185,305,168,191,-65,332,251,74,372,-107,98,260
122296,514,604,908,270,392,503,499,358,537,124,340,1204,47,448,257,149,541,157,-50,272,191,362,181,212,-46,343,303,118,421,-84,132,293
122297,423,409,828,285,351,675,358,324,526,158,328,1224,57,453,272,179,611,182,-33,313,216,480,231,251,-12,388,371,184,486,-24,187,360
122298,339,183,766,278,334,678,372,343,517,154,300,1229,57,446,286,189,661,194,-32,320,239,431,276,273,6,394,376,200,508,10,193,336
122299,331,297,819,322,345,529,499,401,544,140,295,1257,61,436,278,145,633,217,-34,302,215,421,274,258,-4,391,318,156,498,-2,210,343
122300,429,460,930,341,359,495,526,429,536,117,252,1305,74,423,253,157,651,239,-61,299,226,441,278,257,-38,380,355,226,485,-12,181,266
122301,516,626,951,323,348,458,458,501,518,79,263,1297,67,405,263,186,665,228,-96,275,239,380,269,248,-47,385,420,342,499,5,198,165
122302,582,706,944,353,379,458,497,534,552,85,277,1336,70,400,245,193,568,215,-95,285,244,381,251,218,-40,371,387,250,466,0,202,131
122303,645,733,1051,333,376,426,498,429,544,89,315,1290,49,412,251,172,500,188,-100,281,261,448,153,186,-56,369,461,147,416,-34,155,65
122304,645,781,1030,283,353,428,531,365,514,100,385,1243,12,401,264,177,504,157,-112,272,250,481,110,157,-68,386,445,64,363,-66,134,253
122305,552,689,971,284,353,478,550,361,501,132,412,1229,2,388,269,166,560,138,-107,277,225,475,146,142,-77,373,360,49,377,-67,130,391
122306,504,621,936,295,360,464,590,422,494,122,373,1227,0,392,250,157,565,163,-124,267,205,477,175,127,-92,351,286,60,381,-72,112,367
122307,540,629,1010,306,367,450,596,418,489,83,204,1192,0,373,190,173,546,151,-137,268,183,464,172,128,-78,336,264,70,370,-80,117,394
122308,541,631,877,257,357,443,525,345,498,94,257,1209,-17,383,220,173,549,134,-133,271,192,454,214,139,-73,354,318,61,383,-51,144,413
122309,524,529,804,244,367,424,493,404,501,118,325,1251,-31,392,242,195,579,152,-125,270,232,421,218,152,-82,376,371,-18,410,-4,183,391
122310,443,527,761,253,365,529,446,497,500,114,309,1223,-2,383,239,180,498,157,-121,276,226,364,241,153,-83,355,339,-51,396,-24,176,384
122311,434,498,757,274,365,530,436,495,502,106,295,1230,-2,370,234,165,430,123,-124,239,192,413,233,138,-91,328,331,-2,376,-85,124,361
122312,485,483,865,299,387,480,479,373,514,113,340,1256,-13,389,239,208,516,143,-107,259,213,428,286,174,-61,347,318,145,423,-103,103,255
122313,474,489,931,275,376,508,524,256,509,119,385,1221,6,373,270,267,617,139,-101,287,255,448,268,192,-46,368,379,180,445,-51,154,237
122314,354,441,901,227,347,513,450,220,488,98,339,1203,-16,371,262,249,528,115,-107,286,272,497,188,174,-62,348,425,111,419,-80,129,219
122315,426,543,926,235,349,522,488,256,501,119,354,1289,15,401,283,258,538,177,-80,287,275,400,295,237,-43,373,367,238,457,-57,128,201
122316,482,551,1007,235,326,549,555,288,492,126,371,1371,23,409,279,245,610,228,-78,286,248,368,352,267,-18,358,289,168,454,-59,136,211
122317,508,611,991,218,310,475,512,268,476,100,301,1306,5,399,267,198,584,181,-102,268,207,330,254,234,-15,334,261,-96,410,-101,103,173
122318,502,666,887,208,332,521,531,253,489,129,294,1220,11,415,265,227,511,162,-99,283,229,306,177,215,-12,360,281,-46,391,-80,127,223
122319,527,655,864,210,351,512,517,270,517,139,281,1223,24,418,243,154,542,175,-68,280,223,399,191,240,-13,365,263,193,443,-23,196,323
122320,521,617,871,173,343,424,481,249,488,114,260,1225,14,405,227,77,493,157,-83,264,186,451,176,240,-33,349,236,184,437,-42,150,273
122321,463,622,832,190,344,431,474,242,487,126,250,1184,-2,407,235,125,349,135,-70,269,203,470,98,221,-32,366,258,126,421,-33,168,278
122322,444,588,774,209,332,463,436,232,473,141,254,1114,-19,404,240,122,396,114,-79,282,216,414,97,197,-24,353,283,96,389,-76,110,141
122323,298,471,582,217,319,503,427,244,478,126,270,1024,-15,397,251,154,472,98,-91,288,228,433,134,203,-29,370,313,141,390,-108,105,114
122324,193,422,442,250,326,477,383,369,500,128,281,1072,21,396,255,81,510,111,-94,270,179,378,184,239,-37,340,224,164,400,-104,94,96
122325,99,378,568,247,335,490,306,374,502,155,300,1100,16,404,268,79,475,116,-98,266,149,354,138,214,-47,344,229,76,365,-128,69,56
122326,155,453,608,228,355,475,341,332,490,148,329,1072,3,417,291,137,428,100,-69,299,209,360,130,225,-28,393,398,-15,356,-120,82,-197
122327,349,558,590,198,360,509,366,287,484,145,366,1074,1,419,279,118,394,79,-88,310,197,310,120,207,-14,378,397,-163,327,-154,55,-8
122328,426,526,641,181,343,528,363,244,476,152,356,1046,-18,431,270,118,357,86,-77,306,170,202,148,202,-12,335,215,-145,363,-154,58,153
122329,503,475,695,179,343,495,369,234,484,142,350,1087,18,432,295,160,390,133,-64,310,215,243,282,251,-14,368,246,-314,406,-109,105,29
122330,496,488,753,152,346,548,411,220,468,165,401,1116,-9,415,312,177,366,129,-81,313,226,181,286,221,-24,352,226,-264,394,-115,100,-75
122331,446,564,750,159,346,511,473,220,473,134,349,1081,-15,412,308,220,351,91,-99,320,288,161,173,170,-54,363,336,-83,343,-118,113,114
122332,432,603,768,166,344,504,464,232,474,157,346,1109,-9,402,303,233,319,89,-102,322,288,198,175,190,-39,356,361,150,344,-134,69,30
122333,426,608,767,166,349,527,474,191,472,161,359,1102,-32,418,308,132,224,77,-101,324,263,273,113,174,-55,352,350,81,370,-132,73,-2
122334,448,676,771,175,351,471,553,178,497,144,302,1088,-9,437,298,91,319,91,-64,327,244,346,154,211,-21,351,154,-12,451,-47,142,286
122335,478,668,765,168,352,432,519,167,492,142,271,1113,24,426,326,123,490,129,-51,368,271,445,231,229,29,402,297,-202,417,-13,177,224
122336,452,626,751,163,342,474,511,180,483,152,284,1149,15,440,346,134,493,142,-80,367,287,432,215,209,19,451,396,-84,390,0,216,368
122337,419,595,740,150,344,471,499,203,487,148,282,1174,28,448,331,139,418,136,-60,374,278,412,247,237,28,443,266,117,449,40,228,493
122338,402,605,700,177,344,457,467,222,508,159,275,1155,24,446,318,100,378,112,-44,366,239,403,194,230,12,418,229,198,440,27,208,439
122339,393,499,673,148,319,561,437,212,489,168,273,1078,-3,406,309,104,364,60,-88,339,192,327,75,177,-5,376,206,178,388,-31,165,376
122340,419,454,688,184,328,548,387,229,500,163,285,1058,-18,421,326,89,396,42,-97,327,219,374,49,166,13,391,209,193,386,-18,180,418
122341,398,470,654,196,354,518,416,248,517,175,278,1083,4,445,314,76,405,56,-87,335,206,315,46,193,18,392,199,182,410,-12,188,318
122342,405,565,572,215,348,467,461,305,501,169,300,1088,12,424,318,98,317,69,-91,344,233,379,2,177,24,409,288,163,405,-21,199,214
122343,341,603,562,219,384,481,458,282,502,191,342,1057,22,440,354,139,309,59,-88,364,277,458,4,205,41,435,326,156,423,19,231,357
122344,305,612,595,219,373,512,412,222,491,185,351,1032,4,421,362,150,343,49,-104,348,247,457,27,201,-6,419,257,140,429,17,225,415
122345,354,602,594,193,346,547,368,148,472,204,391,1020,-16,409,350,165,381,47,-105,328,266,418,62,176,-20,408,286,184,409,5,206,358
122346,397,602,633,193,360,532,370,168,485,200,374,1035,-1,404,318,150,387,70,-109,299,257,368,125,202,-22,395,284,184,416,14,219,319
122347,414,602,566,148,343,459,402,165,481,165,301,1018,-28,389,291,127,242,47,-125,287,225,388,54,173,-34,353,318,-69,351,-7,189,339
122348,447,545,576,185,350,439,422,241,511,155,279,1035,4,427,271,95,285,49,-107,286,182,323,91,190,-24,326,296,-3,389,-18,175,319
122349,463,532,700,233,362,444,438,254,501,145,233,1060,12,422,263,71,334,59,-119,267,159,184,107,194,-42,304,253,122,405,-55,156,223
122350,455,560,720,212,373,454,466,209,492,148,256,1036,18,427,274,123,327,64,-96,288,196,265,75,200,-43,333,285,133,393,-40,163,227
122351,421,528,620,161,358,497,472,173,484,159,306,1025,-7,440,300,128,298,54,-90,305,211,396,40,198,-48,376,363,33,359,-33,154,234
122352,359,505,545,205,364,474,428,250,511,159,303,1059,-8,428,290,87,304,66,-101,297,199,385,40,180,-30,364,345,14,354,-60,128,200
122353,355,430,572,238,379,521,395,250,510,177,297,1072,0,437,285,82,298,88,-98,293,186,328,84,203,-53,340,223,36,352,-85,118,152
122354,410,484,588,239,396,491,392,279,512,155,235,1105,14,422,271,131,262,93,-71,286,202,372,107,233,-35,361,242,81,392,-41,142,260
122355,445,553,641,204,389,435,410,272,512,137,212,1156,3,411,265,144,305,86,-75,280,214,429,89,211,-33,355,281,-28,353,-48,132,244
122356,437,518,722,257,390,542,457,255,520,163,273,1169,-8,433,308,125,271,97,-81,294,218,414,87,214,-39,371,322,-44,347,-61,124,216
122357,362,544,668,233,383,531,493,231,515,153,245,1125,6,419,267,106,304,103,-71,288,208,337,109,226,-10,379,335,154,431,-16,154,208
122358,337,626,624,188,378,477,491,242,508,141,222,1056,5,419,252,121,263,52,-93,281,197,342,10,194,-49,351,297,9,355,-86,94,155
122359,405,635,653,230,362,479,424,285,514,136,282,1080,14,415,268,117,213,40,-86,286,212,350,-19,179,-57,346,273,-124,312,-132,56,206
122360,465,558,701,226,393,514,455,238,508,134,281,1062,-2,416,260,61,199,44,-87,289,191,304,-2,178,-55,354,225,-84,292,-137,68,203
122361,458,530,721,220,392,594,415,197,508,156,274,1050,5,430,262,51,289,63,-90,303,184,319,50,198,-48,367,260,26,332,-111,103,308
122362,454,557,725,181,370,541,396,156,519,137,230,1067,11,430,264,93,341,84,-97,306,215,359,78,205,-32,387,299,101,371,-50,156,330
122363,475,602,765,230,389,455,422,187,516,153,219,1093,11,429,253,95,367,73,-79,321,216,375,102,200,-23,416,315,-24,375,-36,165,361
122364,521,655,811,223,407,405,424,230,504,154,234,1092,5,430,249,133,298,70,-101,310,206,326,111,196,-42,390,282,-153,332,-132,82,243
122365,509,681,799,237,408,428,421,249,509,146,242,1145,0,423,249,198,399,117,-89,303,240,340,176,226,-51,372,318,-124,358,-121,67,152
122366,474,693,781,244,377,414,436,258,495,142,266,1155,26,434,268,219,455,126,-64,311,254,353,213,207,-42,390,383,-153,396,-112,91,91
122367,466,694,729,208,393,430,428,235,496,149,315,1044,4,428,295,259,417,64,-105,320,281,340,135,159,-39,418,439,-136,359,-98,84,159
122368,397,651,581,211,378,459,383,343,495,156,345,1029,-10,412,263,231,461,58,-118,319,262,361,68,168,-43,385,403,-95,322,-120,78,256
122369,376,572,616,241,355,486,336,440,501,144,321,1064,1,419,261,186,425,74,-110,294,237,378,72,158,-72,376,379,0,353,-86,105,321
122370,424,555,759,232,369,527,395,313,498,132,339,1053,-12,403,275,225,338,58,-133,289,262,220,71,149,-55,388,423,111,365,-55,114,201
122371,466,559,819,215,381,523,403,246,495,140,393,1114,-27,393,289,273,337,84,-120,306,295,234,118,174,-53,411,528,133,401,-76,122,-54
122372,479,484,837,211,386,567,486,193,489,144,390,1095,-32,392,290,288,449,97,-129,302,308,335,157,161,-70,410,636,128,401,-96,108,-12
122373,453,451,806,207,387,577,545,228,492,133,345,1060,-21,397,252,182,327,82,-144,283,243,393,118,168,-72,374,450,45,391,-66,135,313
122374,404,473,747,233,388,508,451,345,515,112,248,1120,40,416,216,175,311,126,-118,286,191,451,177,218,-40,358,271,57,449,-28,162,413
122375,322,493,718,265,377,487,408,380,520,94,188,1122,31,403,194,176,368,150,-111,278,183,390,235,215,-34,350,225,88,443,-35,151,360
122376,339,544,800,268,370,496,425,296,499,98,195,1145,20,401,197,147,402,173,-103,299,160,370,279,236,-20,344,204,86,475,-20,174,308
122377,420,632,814,254,380,443,435,280,505,97,239,1136,30,413,228,176,383,169,-55,313,203,401,264,265,0,390,255,77,496,19,222,353
122378,476,601,838,220,386,456,412,213,493,120,257,1102,-16,420,250,182,320,109,-88,314,207,421,178,222,-6,375,280,-49,404,-33,177,357
122379,497,538,820,187,367,444,414,207,478,102,238,1098,-49,407,238,120,326,75,-140,280,163,380,57,154,-44,324,250,-118,289,-109,88,270
122380,430,569,722,183,354,405,453,251,492,88,239,1083,-38,380,232,144,267,48,-133,276,203,397,1,140,-44,328,310,-136,251,-128,76,215
122381,397,547,680,240,367,387,480,305,511,74,235,1092,-3,392,248,206,286,76,-132,272,238,371,15,145,-65,363,381,-58,303,-122,58,44
122382,466,517,727,277,397,414,514,341,537,90,251,1134,31,392,255,262,312,117,-115,296,256,360,52,196,-49,385,441,-82,321,-119,81,-146
122383,426,471,650,247,385,469,472,360,520,99,267,1107,44,384,239,242,276,129,-112,269,238,388,167,206,-62,366,386,-142,364,-115,78,190
122384,410,531,628,237,361,459,474,389,519,68,249,1143,36,384,191,172,355,156,-113,210,142,335,322,222,-101,293,186,-118,408,-149,50,321
122385,496,634,708,286,399,426,525,413,559,98,257,1179,54,400,207,175,417,152,-91,244,143,306,284,208,-93,307,209,-269,322,-134,50,221
122386,469,627,747,283,394,384,510,346,531,75,225,1135,20,364,196,251,360,113,-139,219,164,261,234,131,-144,295,250,-458,155,-241,-37,85
122387,443,581,732,238,363,356,455,229,501,71,273,1097,-40,356,204,226,304,68,-148,204,163,374,184,104,-149,283,310,-337,178,-236,-38,150
122388,475,547,739,186,367,411,420,216,500,96,362,1083,-50,369,211,158,238,33,-145,211,144,341,52,93,-158,253,247,-33,232,-195,10,283
122389,515,444,743,131,359,530,428,231,493,99,290,1110,-59,354,189,143,223,36,-151,215,119,304,-13,86,-163,232,102,-35,231,-191,-17,261
122390,483,485,705,123,383,525,434,211,492,93,331,1046,-85,370,211,146,128,-8,-160,209,103,289,-102,75,-157,226,113,-211,231,-210,-22,191
122391,364,539,584,179,372,477,440,264,482,85,312,1027,-71,350,192,95,170,-11,-181,189,63,297,-117,56,-164,203,112,-199,187,-281,-71,48
122392,382,570,612,217,364,435,538,283,497,77,198,1020,-48,356,189,86,253,-25,-166,207,96,359,-105,85,-124,257,154,54,270,-204,-7,165
122393,451,593,714,198,382,407,493,208,483,68,195,1011,-72,355,209,105,261,-40,-154,216,123,324,-131,72,-109,276,192,77,255,-193,2,176
122394,514,563,752,184,411,456,446,232,492,71,241,1010,-74,366,201,112,267,-30,-175,224,129,309,-168,40,-125,274,192,-7,186,-245,-65,92
122395,543,520,734,211,424,470,454,338,508,57,210,1045,-40,381,192,126,296,2,-156,229,127,371,-129,71,-116,282,197,71,229,-233,-27,143
122396,436,505,648,240,364,420,428,405,528,28,180,1067,-3,357,164,107,206,16,-158,201,121,436,-68,115,-133,245,178,89,247,-220,1,230
122397,371,506,714,276,357,388,401,293,528,33,172,1090,-11,365,140,63,210,39,-169,202,98,397,-40,110,-116,243,157,133,254,-188,16,229
122398,427,544,798,264,390,445,361,194,515,51,220,1126,-6,383,161,145,365,81,-132,236,140,356,17,132,-89,265,231,105,304,-173,33,112
122399,339,418,748,260,363,606,356,185,509,89,341,1162,-6,377,215,168,435,99,-123,256,176,310,70,153,-88,293,373,57,315,-149,23,-15
122400,305,185,730,247,350,742,282,244,507,106,401,1180,-6,355,242,129,378,93,-138,239,190,154,117,134,-118,292,477,-115,258,-230,-38,-142
122401,294,158,624,232,342,641,145,340,512,76,341,1192,0,354,208,155,329,92,-154,212,172,170,135,100,-145,257,446,-303,225,-304,-110,-203
122402,354,301,719,252,360,538,200,318,520,75,263,1156,-16,368,186,143,303,66,-131,215,122,170,61,107,-156,233,201,-149,226,-269,-75,-1
122403,481,428,842,233,378,508,314,288,521,81,253,1151,-19,369,193,101,329,73,-120,227,139,308,26,109,-134,254,149,-49,238,-221,-24,189
122404,531,557,908,227,386,406,397,292,506,78,232,1124,-13,377,197,138,349,86,-116,240,141,457,37,132,-107,290,161,43,292,-152,69,454
122405,565,662,915,222,381,362,481,289,502,82,236,1118,-3,373,197,188,415,100,-109,266,160,462,59,158,-87,292,122,182,346,-89,116,476
122406,542,643,905,229,400,376,553,281,518,100,260,1149,28,387,246,244,503,118,-81,289,215,460,140,185,-45,329,235,257,402,-59,145,420
122407,503,586,889,218,385,402,535,278,506,107,295,1131,37,388,265,283,530,125,-83,291,243,444,181,191,-50,366,343,246,426,-53,154,348
122408,511,613,839,224,377,429,553,262,505,84,337,1124,12,385,301,307,489,122,-95,308,309,578,229,189,-47,377,455,131,403,-74,135,314
122409,528,598,871,246,388,461,528,339,512,104,272,1150,35,410,283,280,487,159,-95,301,269,485,310,198,-42,367,393,99,404,-84,122,358
