,Fp1,Fp2,F7,F3,Fz,F4,F8,FC5,FC1,FC2,FC6,T7,C3,Cz,C4,T8,TP9,CP5,CP1,CP2,CP6,TP10,P7,P3,Pz,P4,P8,PO9,O1,Oz,O2,PO10
2046,589,458,301,121,241,343,390,171,382,56,343,1231,41,491,522,359,-87,-76,-47,591,-84,-58,-176,496,473,127,222,162,487,-484,164,517
2047,609,484,385,135,260,330,407,206,407,49,361,1217,76,501,550,359,-63,-13,10,623,-46,3,-88,536,516,196,360,479,633,-362,265,463
2048,573,438,387,128,255,318,396,202,412,33,371,1249,74,507,537,360,-20,-21,7,628,-41,-79,-105,553,518,223,405,434,652,-329,293,360
2049,588,450,412,128,249,307,367,200,411,28,311,1279,85,510,562,283,98,9,24,637,-12,66,-57,562,545,255,491,391,632,-313,316,381
2050,603,513,415,152,245,301,471,222,384,45,370,1291,96,510,594,411,45,14,1,639,30,19,-70,543,529,256,502,267,571,-357,267,531
2051,632,482,461,170,237,321,474,245,400,59,432,1327,101,513,608,566,92,26,-24,652,72,-9,-48,565,532,247,459,225,544,-386,260,500
2052,589,442,458,122,227,312,448,226,392,57,406,1307,80,493,598,581,27,3,-40,638,95,-30,-64,525,506,224,486,111,491,-443,208,442
2053,579,486,413,116,230,333,454,163,386,58,354,1277,57,504,579,479,-23,-18,-40,628,30,-42,-75,545,504,217,459,92,504,-437,180,376
2054,586,498,383,122,234,329,468,155,384,54,379,1263,47,497,539,377,-33,-37,-46,596,-48,-69,-103,526,494,177,338,103,525,-462,155,372
2055,592,520,373,144,244,347,451,190,384,48,368,1276,52,496,508,327,-78,-11,-53,549,-101,-102,-72,510,448,117,228,86,521,-488,124,379
2056,599,532,399,151,255,387,436,224,406,78,397,1295,89,499,488,341,-94,27,-58,532,-122,-157,-6,521,429,69,195,7,507,-543,79,279
2057,579,500,366,117,261,392,485,211,380,74,439,1328,76,484,498,383,-77,38,-51,539,-97,-107,72,548,422,85,274,-50,525,-547,89,198
2058,586,537,346,79,234,373,504,122,348,76,417,1402,55,459,513,194,36,62,-32,557,-22,-94,182,582,448,157,376,-126,544,-559,80,134
2059,616,565,437,147,254,349,429,253,369,54,381,1548,82,458,510,50,52,116,-26,563,29,-277,171,585,497,173,386,-196,537,-503,132,143
2060,643,562,452,148,244,365,430,326,370,35,395,1591,108,452,511,259,87,165,-6,569,14,-261,287,612,513,166,372,-35,598,-464,159,138
2061,588,524,408,123,227,320,439,306,385,28,454,1496,104,457,509,610,44,135,-25,580,-36,-191,287,619,509,183,506,-161,624,-458,165,0
2062,552,508,380,105,234,331,468,250,380,23,379,1449,95,468,537,703,214,174,-1,602,-4,-228,423,666,521,176,513,-473,629,-444,186,15
2063,530,503,297,88,217,333,498,135,359,44,389,1400,67,478,547,625,183,142,-11,612,32,-196,437,635,517,193,493,-116,620,-459,175,197
2064,574,545,303,112,224,320,524,178,372,33,374,1379,49,479,522,571,-203,37,-30,610,-25,-132,96,576,524,194,453,108,596,-399,243,468
2065,605,558,337,132,249,361,461,194,364,43,333,1365,33,475,499,404,-110,16,-33,592,-88,-279,-100,526,513,143,225,266,559,-387,255,553
2066,606,539,362,126,271,410,449,170,358,61,393,1301,11,469,546,534,-138,-57,-55,607,-5,-412,-270,490,500,171,374,353,531,-433,208,311
2067,575,539,304,70,263,427,492,109,333,87,456,1027,-31,473,608,596,-89,-149,-95,633,70,-36,-303,497,498,237,531,337,574,-371,258,289
2068,577,529,317,85,254,371,459,114,350,54,409,1134,-15,482,568,358,13,-99,-66,640,-41,56,-248,515,508,199,213,355,611,-306,316,566
2069,589,514,313,113,251,350,427,154,357,67,352,1227,-15,479,529,229,12,-85,-65,624,-45,2,-248,500,522,189,232,373,629,-302,314,457
2070,582,508,262,94,232,348,451,137,357,60,350,1143,-18,478,494,338,-69,-123,-78,612,-27,81,-266,476,511,205,332,293,580,-344,301,339
2071,538,458,236,98,240,338,456,193,363,43,356,1178,20,503,527,280,-49,-90,-48,619,-50,79,-239,500,502,189,296,308,553,-368,283,490
2072,501,466,216,80,222,325,448,202,357,44,371,1178,15,477,519,192,-87,-102,-45,601,-72,-59,-215,468,479,129,198,352,558,-391,253,494
2073,534,505,221,73,239,325,431,105,348,55,394,1132,-47,472,511,378,-159,-149,-90,583,-72,-65,-235,422,453,117,229,247,527,-404,204,415
2074,507,482,187,57,237,313,414,97,337,15,386,1192,-51,461,459,483,-125,-147,-128,545,-168,-96,-206,414,436,93,254,153,502,-446,183,212
2075,534,511,252,89,238,326,405,96,341,20,396,1308,-21,452,438,402,-135,-114,-108,531,-177,-121,-142,397,401,73,255,-32,434,-539,92,191
2076,542,513,343,110,232,320,354,161,347,11,348,1427,15,473,411,313,-145,-54,-101,509,-194,-186,27,437,380,5,113,-65,459,-555,67,308
2077,501,483,282,110,219,323,346,213,350,17,325,1294,10,479,413,325,-171,-74,-123,525,-164,-187,-36,441,395,26,250,-157,457,-519,109,-47
2078,519,435,276,93,218,352,384,157,344,38,337,1112,-13,466,410,334,-154,-159,-148,502,-154,-278,-183,378,394,37,271,-304,405,-515,124,284
2079,515,413,309,76,237,367,379,127,352,39,379,1183,-14,469,432,350,-58,-125,-115,505,-140,-308,-120,412,398,30,247,-169,402,-547,102,390
2080,507,440,286,58,234,361,371,124,364,41,370,1217,-41,457,465,341,-105,-159,-149,506,-116,-215,-207,367,352,21,281,-122,366,-564,79,306
2081,454,450,277,52,229,387,426,51,340,48,402,1265,-81,465,486,411,-177,-198,-144,538,-102,-133,-264,351,358,58,311,20,388,-555,98,352
2082,503,481,279,81,242,391,463,56,321,51,409,1244,-79,472,495,425,-240,-220,-168,548,-88,-200,-287,325,358,61,330,21,341,-618,19,259
2083,566,516,336,90,243,350,466,108,334,37,391,1178,-73,463,482,425,-170,-203,-165,537,-92,-346,-260,341,362,42,281,165,376,-616,29,136
2084,553,545,342,119,260,352,483,146,359,46,401,1218,-31,484,526,528,-99,-159,-132,563,-20,-130,-241,381,409,127,445,133,410,-575,70,-48
2085,564,546,339,125,273,339,467,170,399,54,354,1254,1,494,520,387,-90,-132,-115,601,-47,-101,-243,398,417,145,465,64,396,-567,54,1
2086,557,522,292,122,253,319,451,190,396,19,320,1244,4,485,498,286,-122,-114,-88,577,-92,-113,-195,420,429,108,368,222,466,-533,79,100
2087,538,536,204,121,250,299,439,218,396,23,320,1217,12,504,501,360,-69,-81,-87,571,-91,-32,-97,450,434,93,273,340,506,-550,77,364
2088,540,544,207,126,256,325,455,174,375,15,304,1167,2,495,483,335,15,-140,-111,549,-134,-31,-201,384,397,54,115,-133,373,-586,34,505
2089,493,498,169,110,232,352,412,152,375,-5,305,1093,-16,489,478,299,-14,-151,-121,545,-157,-61,-219,369,392,57,129,-155,331,-627,2,446
2090,520,496,213,130,235,309,357,254,384,-9,304,1205,14,487,454,233,-64,-97,-113,554,-172,-72,-139,422,388,58,169,-64,376,-613,25,398
2091,572,493,327,134,244,317,382,268,384,17,326,1272,10,472,452,117,-152,-100,-117,531,-184,-129,-208,388,391,54,153,-46,365,-596,25,342
2092,584,507,318,101,235,338,392,82,370,19,336,1194,-19,469,469,203,-10,-124,-132,535,-154,-177,-162,402,375,89,240,70,410,-576,72,310
2093,594,462,371,103,242,333,357,55,366,17,314,1237,-10,470,457,373,104,-89,-134,533,-117,-168,-76,432,378,70,312,84,420,-573,56,280
2094,599,408,387,122,257,365,378,107,372,9,316,1267,-5,461,440,362,67,-58,-121,511,-141,-144,-58,428,335,33,272,30,408,-611,36,214
2095,607,449,357,121,265,369,391,108,356,13,331,1215,-20,438,427,308,-74,-97,-147,479,-184,-340,-88,390,313,-1,219,1,392,-648,-10,190
2096,624,523,348,122,291,338,372,123,368,6,329,1267,-31,447,430,333,-22,-51,-129,479,-147,-340,-20,417,345,22,237,-48,434,-623,13,280
2097,594,558,345,122,270,319,383,161,389,5,311,1336,0,451,442,406,52,-4,-103,502,-54,-130,84,481,381,86,381,42,498,-557,80,236
2098,568,528,341,121,250,315,381,157,396,9,338,1375,21,465,457,370,12,23,-78,531,-90,-150,162,532,420,97,319,61,552,-495,138,373
2099,562,539,313,100,252,321,407,159,383,7,340,1355,8,449,449,327,20,-6,-98,513,-149,-187,87,495,409,72,204,-50,521,-509,124,431
2100,573,546,297,110,258,300,435,165,379,-7,331,1321,10,432,432,317,20,-27,-103,515,-137,-213,66,464,381,61,212,169,467,-585,27,284
2101,595,552,345,127,246,312,427,194,392,3,346,1298,10,433,458,265,6,-25,-123,516,-132,-183,-3,408,366,56,253,-94,387,-642,-12,96
2102,627,563,353,112,264,331,480,236,376,10,372,1198,-13,431,491,134,53,-43,-145,517,-68,-302,-14,387,340,58,327,-401,333,-678,-47,4
2103,620,552,346,106,264,336,447,140,364,12,403,1231,-38,443,526,190,-31,-62,-130,551,19,-189,19,406,360,118,396,-231,365,-646,-5,147
2104,583,559,324,80,263,330,379,131,350,-6,387,1415,-20,443,516,385,-163,-20,-123,568,-6,-141,62,457,401,116,341,-115,408,-636,25,184
2105,619,557,302,100,273,360,420,191,373,10,405,1376,6,450,480,426,-145,-57,-113,540,-102,-159,3,452,397,79,296,-144,372,-659,7,239
2106,579,527,234,89,244,378,459,114,354,16,379,1349,-32,465,473,353,-182,-136,-106,540,-125,-154,-149,393,388,66,271,-141,366,-590,42,404
2107,564,525,279,99,249,377,451,172,364,23,376,1414,-41,464,463,330,-171,-142,-132,530,-132,-230,-219,367,355,42,214,-69,332,-613,14,308
2108,609,560,352,151,272,356,467,231,403,16,361,1389,-6,459,457,270,-129,-138,-132,538,-107,-174,-242,369,349,59,300,93,351,-580,56,172
2109,629,543,353,157,280,357,432,208,407,21,336,1243,-23,446,452,261,-46,-134,-129,533,-84,-104,-230,387,390,110,352,204,422,-528,114,297
2110,665,544,369,151,277,346,415,169,380,4,329,1207,-47,444,429,267,-88,-173,-151,490,-158,-170,-282,354,352,52,175,145,373,-614,20,181
2111,635,555,314,142,274,326,410,168,368,-8,337,1144,-48,442,440,297,-80,-174,-144,488,-150,-299,-266,320,328,26,200,58,336,-658,-18,124
2112,601,504,264,129,264,305,385,169,385,0,303,1137,-46,439,440,34,-43,-150,-139,487,-92,-312,-164,355,339,68,318,110,374,-602,29,-102
2113,594,536,243,130,261,274,311,187,392,3,283,1171,-57,435,430,-84,-117,-156,-154,487,-59,-296,-167,350,312,63,408,-16,355,-656,-40,-264
2114,597,553,206,99,265,294,295,148,376,0,304,1231,-46,435,396,226,-110,-146,-162,473,-157,-255,-128,344,305,18,245,-199,360,-642,-41,169
2115,579,544,246,80,273,340,365,157,366,5,401,1221,-56,444,403,533,-125,-169,-172,475,-241,-182,-102,318,293,6,279,-307,340,-673,-30,47
2116,537,518,262,84,252,381,381,181,361,15,433,1272,-55,445,445,460,-2,-129,-136,504,-182,-148,-17,382,322,52,342,-243,366,-657,-26,239
2117,586,560,327,97,250,305,344,221,386,3,325,1356,-18,443,407,304,23,-81,-130,502,-214,-96,52,420,342,28,116,-87,429,-592,45,468
2118,618,559,412,123,258,306,368,201,375,-15,231,1310,-14,453,409,296,-82,-85,-133,505,-215,-131,-7,415,369,20,70,39,453,-558,80,399
2119,616,574,440,125,260,356,413,176,364,3,333,1324,-25,447,451,317,-38,-71,-147,517,-173,-182,5,428,353,26,137,39,466,-589,48,329
2120,643,611,445,129,276,419,488,217,385,35,402,1282,-7,466,486,359,44,-44,-128,518,-143,-274,30,455,355,42,173,-31,479,-589,42,294
2121,618,573,389,103,253,360,446,212,356,16,364,1365,-11,442,459,372,-111,-51,-154,502,-120,-319,-96,400,373,27,171,-96,392,-579,48,265
2122,643,599,369,138,254,340,437,245,369,5,366,1453,7,440,465,389,-251,-43,-151,506,-107,-282,-175,381,366,53,186,69,401,-546,71,301
2123,620,606,361,131,268,366,478,195,353,1,376,1456,-41,459,491,381,-138,-96,-145,527,-98,-159,-107,413,390,88,297,76,491,-480,139,220
2124,606,598,324,125,278,387,530,164,362,30,442,1376,-55,476,506,434,11,-116,-138,563,-40,-86,-86,426,412,137,448,58,465,-470,163,215
2125,618,618,289,106,266,397,577,148,356,24,471,1228,-56,457,500,451,-85,-125,-146,545,-45,-56,-129,390,384,115,348,160,429,-543,70,284
2126,633,642,332,117,257,387,552,176,360,22,413,1253,-38,446,504,402,18,-115,-158,529,-110,-67,-93,399,373,62,200,39,434,-551,89,301
2127,626,606,358,129,257,384,486,196,369,37,388,1302,-16,446,498,368,75,-76,-147,537,-100,-111,-31,433,387,99,238,66,505,-515,130,398
2128,624,577,316,102,256,394,490,147,365,43,406,1176,-34,455,526,406,29,-107,-148,555,-51,-118,-40,432,402,102,291,148,501,-500,123,389
2129,600,545,280,104,269,385,481,147,359,57,394,1309,-24,474,512,327,-125,-88,-144,539,-61,-128,-77,418,395,94,371,141,485,-522,123,270
2130,593,544,326,120,275,364,434,193,373,50,361,1398,-1,466,485,323,-65,-73,-129,554,-87,-155,-75,426,409,104,333,242,512,-499,166,264
2131,598,558,332,93,251,364,486,193,374,60,380,1282,-10,491,507,351,7,-91,-138,560,-79,-107,-98,434,400,100,302,313,535,-465,176,258
2132,573,567,294,100,247,383,510,157,359,58,402,1280,-25,488,499,305,-112,-124,-148,535,-141,-216,-163,406,381,68,181,333,538,-462,171,410
2133,591,569,260,75,241,384,540,116,346,35,402,1264,-40,432,452,261,-129,-153,-181,500,-206,-227,-204,356,340,20,105,115,434,-554,66,325
2134,610,570,318,97,267,397,552,145,355,54,400,1259,-23,472,475,327,-64,-136,-162,521,-169,-149,-193,369,351,23,184,-11,407,-621,-4,232
2135,582,571,322,87,259,402,576,110,338,50,399,1185,-19,473,481,379,-61,-142,-145,517,-130,-267,-158,371,370,36,267,-29,394,-618,23,108
2136,580,578,272,48,248,391,613,94,323,53,440,1196,-44,457,501,421,-86,-139,-166,529,-49,-288,-139,338,351,70,372,-45,343,-643,-8,79
2137,586,588,235,65,271,390,626,136,340,56,445,1334,-17,469,545,359,-68,-90,-150,557,39,-254,-57,377,381,129,402,-7,407,-573,58,103
2138,630,602,327,103,270,395,601,208,363,66,450,1467,17,477,557,395,-31,-7,-120,572,29,-277,71,446,419,129,337,90,515,-487,135,212
2139,627,594,367,106,249,347,535,224,356,51,435,1441,2,468,507,501,-54,-40,-130,553,-77,-276,26,416,410,91,300,36,506,-485,131,332
2140,645,634,389,123,258,379,558,227,357,57,432,1411,-4,472,466,570,-15,-51,-129,536,-134,-52,38,434,422,88,333,-104,509,-460,168,450
2141,681,644,432,140,268,365,566,242,366,54,403,1495,10,487,461,446,-67,-33,-124,526,-136,27,0,456,423,77,295,-99,520,-466,161,446
2142,672,630,439,115,256,344,534,229,362,51,381,1343,-21,460,460,400,-113,-86,-149,504,-120,-19,-80,430,401,96,285,-88,512,-452,169,460
2143,649,555,372,107,264,388,484,125,358,74,426,1145,-66,455,465,388,-55,-160,-172,517,-114,-24,-113,423,391,86,291,123,509,-439,202,509
2144,587,470,322,94,256,401,413,32,337,87,449,1078,-80,466,475,240,-47,-202,-174,517,-132,-38,-200,393,384,72,264,205,468,-456,162,507
2145,576,470,277,90,242,429,429,61,351,58,412,1079,-72,473,473,169,-49,-196,-175,514,-167,-93,-233,373,382,65,239,292,485,-466,136,451
2146,622,567,309,116,249,404,508,89,343,53,398,1110,-101,451,467,237,-144,-223,-205,478,-211,-152,-335,318,333,-8,134,155,365,-585,33,172
2147,663,576,385,141,266,380,492,155,366,72,351,1198,-60,456,437,330,-105,-175,-194,490,-162,-112,-281,341,337,21,242,98,380,-624,21,-165
2148,654,602,381,130,284,404,562,169,361,57,378,1231,-39,442,440,346,-56,-153,-182,490,-138,-187,-179,359,327,16,278,125,419,-602,29,110
2149,642,585,357,138,266,391,555,175,354,47,370,1290,-10,440,431,365,-44,-109,-165,478,-164,-284,-62,387,346,-31,112,325,518,-540,77,384
2150,646,550,346,145,269,362,493,199,360,45,361,1308,-10,445,423,362,-134,-75,-146,485,-155,-191,17,415,370,8,138,230,550,-519,108,358
2151,665,611,383,148,271,358,502,209,380,36,303,1298,-11,439,369,211,-55,-86,-161,450,-237,-183,-3,379,339,-32,98,-136,439,-614,7,182
2152,669,641,403,134,275,346,511,176,378,46,315,1268,-30,448,402,282,-46,-117,-163,461,-196,-227,-112,343,321,-47,141,-222,346,-692,-40,45
2153,640,628,396,146,271,343,516,180,353,48,337,1308,-24,446,435,362,-117,-144,-169,469,-154,-182,-191,327,345,-10,202,-132,345,-623,14,183
2154,622,620,340,131,261,348,517,215,357,30,331,1368,-13,448,432,344,-76,-102,-141,481,-147,-127,-178,348,338,-15,187,21,409,-607,8,269
2155,638,620,285,137,266,371,524,172,372,27,385,1338,-3,466,443,392,-98,-93,-120,503,-103,-187,-99,385,356,-12,239,200,473,-614,8,140
2156,614,574,308,140,264,392,473,147,357,45,400,1222,-24,466,468,410,-121,-156,-127,505,-90,-243,-181,332,322,16,342,-227,374,-614,24,80
2157,593,544,285,128,264,347,418,162,369,46,383,1226,-7,472,432,347,-65,-167,-138,494,-118,-199,-138,340,303,24,400,-149,404,-580,66,119
2158,567,525,271,109,265,359,413,156,349,34,386,1166,-21,462,413,297,-85,-196,-167,480,-139,-178,-162,337,307,-3,391,-23,392,-582,55,-22
2159,578,534,311,106,280,382,465,182,367,78,405,1128,0,483,442,399,-140,-162,-138,514,-74,-112,-174,367,352,51,446,14,436,-512,114,227
2160,563,512,304,117,270,391,454,243,393,51,360,1409,14,470,424,370,-211,-102,-119,491,-154,-111,-158,375,345,-3,215,-50,404,-570,40,360
2161,549,519,301,121,270,375,472,289,397,27,355,1541,43,463,402,232,-164,-99,-135,456,-271,-218,-177,353,310,-77,-59,-183,318,-705,-75,149
2162,570,566,306,123,278,345,523,214,391,62,394,1572,14,453,398,222,-182,-88,-147,433,-286,-316,-92,338,284,-96,-86,-508,290,-692,-71,103
2163,553,556,308,99,275,349,497,80,368,49,352,1436,-15,442,382,268,-102,-80,-145,445,-277,-375,64,378,306,-92,12,-282,356,-655,-42,16
2164,518,564,243,92,284,388,520,100,371,59,363,1225,-18,457,398,349,12,-103,-137,456,-211,-556,111,376,317,-68,168,-406,360,-649,-33,-220
2165,475,515,162,82,246,375,508,117,375,36,402,1254,-3,444,461,556,-73,-17,-136,479,-31,-864,392,425,307,8,557,-776,360,-716,-79,-1017
2166,486,522,185,85,275,376,525,138,374,65,435,1284,10,457,484,656,-169,-1,-122,517,68,-710,410,431,333,75,878,-838,326,-799,-158,-910
2167,559,546,228,100,294,372,490,178,398,34,328,1241,3,461,403,359,-165,-27,-106,491,-167,-750,199,427,337,-46,187,-618,377,-650,-18,247
2168,571,493,254,109,270,341,449,178,376,3,289,1211,-4,444,359,206,-133,-83,-128,466,-294,-500,20,372,324,-79,-70,-294,328,-620,3,322
2169,538,438,273,116,274,358,341,169,352,19,297,1150,-26,457,355,186,-235,-115,-129,456,-307,-389,-150,327,325,-74,-137,-97,317,-580,44,412
2170,527,385,245,122,259,398,284,168,365,30,354,1237,-21,437,385,275,-346,-113,-134,465,-208,-458,-169,320,337,-47,49,-99,319,-601,27,471
2171,516,377,260,87,247,430,368,101,376,74,484,1299,-26,428,510,647,-368,-96,-147,524,163,-847,-77,372,339,114,1048,-372,308,-714,-77,-952
2172,533,413,305,70,250,384,386,38,344,52,460,1331,-48,441,506,627,-364,-70,-152,542,166,-993,40,361,351,167,1102,-1056,265,-742,-118,-964
2173,562,482,334,105,269,344,418,158,356,16,313,1432,30,445,338,130,-37,32,-132,413,-396,-1249,217,388,297,-196,-671,-604,299,-781,-141,402
2174,519,527,250,67,270,391,500,67,330,29,351,1178,-59,443,388,243,-344,-192,-185,441,-280,-628,-204,283,282,-103,-283,79,275,-717,-79,347
2175,551,586,258,82,280,384,543,28,319,41,337,1017,-117,429,389,226,-604,-397,-220,468,-216,-738,-768,166,297,-36,170,173,220,-647,-37,163
2176,574,592,319,111,302,346,501,103,355,47,328,1056,-86,469,388,66,-465,-363,-182,483,-236,-656,-780,190,319,-16,33,288,282,-611,14,-237
2177,578,611,320,91,280,316,475,137,361,36,289,1064,-63,457,391,-371,-388,-359,-156,493,-260,-649,-721,216,355,-33,-214,310,319,-592,48,50
2178,516,568,249,55,248,343,451,146,333,26,348,1163,-73,448,420,-304,-359,-318,-169,501,-144,-612,-659,241,331,-14,-100,424,334,-597,29,118
2179,476,566,193,50,232,317,391,171,334,44,390,1339,-80,467,428,340,-337,-278,-180,502,-55,-251,-568,293,351,72,443,427,384,-543,78,-285
2180,534,630,263,64,255,335,385,138,361,22,242,1458,-11,483,344,495,-27,-81,-111,474,-329,-632,13,432,402,-17,51,-652,558,-343,295,793
2181,479,570,311,73,236,324,392,133,363,23,359,1585,94,478,445,790,310,415,-16,524,32,-1665,1693,764,444,94,649,-2163,806,-347,274,602
2182,410,492,192,34,238,390,376,138,341,95,707,1576,80,505,735,1568,-260,458,-40,673,930,-2630,1966,758,451,406,2522,-3678,615,-585,30,-1303
2183,443,486,136,19,237,535,356,34,324,141,814,1247,-76,476,743,1373,-735,42,-154,659,781,-3299,887,423,357,399,2372,-3332,224,-761,-139,-2436
2184,463,471,237,87,240,558,320,66,343,102,583,1155,-127,426,476,655,-688,-167,-208,465,7,-2607,90,255,249,-33,463,-2150,118,-861,-249,-2096
2185,447,293,242,80,245,564,230,61,336,90,519,1130,-148,425,437,373,-659,-304,-235,443,-108,-1503,-362,171,224,-45,579,-890,65,-949,-334,-1641
2186,504,314,293,101,274,432,306,64,346,42,329,1119,-155,401,244,-148,-466,-361,-234,317,-688,-1231,-751,145,177,-375,-1166,632,195,-855,-235,277
2187,551,463,364,137,292,420,445,48,351,32,202,1067,-179,425,228,-178,-665,-469,-253,313,-754,-519,-1200,75,198,-414,-1419,689,154,-756,-135,916
2188,578,571,395,146,286,399,461,65,352,45,197,1082,-161,425,248,-171,-716,-500,-244,347,-748,-308,-1371,54,233,-362,-1393,799,169,-671,-26,1334
2189,580,628,331,126,279,399,502,74,359,55,172,1096,-117,414,222,-246,-404,-441,-207,365,-805,-584,-1221,144,293,-341,-1411,1197,358,-603,33,1280
2190,576,577,293,72,274,421,468,24,332,32,234,963,-167,441,277,-49,-498,-596,-230,395,-654,-1138,-1496,65,290,-246,-994,899,238,-601,29,866
2191,577,504,219,52,268,421,512,20,341,39,365,935,-195,468,348,260,-496,-622,-254,428,-488,-1273,-1494,34,263,-210,-709,897,188,-671,-34,373
2192,606,511,257,94,277,364,495,57,351,35,324,1083,-157,458,340,141,-392,-467,-235,423,-474,-452,-1151,105,245,-216,-616,544,186,-730,-105,524
2193,578,544,372,121,256,291,446,96,364,0,219,1226,-113,445,266,-135,-363,-308,-212,368,-574,-233,-663,184,232,-283,-878,111,236,-750,-100,942
2194,537,607,299,98,258,281,459,41,366,13,217,1112,-130,457,307,54,-639,-365,-214,408,-399,-358,-666,199,251,-171,-428,98,249,-738,-99,552
2195,544,619,243,115,277,287,457,60,382,32,272,1073,-142,458,342,202,-451,-415,-222,425,-344,-463,-820,157,263,-156,-347,272,209,-741,-117,452
