,Fp1,Fp2,F7,F3,Fz,F4,F8,FC5,FC1,FC2,FC6,T7,C3,Cz,C4,T8,TP9,CP5,CP1,CP2,CP6,TP10,P7,P3,Pz,P4,P8,PO9,O1,Oz,O2,PO10
107468,-218,-522,-218,-715,-575,-153,-531,-173,-280,-246,-436,-364,-143,-554,-51,-305,-304,-580,-336,-112,-582,-113,-281,-400,-336,-141,-129,-255,-278,-710,-382,-551
107469,-238,-478,-238,-712,-565,-134,-477,-191,-290,-247,-410,-370,-133,-559,-41,-273,-319,-586,-347,-103,-562,-117,-285,-396,-324,-147,-113,-266,-295,-727,-405,-549
107470,-234,-533,-188,-694,-542,-90,-453,-159,-277,-238,-381,-323,-128,-534,-26,-242,-330,-599,-337,-91,-556,-84,-256,-402,-315,-135,-87,-327,-308,-731,-423,-529
107471,-230,-595,-196,-704,-564,-111,-435,-169,-311,-266,-439,-323,-152,-558,-86,-291,-367,-593,-372,-132,-583,-124,-257,-427,-355,-158,-141,-385,-326,-759,-422,-549
107472,-158,-549,-133,-706,-549,-104,-394,-162,-297,-249,-422,-340,-127,-543,-60,-245,-353,-581,-338,-99,-530,-153,-262,-395,-329,-112,-97,-352,-291,-712,-380,-508
107473,-127,-517,-109,-695,-538,-102,-392,-137,-287,-249,-387,-326,-110,-510,-61,-232,-294,-555,-318,-95,-510,-146,-263,-391,-310,-105,-72,-369,-311,-720,-385,-502
107474,-169,-540,-146,-690,-551,-116,-410,-124,-281,-232,-406,-277,-103,-515,-49,-238,-252,-546,-295,-79,-493,-96,-230,-368,-283,-90,-37,-324,-263,-660,-332,-472
107475,-182,-517,-167,-681,-533,-78,-376,-75,-269,-207,-381,-236,-63,-499,1,-220,-218,-500,-278,-75,-491,-95,-146,-327,-252,-48,-8,-268,-233,-628,-298,-389
107476,-146,-490,-168,-686,-536,-85,-375,-95,-279,-205,-389,-215,-75,-509,-20,-233,-217,-463,-270,-68,-489,-97,-111,-322,-232,-55,-33,-339,-270,-684,-354,-430
107477,-141,-512,-226,-692,-549,-89,-383,-90,-268,-211,-407,-293,-80,-524,-19,-254,-236,-499,-271,-58,-481,-128,-148,-327,-228,-32,-1,-435,-279,-675,-398,-474
107478,-145,-477,-218,-686,-535,-85,-347,-72,-270,-204,-394,-318,-76,-519,-11,-254,-234,-505,-270,-57,-473,-76,-182,-322,-224,-44,73,-399,-267,-668,-371,-475
107479,-185,-477,-219,-695,-547,-117,-356,-96,-281,-214,-386,-286,-70,-525,0,-239,-309,-496,-275,-45,-457,-144,-194,-325,-209,-42,121,-370,-277,-675,-370,-494
107480,-180,-456,-192,-685,-539,-79,-319,-56,-244,-204,-349,-271,-50,-491,21,-168,-372,-473,-264,-31,-406,-231,-192,-333,-200,-19,143,-344,-289,-671,-367,-531
107481,-187,-538,-177,-683,-556,-80,-356,-88,-264,-221,-354,-330,-84,-525,-2,-161,-391,-556,-286,-49,-449,-263,-268,-365,-212,-33,2,-393,-283,-668,-362,-443
107482,-232,-597,-188,-673,-548,-70,-373,-132,-270,-220,-370,-381,-113,-520,-15,-238,-400,-586,-299,-63,-508,-107,-272,-360,-212,-58,-125,-384,-270,-636,-347,-353
107483,-250,-618,-224,-690,-555,-57,-388,-138,-295,-222,-393,-410,-139,-519,-22,-315,-340,-582,-313,-67,-536,6,-228,-359,-227,-70,-133,-317,-239,-603,-314,-301
107484,-197,-597,-234,-681,-576,-56,-439,-118,-309,-227,-440,-401,-154,-548,-25,-347,-275,-581,-322,-71,-551,-11,-197,-368,-243,-93,-152,-316,-249,-632,-328,-373
107485,-158,-517,-223,-698,-536,-39,-374,-144,-283,-210,-388,-303,-125,-539,-5,-299,-346,-555,-309,-72,-547,-17,-155,-346,-235,-80,-143,-321,-235,-612,-319,-420
107486,-177,-500,-218,-704,-555,-48,-375,-123,-287,-219,-388,-324,-113,-540,-17,-297,-315,-564,-313,-63,-558,1,-195,-359,-240,-85,-136,-306,-247,-616,-326,-439
107487,-210,-508,-253,-675,-564,-88,-378,-96,-274,-230,-373,-323,-104,-541,-13,-305,-310,-574,-312,-55,-560,-16,-241,-352,-231,-74,-139,-340,-238,-617,-322,-484
107488,-235,-506,-303,-685,-568,-122,-361,-91,-272,-227,-383,-359,-112,-531,-4,-300,-281,-620,-314,-37,-543,-42,-292,-359,-228,-58,-89,-381,-238,-638,-321,-494
107489,-237,-475,-349,-674,-568,-130,-344,-12,-278,-225,-361,-347,-102,-533,4,-311,-311,-567,-312,-49,-503,-41,-283,-353,-229,-48,-46,-421,-250,-630,-311,-419
107490,-222,-462,-318,-671,-545,-108,-350,-46,-277,-216,-343,-320,-95,-523,20,-276,-358,-563,-287,-42,-499,-89,-266,-336,-217,-49,-89,-367,-215,-613,-305,-495
107491,-245,-446,-281,-689,-542,-100,-381,-160,-277,-187,-305,-348,-113,-508,33,-238,-354,-611,-294,-45,-490,-56,-312,-335,-197,-49,-76,-341,-185,-617,-319,-465
107492,-245,-494,-286,-716,-558,-121,-436,-124,-296,-211,-317,-376,-124,-517,12,-246,-392,-578,-307,-74,-502,-76,-334,-360,-209,-84,-98,-402,-257,-662,-353,-509
107493,-223,-450,-315,-723,-558,-112,-396,-206,-309,-210,-327,-349,-136,-530,0,-231,-381,-590,-312,-62,-523,-121,-305,-377,-252,-88,-143,-391,-264,-641,-323,-485
107494,-197,-447,-242,-727,-554,-114,-379,-347,-297,-197,-321,-300,-141,-530,16,-179,-329,-606,-299,-60,-493,-68,-241,-371,-245,-62,-87,-340,-222,-609,-263,-423
107495,-157,-479,-156,-658,-559,-101,-382,-68,-288,-195,-336,-314,-110,-543,13,-168,-316,-561,-299,-61,-497,-58,-197,-383,-269,-75,-78,-353,-249,-632,-290,-437
107496,-88,-520,-102,-683,-560,-69,-352,-46,-309,-202,-304,-335,-113,-562,23,-167,-259,-553,-314,-68,-472,-57,-163,-374,-267,-66,-27,-328,-246,-597,-256,-322
107497,-81,-493,-92,-696,-534,-31,-306,-117,-297,-192,-275,-316,-116,-560,38,-80,-263,-553,-320,-61,-415,68,-198,-369,-255,-31,80,-299,-225,-580,-231,-187
107498,-136,-453,-81,-694,-559,-28,-246,-114,-305,-179,-263,-316,-141,-577,32,22,-344,-595,-333,-58,-416,96,-210,-400,-260,-16,102,-364,-263,-618,-236,-221
107499,-154,-433,-71,-731,-558,-64,-297,-116,-306,-216,-293,-274,-137,-585,13,-17,-345,-580,-342,-89,-456,-17,-175,-400,-267,-41,53,-342,-288,-662,-287,-374
107500,-110,-433,-107,-738,-555,-99,-350,-120,-291,-227,-344,-286,-125,-564,-8,-189,-305,-565,-349,-100,-471,-31,-209,-415,-264,-74,47,-307,-313,-668,-314,-351
107501,-114,-432,-190,-740,-571,-123,-370,-127,-292,-243,-385,-320,-129,-554,-50,-529,-309,-603,-350,-121,-532,86,-273,-413,-293,-95,82,-294,-341,-698,-341,-329
107502,-120,-435,-189,-718,-567,-117,-369,-127,-273,-249,-406,-314,-121,-563,-74,-473,-304,-599,-337,-120,-561,53,-286,-411,-287,-101,29,-303,-341,-716,-380,-420
107503,-100,-432,-137,-719,-560,-134,-360,-133,-298,-270,-437,-324,-121,-582,-74,-291,-348,-608,-360,-136,-581,-4,-287,-454,-294,-120,-39,-383,-384,-760,-425,-430
107504,-117,-465,-109,-738,-549,-114,-369,-112,-304,-272,-458,-339,-105,-574,-66,-309,-343,-577,-347,-116,-576,-16,-237,-421,-275,-122,-21,-337,-360,-748,-401,-362
107505,-160,-457,-149,-750,-571,-120,-359,-128,-297,-267,-425,-372,-119,-558,-64,-306,-306,-569,-341,-107,-561,-48,-195,-401,-278,-100,-12,-298,-337,-716,-395,-364
107506,-198,-513,-178,-743,-581,-139,-336,-133,-313,-262,-437,-410,-151,-548,-72,-326,-307,-595,-363,-116,-560,-40,-247,-421,-300,-113,-30,-305,-328,-718,-402,-362
107507,-211,-613,-278,-756,-595,-132,-366,-148,-289,-264,-448,-373,-130,-548,-87,-315,-309,-589,-356,-113,-592,-78,-280,-427,-306,-117,-46,-279,-321,-706,-425,-391
107508,-213,-665,-287,-791,-598,-163,-419,-191,-306,-284,-463,-352,-145,-556,-80,-319,-306,-618,-370,-117,-554,-75,-292,-447,-302,-91,-11,-295,-335,-716,-421,-461
107509,-205,-622,-239,-751,-592,-161,-403,-149,-292,-287,-455,-309,-154,-574,-78,-321,-332,-645,-405,-125,-555,-42,-290,-480,-315,-97,3,-329,-360,-721,-407,-470
107510,-208,-586,-204,-750,-576,-126,-382,-133,-282,-283,-400,-308,-161,-580,-74,-305,-339,-642,-388,-137,-554,-38,-302,-484,-313,-96,-60,-374,-377,-735,-411,-435
107511,-202,-599,-178,-758,-564,-112,-398,-100,-286,-255,-388,-301,-156,-552,-63,-303,-317,-623,-375,-113,-565,-45,-298,-469,-308,-114,-138,-361,-365,-729,-400,-408
107512,-231,-611,-224,-761,-584,-102,-387,-127,-278,-252,-376,-296,-130,-536,-45,-294,-309,-593,-345,-91,-557,-73,-254,-422,-287,-93,-132,-300,-308,-678,-339,-384
107513,-295,-605,-229,-753,-589,-127,-418,-150,-286,-276,-397,-299,-151,-547,-66,-306,-320,-612,-352,-103,-565,-107,-269,-438,-285,-114,-138,-319,-322,-703,-358,-388
107514,-295,-601,-217,-734,-596,-182,-432,-125,-280,-269,-446,-353,-148,-534,-53,-322,-335,-623,-349,-111,-603,-102,-266,-425,-272,-108,-183,-288,-305,-665,-350,-418
107515,-268,-552,-260,-723,-603,-174,-421,-98,-268,-276,-418,-526,-112,-516,-44,-337,-308,-608,-336,-92,-599,-149,-284,-394,-262,-89,-175,-284,-276,-641,-329,-414
107516,-286,-541,-272,-723,-606,-165,-396,-71,-272,-282,-410,-423,-133,-512,-63,-350,-259,-620,-316,-95,-593,-105,-272,-394,-266,-114,-161,-369,-293,-661,-317,-426
107517,-296,-563,-259,-688,-608,-152,-370,-55,-269,-292,-409,-284,-139,-509,-72,-350,-279,-610,-331,-85,-580,-98,-282,-389,-255,-94,-135,-412,-310,-683,-350,-483
107518,-240,-535,-200,-682,-599,-126,-349,-72,-290,-278,-379,-291,-121,-513,-36,-275,-304,-612,-312,-71,-540,-96,-262,-368,-238,-55,-62,-422,-312,-683,-338,-413
107519,-236,-510,-163,-705,-601,-103,-345,-118,-305,-247,-347,-276,-116,-518,-16,-224,-277,-571,-298,-58,-529,-119,-173,-340,-235,-39,-26,-520,-323,-730,-384,-498
107520,-160,-524,-119,-752,-576,-73,-340,-165,-300,-229,-314,-286,-134,-510,9,-195,-235,-549,-317,-54,-488,-131,-123,-341,-227,-15,21,-470,-310,-697,-336,-433
107521,-113,-513,-122,-721,-560,-29,-311,-161,-295,-214,-305,-284,-120,-504,15,-170,-292,-527,-303,-23,-442,-20,-152,-322,-236,-4,77,-327,-270,-656,-286,-354
107522,-95,-483,-127,-721,-553,-31,-339,-312,-287,-225,-285,-270,-112,-527,22,-148,-272,-526,-302,-18,-444,-114,-192,-331,-225,-18,17,-265,-267,-634,-302,-392
107523,-66,-435,-78,-732,-546,-40,-343,-135,-296,-224,-266,-291,-112,-528,21,-143,-274,-588,-317,-29,-433,-96,-197,-346,-240,-29,-29,-265,-321,-681,-317,-314
107524,-62,-392,-92,-676,-531,-27,-251,5,-244,-217,-261,-257,-73,-517,28,-116,-304,-537,-280,-32,-439,-25,-132,-316,-234,-26,8,-239,-288,-705,-346,-330
107525,-74,-341,-154,-663,-514,2,-212,-34,-238,-209,-244,-222,-54,-504,50,-117,-290,-480,-260,-17,-406,94,-107,-298,-210,-8,76,-227,-278,-681,-315,-335
107526,-67,-327,-183,-680,-530,15,-216,-26,-251,-218,-243,-209,-60,-536,45,-125,-269,-488,-278,-15,-383,119,-75,-297,-213,-3,93,-237,-282,-677,-299,-320
107527,-85,-321,-142,-676,-528,-34,-202,-33,-257,-221,-250,-227,-54,-532,38,-110,-156,-489,-285,-19,-407,86,-41,-300,-219,-6,53,-179,-251,-657,-283,-323
107528,-117,-365,-121,-693,-534,-74,-226,-72,-273,-237,-256,-237,-80,-530,14,-139,-178,-484,-279,-28,-434,37,-22,-278,-224,-7,1,-190,-233,-685,-307,-341
107529,-116,-392,-112,-692,-546,-73,-219,-58,-247,-242,-275,-203,-46,-519,20,-166,-221,-452,-268,-36,-464,102,21,-235,-203,5,-34,-275,-228,-650,-291,-315
107530,-81,-398,-128,-687,-553,-63,-201,-25,-229,-248,-273,-182,-27,-522,13,-183,-211,-420,-253,-28,-451,99,101,-220,-188,0,4,-286,-195,-599,-265,-287
107531,-51,-395,-88,-679,-560,-59,-203,-13,-248,-245,-282,-169,-20,-523,21,-175,-139,-388,-235,-33,-449,26,79,-218,-169,18,5,-162,-158,-585,-253,-296
107532,-43,-436,-8,-678,-551,-58,-201,-16,-262,-247,-269,-192,15,-491,27,-122,-120,-372,-215,-16,-452,-34,59,-208,-152,19,24,-146,-143,-583,-257,-320
107533,-74,-478,-59,-700,-561,-48,-173,-63,-262,-249,-244,-239,-19,-491,28,-19,-169,-415,-227,-21,-446,-51,-9,-223,-159,30,50,-235,-157,-599,-272,-315
107534,-80,-474,-139,-692,-551,-51,-231,-56,-246,-248,-273,-216,-42,-484,25,-54,-105,-467,-237,-28,-463,-20,-19,-227,-170,12,20,-178,-141,-584,-247,-282
107535,-142,-459,-178,-703,-540,-75,-228,-9,-270,-250,-298,-226,-36,-472,14,-136,-202,-483,-232,-35,-485,-19,-63,-255,-184,-31,-12,-137,-148,-568,-227,-286
107536,-141,-468,-143,-677,-563,-96,-204,-14,-273,-260,-292,-377,-62,-503,0,-249,-196,-519,-292,-71,-509,-77,-157,-307,-230,-61,-59,-164,-179,-602,-269,-343
107537,-140,-500,-149,-705,-580,-95,-231,-100,-293,-248,-324,-475,-99,-519,-12,-380,-131,-566,-299,-97,-550,-22,-188,-329,-258,-79,-99,-179,-205,-607,-275,-339
107538,-173,-543,-110,-707,-559,-82,-246,-157,-297,-255,-346,-483,-132,-511,-25,-241,-68,-600,-304,-67,-556,13,-195,-340,-248,-87,-81,-135,-183,-584,-268,-303
107539,-169,-580,-97,-711,-556,-75,-256,-150,-298,-249,-357,-482,-134,-505,-17,-118,-167,-598,-297,-72,-530,-4,-220,-357,-248,-76,-52,-145,-197,-572,-250,-254
107540,-148,-497,-145,-697,-546,-67,-250,-101,-273,-214,-313,-334,-112,-490,-5,-99,-284,-543,-284,-56,-539,-20,-174,-333,-245,-75,-46,-166,-201,-576,-229,-234
107541,-211,-442,-228,-694,-555,-58,-251,-131,-293,-237,-303,-339,-140,-504,-13,-154,-278,-639,-299,-65,-546,-71,-231,-382,-247,-105,-78,-228,-247,-639,-288,-288
107542,-221,-463,-318,-765,-586,-86,-273,-159,-318,-253,-340,-371,-156,-512,-26,-302,-305,-669,-333,-120,-572,-111,-258,-432,-279,-131,-164,-324,-301,-691,-350,-378
107543,-202,-454,-329,-782,-575,-116,-313,-154,-319,-263,-357,-333,-156,-500,-76,-487,-312,-637,-352,-134,-643,-130,-179,-410,-300,-166,-196,-410,-301,-663,-351,-436
107544,-241,-389,-311,-759,-567,-118,-317,-152,-312,-256,-355,-343,-159,-499,-75,-347,-322,-622,-358,-128,-655,-157,-159,-410,-300,-176,-225,-390,-300,-707,-346,-456
107545,-200,-401,-252,-834,-578,-121,-324,-221,-319,-273,-362,-376,-161,-512,-81,-299,-309,-640,-348,-124,-641,-146,-206,-400,-304,-160,-217,-276,-281,-683,-348,-426
107546,-165,-415,-223,-830,-555,-104,-365,-245,-305,-259,-355,-350,-166,-506,-61,-258,-290,-616,-344,-127,-598,-175,-285,-426,-295,-146,-130,-205,-291,-660,-367,-369
107547,-217,-419,-258,-776,-561,-65,-351,-240,-303,-261,-328,-358,-162,-508,-49,-217,-225,-648,-341,-128,-542,-163,-332,-441,-286,-126,-14,-218,-318,-668,-368,-438
107548,-188,-444,-253,-755,-567,-49,-337,-225,-325,-256,-323,-375,-182,-525,-48,-209,-208,-675,-356,-123,-532,25,-335,-443,-287,-124,26,-248,-304,-654,-327,-399
107549,-236,-454,-247,-758,-563,-69,-334,-212,-320,-255,-330,-408,-173,-532,-71,-237,-261,-656,-383,-137,-541,-4,-289,-456,-292,-137,-88,-276,-312,-666,-315,-326
107550,-308,-501,-267,-758,-586,-87,-358,-225,-337,-278,-363,-398,-182,-547,-86,-246,-338,-640,-397,-164,-581,-89,-250,-460,-325,-163,-190,-263,-332,-712,-388,-491
107551,-298,-492,-254,-787,-565,-87,-315,-278,-319,-278,-390,-393,-206,-545,-69,-226,-403,-670,-403,-161,-545,-34,-250,-481,-329,-151,-119,-281,-345,-719,-373,-539
107552,-279,-474,-242,-814,-564,-88,-308,-247,-322,-286,-361,-368,-201,-532,-76,-210,-403,-660,-403,-179,-564,-7,-227,-505,-339,-161,-103,-294,-352,-710,-365,-443
107553,-222,-471,-236,-808,-560,-122,-300,-247,-342,-286,-351,-374,-202,-534,-96,-220,-436,-648,-414,-196,-626,-39,-217,-511,-366,-198,-247,-286,-371,-726,-383,-408
107554,-247,-535,-286,-824,-572,-131,-285,-461,-327,-302,-349,-354,-202,-544,-104,-271,-414,-607,-410,-195,-637,-9,-209,-505,-355,-204,-227,-320,-369,-730,-391,-375
107555,-300,-574,-296,-761,-569,-137,-322,-377,-316,-327,-361,-365,-197,-545,-110,-319,-367,-616,-387,-197,-653,-3,-201,-476,-332,-194,-190,-316,-351,-694,-363,-315
107556,-307,-558,-306,-721,-546,-139,-339,-51,-301,-301,-365,-396,-172,-546,-119,-338,-360,-632,-390,-197,-681,-47,-260,-485,-344,-191,-168,-308,-333,-688,-330,-277
107557,-311,-580,-368,-744,-560,-150,-365,-141,-311,-299,-391,-383,-181,-553,-133,-280,-342,-637,-403,-214,-694,-41,-303,-492,-354,-199,-153,-316,-349,-684,-324,-283
107558,-304,-630,-294,-731,-556,-180,-385,-208,-312,-311,-423,-409,-208,-572,-158,-283,-408,-653,-418,-228,-710,-61,-330,-498,-380,-246,-188,-348,-389,-751,-385,-376
107559,-293,-620,-283,-758,-559,-168,-374,-230,-321,-320,-456,-430,-195,-579,-145,-298,-459,-658,-437,-234,-737,-84,-359,-530,-407,-251,-185,-373,-385,-773,-410,-409
107560,-295,-543,-261,-758,-559,-142,-387,-225,-318,-307,-414,-439,-199,-574,-148,-314,-443,-712,-439,-245,-734,-66,-385,-539,-401,-250,-172,-352,-389,-758,-425,-437
107561,-303,-579,-230,-782,-583,-137,-396,-216,-301,-306,-423,-445,-195,-585,-159,-343,-371,-706,-425,-254,-744,-111,-369,-514,-406,-259,-221,-371,-422,-808,-468,-520
107562,-317,-643,-257,-805,-569,-129,-359,-224,-309,-298,-455,-455,-180,-572,-135,-345,-398,-672,-401,-239,-742,-117,-348,-498,-384,-262,-233,-392,-421,-813,-455,-543
107563,-306,-643,-304,-816,-555,-132,-343,-242,-307,-288,-424,-466,-180,-558,-133,-321,-410,-679,-398,-226,-737,-155,-346,-502,-365,-255,-279,-416,-412,-810,-435,-547
107564,-311,-617,-352,-800,-553,-143,-409,-228,-302,-285,-436,-464,-188,-555,-129,-308,-399,-678,-385,-188,-710,-118,-349,-474,-359,-240,-261,-392,-418,-806,-413,-517
107565,-321,-612,-384,-799,-579,-162,-432,-264,-315,-293,-460,-496,-215,-551,-131,-334,-434,-703,-394,-193,-712,-110,-380,-494,-361,-215,-206,-406,-424,-813,-422,-467
107566,-319,-614,-438,-801,-577,-173,-409,-255,-317,-295,-465,-532,-205,-531,-106,-260,-424,-689,-373,-174,-680,-185,-385,-478,-338,-206,-158,-432,-433,-804,-425,-483
107567,-310,-580,-423,-785,-578,-162,-415,-243,-305,-279,-436,-511,-189,-511,-71,-165,-380,-641,-334,-160,-627,-115,-339,-428,-316,-160,-125,-412,-398,-808,-403,-530
107568,-338,-606,-371,-778,-570,-147,-413,-255,-301,-264,-417,-502,-196,-491,-61,-172,-369,-677,-327,-132,-596,-127,-343,-419,-296,-131,-94,-423,-383,-736,-353,-457
107569,-332,-590,-430,-825,-579,-167,-374,-249,-334,-263,-388,-504,-194,-471,-55,-215,-392,-695,-351,-121,-598,-227,-370,-429,-306,-145,-127,-428,-408,-756,-340,-413
107570,-320,-570,-438,-818,-587,-180,-398,-232,-331,-266,-382,-456,-194,-472,-71,-408,-378,-667,-330,-118,-599,-89,-326,-406,-273,-148,-121,-380,-373,-713,-303,-356
107571,-267,-489,-445,-786,-563,-168,-398,-190,-302,-228,-388,-488,-153,-459,-48,-400,-384,-645,-294,-95,-588,-4,-290,-391,-224,-94,-57,-367,-317,-669,-266,-366
107572,-264,-506,-395,-794,-574,-161,-387,-232,-302,-258,-396,-470,-162,-454,-33,-261,-415,-624,-297,-65,-582,56,-245,-370,-208,-79,-63,-351,-286,-654,-255,-334
107573,-284,-581,-348,-796,-577,-122,-365,-209,-296,-243,-377,-465,-142,-473,-4,-196,-443,-606,-300,-67,-520,-80,-230,-349,-228,-60,-52,-349,-271,-608,-243,-313
107574,-267,-605,-290,-789,-563,-88,-364,-163,-301,-260,-370,-554,-131,-488,-10,-154,-332,-582,-314,-93,-479,-213,-200,-340,-231,-69,-73,-347,-242,-610,-242,-347
107575,-270,-591,-272,-779,-568,-93,-406,-168,-299,-271,-343,-640,-152,-504,-22,-141,-370,-589,-324,-94,-481,-129,-203,-355,-255,-59,-47,-401,-288,-665,-276,-372
107576,-190,-545,-259,-739,-564,-71,-370,-207,-292,-254,-293,-357,-155,-508,-3,-77,-377,-599,-330,-71,-443,-63,-235,-387,-261,-81,-44,-435,-354,-726,-315,-409
107577,-176,-495,-241,-725,-563,-78,-378,-199,-294,-257,-298,-312,-137,-516,10,-6,-377,-595,-330,-81,-421,-52,-236,-402,-268,-92,-40,-502,-390,-781,-346,-406
107578,-247,-476,-251,-724,-554,-94,-350,-134,-277,-248,-315,-297,-137,-518,5,-23,-366,-557,-344,-88,-426,-148,-226,-408,-277,-111,-62,-503,-394,-779,-391,-450
107579,-242,-448,-279,-708,-565,-103,-302,-80,-269,-236,-299,-330,-127,-516,12,-77,-343,-555,-360,-88,-430,-105,-288,-418,-295,-110,-37,-543,-404,-782,-400,-431
107580,-243,-463,-303,-737,-600,-108,-344,-159,-293,-264,-333,-429,-195,-538,-40,-325,-324,-656,-398,-137,-520,-3,-355,-471,-337,-167,-50,-654,-426,-816,-404,-434
107581,-236,-457,-329,-778,-576,-68,-326,-294,-309,-247,-340,-439,-235,-527,-45,-320,-350,-707,-422,-153,-535,73,-293,-487,-365,-170,-28,-551,-411,-789,-396,-444
107582,-239,-565,-339,-760,-565,-67,-325,-263,-291,-237,-322,-465,-198,-509,-41,-205,-415,-656,-402,-145,-529,71,-181,-467,-366,-179,-68,-455,-363,-720,-387,-446
107583,-287,-616,-334,-716,-564,-84,-356,-201,-283,-228,-355,-424,-198,-521,-49,-215,-448,-636,-415,-177,-547,-63,-151,-479,-363,-189,-122,-425,-391,-775,-423,-469
107584,-271,-549,-283,-710,-556,-66,-313,-177,-296,-221,-350,-376,-198,-526,-53,-203,-400,-661,-422,-169,-536,-35,-233,-486,-333,-188,-149,-335,-383,-773,-415,-381
107585,-197,-469,-215,-702,-549,-46,-264,-157,-288,-203,-305,-375,-173,-504,-27,-205,-356,-647,-365,-135,-555,37,-293,-437,-306,-175,-143,-244,-310,-693,-345,-338
107586,-186,-438,-234,-742,-560,-44,-268,-352,-334,-205,-306,-352,-198,-527,-27,-213,-366,-628,-371,-138,-575,47,-306,-432,-304,-177,-136,-225,-297,-682,-341,-363
107587,-172,-440,-180,-785,-572,-27,-267,-316,-329,-202,-312,-325,-210,-521,-40,-231,-325,-631,-370,-128,-550,95,-254,-405,-286,-156,-52,-202,-268,-640,-297,-314
107588,-153,-472,-187,-789,-574,-27,-241,-82,-319,-192,-332,-353,-163,-515,-41,-213,-273,-610,-368,-132,-569,68,-259,-379,-279,-155,-25,-158,-243,-627,-302,-298
107589,-126,-473,-208,-758,-582,-61,-254,-99,-309,-209,-321,-309,-148,-534,-20,-212,-262,-590,-361,-119,-540,66,-240,-368,-278,-134,15,-113,-191,-580,-235,-250
107590,-81,-416,-194,-755,-565,-81,-216,-61,-299,-228,-276,-306,-144,-499,0,-197,-275,-583,-320,-98,-509,113,-223,-366,-258,-97,82,-133,-159,-537,-194,-203
107591,-104,-385,-185,-722,-552,-85,-197,-93,-307,-203,-261,-308,-136,-502,17,-197,-227,-567,-311,-79,-523,125,-211,-340,-236,-82,43,-119,-168,-538,-200,-272
107592,-177,-403,-157,-716,-548,-67,-211,-145,-301,-201,-244,-315,-146,-484,31,-176,-224,-583,-299,-51,-507,134,-206,-325,-207,-55,-23,-120,-159,-530,-174,-246
107593,-216,-420,-168,-728,-583,-59,-208,-169,-317,-217,-273,-295,-128,-482,37,-153,-260,-586,-289,-41,-508,90,-195,-315,-182,-35,-20,-125,-145,-513,-146,-178
107594,-142,-377,-216,-727,-581,-57,-170,-141,-307,-213,-285,-296,-88,-462,43,-106,-292,-549,-254,-15,-488,34,-177,-297,-150,-16,-25,-167,-155,-538,-143,-208
107595,-83,-340,-220,-754,-576,-53,-199,-106,-285,-204,-253,-338,-83,-459,34,-44,-262,-533,-230,-7,-458,35,-136,-283,-138,-29,-21,-225,-172,-546,-163,-238
107596,-108,-361,-241,-767,-607,-93,-229,-123,-306,-222,-251,-357,-85,-451,39,-56,-266,-530,-252,-13,-476,118,-130,-279,-135,-20,9,-245,-165,-530,-156,-211
107597,-140,-421,-276,-779,-634,-110,-261,-83,-317,-236,-266,-393,-82,-444,37,-73,-277,-546,-257,-3,-475,146,-174,-291,-140,-13,16,-266,-172,-533,-158,-160
107598,-145,-429,-269,-781,-623,-98,-236,-113,-312,-224,-247,-349,-106,-459,63,-127,-262,-576,-244,1,-450,130,-213,-317,-144,-7,42,-303,-190,-520,-158,-175
107599,-155,-440,-220,-790,-611,-107,-219,-153,-315,-207,-319,-359,-129,-469,29,-309,-271,-607,-277,-14,-490,92,-222,-338,-173,-48,0,-335,-220,-576,-219,-274
107600,-194,-504,-208,-816,-630,-151,-225,-200,-327,-249,-326,-382,-156,-492,-9,-274,-433,-602,-302,-55,-526,-1,-248,-381,-207,-82,7,-293,-261,-624,-268,-307
107601,-231,-533,-207,-836,-626,-128,-317,-253,-344,-247,-332,-414,-179,-489,-13,-174,-572,-602,-320,-72,-510,-39,-284,-397,-225,-80,17,-338,-270,-670,-302,-401
107602,-256,-518,-269,-795,-601,-85,-370,-255,-327,-210,-309,-442,-193,-505,1,-166,-487,-657,-320,-32,-472,-110,-323,-392,-209,-70,86,-403,-289,-708,-333,-383
107603,-292,-531,-332,-785,-604,-73,-366,-270,-323,-222,-289,-480,-219,-496,-2,-140,-369,-757,-353,-49,-457,-125,-387,-436,-235,-63,125,-358,-329,-670,-334,-422
107604,-276,-619,-308,-760,-613,-78,-370,-263,-327,-244,-294,-488,-233,-511,-5,-142,-471,-741,-382,-88,-474,-59,-427,-468,-269,-74,2,-344,-350,-674,-341,-417
107605,-241,-693,-308,-785,-602,-115,-377,-241,-341,-252,-315,-493,-241,-539,-50,-212,-551,-733,-410,-128,-527,-102,-445,-485,-302,-120,-155,-369,-390,-754,-410,-521
107606,-217,-629,-235,-821,-578,-121,-348,-208,-332,-273,-352,-476,-257,-531,-66,-315,-520,-730,-408,-140,-576,-121,-426,-499,-327,-151,-233,-379,-411,-781,-436,-574
107607,-225,-520,-259,-818,-592,-126,-325,-221,-346,-280,-358,-456,-243,-551,-57,-353,-479,-721,-419,-165,-583,-144,-404,-520,-355,-188,-269,-409,-410,-781,-393,-457
107608,-196,-470,-217,-827,-600,-141,-341,-228,-333,-276,-374,-450,-242,-555,-88,-354,-440,-710,-411,-166,-605,-126,-366,-516,-354,-196,-302,-409,-393,-752,-382,-443
107609,-204,-466,-228,-821,-602,-169,-354,-240,-348,-273,-402,-430,-244,-545,-118,-328,-382,-702,-423,-173,-641,-82,-314,-500,-362,-182,-264,-361,-367,-739,-376,-407
107610,-161,-449,-184,-803,-571,-129,-328,-224,-341,-247,-373,-384,-218,-533,-105,-323,-384,-631,-414,-184,-656,-38,-251,-475,-349,-198,-241,-374,-339,-745,-361,-414
107611,-135,-438,-145,-760,-547,-101,-295,-206,-320,-228,-347,-339,-184,-551,-100,-277,-401,-601,-400,-168,-642,-32,-194,-461,-352,-198,-189,-388,-308,-711,-338,-395
107612,-139,-444,-163,-775,-549,-101,-293,-237,-319,-244,-354,-348,-191,-562,-78,-193,-392,-614,-406,-170,-634,-48,-252,-485,-378,-187,-164,-366,-341,-711,-345,-406
107613,-199,-471,-240,-761,-569,-114,-352,-227,-315,-256,-366,-376,-214,-578,-94,-219,-403,-636,-412,-195,-638,-69,-301,-494,-373,-196,-159,-361,-361,-685,-339,-347
107614,-230,-496,-292,-739,-571,-148,-388,-232,-324,-271,-394,-400,-210,-574,-124,-328,-421,-683,-441,-217,-655,-87,-358,-502,-376,-201,-176,-358,-351,-675,-340,-327
107615,-175,-564,-274,-761,-573,-162,-409,-205,-317,-275,-431,-377,-193,-550,-138,-516,-391,-680,-423,-223,-717,-84,-367,-503,-390,-224,-175,-390,-371,-717,-376,-419
107616,-231,-628,-264,-750,-572,-158,-424,-208,-323,-281,-453,-389,-192,-527,-140,-485,-424,-668,-407,-209,-736,-100,-368,-500,-375,-237,-167,-407,-373,-725,-426,-448
107617,-280,-552,-266,-757,-587,-166,-417,-210,-327,-291,-433,-398,-194,-520,-128,-339,-424,-661,-419,-202,-678,-109,-376,-516,-372,-227,-135,-422,-371,-743,-399,-430
