,Fp1,Fp2,F7,F3,Fz,F4,F8,FC5,FC1,FC2,FC6,T7,C3,Cz,C4,T8,TP9,CP5,CP1,CP2,CP6,TP10,P7,P3,Pz,P4,P8,PO9,O1,Oz,O2,PO10
100185,187,-60,73,-115,-57,332,-157,136,60,113,-147,-41,361,115,467,77,96,112,174,184,-73,205,321,110,136,126,98,141,218,148,-178,289
100186,138,-14,47,-157,-54,342,-270,117,38,100,-143,-47,341,75,456,-76,78,97,145,168,-114,85,332,93,125,97,55,93,188,116,-217,224
100187,37,26,-25,-160,-44,381,-370,68,26,84,-124,-63,314,70,436,-180,-21,79,146,154,-144,-1,317,87,102,89,27,83,198,113,-235,144
100188,46,-3,-70,-148,-40,349,-283,46,19,78,-137,-73,309,60,417,-153,-73,56,148,155,-140,-8,246,72,104,60,1,107,204,100,-223,106
100189,86,17,-49,-158,-50,334,-242,67,30,85,-173,-58,319,56,392,-140,-118,61,136,146,-128,135,221,99,113,75,-30,73,179,104,-197,204
100190,123,71,-31,-142,-39,354,-130,84,50,84,-145,-67,326,65,434,-94,-147,61,150,165,-87,126,225,100,113,95,-3,36,177,81,-243,162
100191,186,119,-5,-109,-32,339,-104,104,58,83,-135,-67,362,91,476,-84,-77,80,194,201,-30,93,267,127,142,128,87,59,211,93,-198,107
100192,224,157,70,-99,-43,326,-116,134,76,89,-182,-49,388,120,470,-181,0,110,212,211,-22,68,289,152,178,168,113,94,203,126,-150,158
100193,213,215,60,-78,-35,366,-88,134,82,112,-163,-45,386,139,484,-161,-28,129,238,254,20,49,301,169,197,199,130,141,207,139,-125,210
100194,201,231,45,-68,-22,372,-55,135,70,110,-136,-67,386,119,493,-96,-84,106,221,254,60,17,250,133,188,226,181,7,163,137,-47,323
100195,215,215,82,-66,-58,366,-45,138,57,96,-113,-62,376,92,491,-72,-88,97,192,236,44,17,234,111,169,206,145,-63,106,96,-131,167
100196,255,246,96,-56,-41,372,-9,102,61,105,-124,-36,367,85,492,-35,-59,142,202,233,62,27,305,149,175,222,158,38,122,107,-178,134
100197,253,263,79,-61,-39,354,-39,163,36,99,-130,-76,342,72,480,-59,-33,126,156,245,42,15,279,117,141,212,129,-22,95,103,-141,197
100198,258,307,72,-81,-36,345,-98,171,23,77,-99,-90,316,38,467,-112,-59,78,113,207,39,-44,222,37,88,170,107,-78,45,56,-163,134
100199,228,227,72,-77,-37,350,-175,155,20,59,-89,-88,300,0,465,-112,-111,60,71,149,0,-94,195,-1,57,145,78,-44,29,52,-166,185
100200,258,194,89,-66,-50,335,-220,153,11,53,-112,-109,284,-21,450,-79,-137,38,30,111,-38,-103,155,-29,-10,71,-1,-65,-21,-21,-300,128
100201,274,191,134,-50,-37,349,-136,205,5,74,-111,-95,307,-21,457,-80,-143,25,10,106,-43,-80,131,-73,-46,49,-19,-183,-68,-52,-308,123
100202,245,215,126,-32,-22,375,-120,242,48,96,-70,-25,348,0,465,-110,-104,68,45,112,-45,45,178,-6,-36,48,26,-95,-16,-14,-284,120
100203,300,288,110,-38,-41,403,-105,217,62,81,-140,0,369,2,425,-128,-29,107,62,92,-59,76,209,7,-43,43,67,-57,2,-25,-295,108
100204,365,298,131,2,-46,386,-103,268,60,85,-170,10,398,-7,421,-52,-30,137,82,91,-69,79,242,13,-29,36,85,-33,56,-8,-278,154
100205,306,216,106,-18,-55,391,-114,251,70,104,-55,-3,390,-21,451,32,-75,122,50,92,-47,3,246,10,-6,36,59,-32,55,-1,-268,170
100206,243,222,78,-49,-46,379,-106,172,60,98,-53,-29,364,-27,429,-44,-74,108,56,62,-72,30,209,-12,-34,5,17,-24,55,-5,-291,176
100207,226,186,33,-71,-34,340,-81,123,39,74,-78,-3,354,-21,421,-177,-102,79,65,71,-113,82,174,-31,-60,-9,-6,-37,57,-1,-322,155
100208,274,219,37,-67,-41,357,-39,144,48,64,-118,-8,367,-9,405,-173,-160,65,67,63,-148,14,150,-31,-58,-38,-55,-107,28,-50,-366,74
100209,297,208,14,-100,-38,377,-119,142,45,73,-126,-94,332,-7,422,-103,-193,71,57,60,-122,56,138,-27,-38,-45,-17,-84,41,-56,-334,106
100210,293,219,55,-87,-27,399,-71,151,54,103,13,-128,341,17,480,-43,-169,65,85,107,-63,132,175,3,1,5,27,-35,67,-22,-315,92
100211,307,285,149,-53,-40,389,-59,190,71,113,-20,-29,374,40,474,29,-142,89,102,141,-42,96,225,11,30,28,68,22,118,19,-278,139
100212,292,261,188,-20,-24,435,-70,227,95,144,11,21,392,68,514,171,-148,120,133,171,-3,52,272,63,82,87,96,74,185,97,-202,227
100213,243,247,142,-7,-58,397,11,225,82,111,-44,-14,370,60,520,170,-144,89,144,179,41,145,232,35,101,123,137,71,177,125,-171,252
100214,284,272,212,20,-40,370,44,261,89,117,-62,10,398,42,510,157,-69,88,133,197,38,239,231,16,100,137,194,2,176,129,-140,268
100215,336,198,253,24,-38,412,58,285,105,133,-10,53,404,58,533,132,-7,109,158,187,28,252,301,49,108,147,210,117,221,183,-103,295
100216,348,71,197,9,-34,378,28,281,97,97,-34,55,378,38,509,91,-11,94,140,175,14,199,290,21,84,139,198,127,215,189,-118,307
100217,309,37,164,12,-45,356,-65,267,78,74,-110,59,364,3,454,-55,-60,60,103,135,-44,164,225,-41,42,105,154,-6,176,178,-102,320
100218,257,54,138,-28,-48,399,-135,223,53,60,-118,63,339,-21,425,-276,-119,-31,44,85,-119,130,100,-88,6,34,107,-104,70,92,-154,243
100219,204,29,159,-55,-37,381,-158,193,53,66,-161,72,318,-26,406,-192,-156,-47,30,66,-141,87,85,-97,-17,45,97,-56,64,87,-148,243
100220,233,-22,162,-48,-61,379,-204,232,51,52,-173,-59,300,-28,394,-140,-194,-43,23,68,-110,93,82,-101,-16,78,219,-47,70,130,-83,319
100221,337,67,163,-36,-48,400,-183,258,82,80,-101,-76,346,-3,421,-96,-127,2,57,106,-57,116,136,-61,16,114,262,27,87,161,-74,331
100222,366,246,229,-3,-53,367,-118,272,82,87,-70,9,365,19,455,6,-81,41,89,132,-3,166,183,-24,52,136,248,58,96,114,-142,230
100223,385,391,264,38,-43,354,-53,307,99,80,-81,31,393,45,451,15,-62,45,119,139,4,200,213,-10,87,160,222,100,134,157,-101,250
100224,417,309,219,13,-43,384,-51,291,82,116,-52,19,381,53,471,52,-18,47,124,170,17,189,218,-13,97,179,218,72,139,220,-8,454
100225,399,241,240,-2,-36,355,-108,255,95,139,-61,50,361,85,476,58,1,72,133,208,42,130,234,-6,120,220,275,81,140,243,36,533
100226,396,215,248,-46,-43,348,-142,247,77,123,-100,12,342,94,476,35,11,48,143,221,31,124,202,1,132,229,324,46,124,257,65,527
100227,362,99,194,-83,-43,316,-149,207,49,96,-199,-25,311,75,442,18,7,31,132,186,-13,79,141,-64,88,192,222,-71,35,154,-94,249
100228,287,114,120,-109,-44,301,-151,151,33,85,-146,-26,288,70,428,16,-29,-4,115,172,-53,191,139,-70,64,173,113,-8,13,79,-164,155
100229,300,166,137,-127,-39,351,-148,94,32,94,-117,-25,286,79,462,74,-22,2,111,192,-16,205,173,-38,103,199,75,35,70,105,-121,244
100230,411,277,171,-141,-40,343,-105,79,29,100,-91,-9,304,99,481,68,1,58,152,246,37,242,208,35,156,250,180,47,151,213,17,365
100231,449,248,192,-128,-38,375,-4,117,55,139,-67,19,338,128,528,39,23,90,190,307,64,291,260,74,221,322,304,55,220,330,177,502
100232,449,252,237,-104,-31,410,107,117,54,159,45,5,333,138,568,14,31,86,189,312,79,300,242,70,221,335,316,54,230,344,175,526
100233,429,340,244,-108,-36,432,155,97,65,156,56,-4,325,119,554,63,36,81,166,281,67,309,245,44,188,297,255,82,203,221,-21,347
100234,391,344,201,-92,-49,416,147,116,63,141,47,12,336,97,556,112,-12,50,161,261,64,214,246,32,172,294,220,114,225,238,-32,233
100235,348,334,140,-112,-47,417,64,100,68,147,-21,-71,338,125,552,118,-29,57,172,299,83,229,262,80,231,376,356,149,324,418,269,530
100236,311,295,114,-129,-39,431,-61,74,61,139,-18,-131,332,102,543,44,-89,50,150,282,63,240,239,80,226,378,415,129,353,436,300,559
100237,223,200,88,-108,-38,389,-92,67,54,88,-77,-122,317,52,482,-57,-92,12,111,193,-24,188,193,44,160,257,307,77,265,272,46,307
100238,245,25,114,-89,-40,389,-94,93,47,65,-182,-68,317,48,424,-97,-132,3,92,156,-50,185,185,28,110,211,255,-18,235,226,-43,221
100239,284,-36,112,-92,-39,399,-74,58,39,65,-171,-36,312,39,429,-69,-137,40,98,155,-38,158,226,54,113,227,274,20,292,300,54,269
100240,245,194,112,-47,-45,394,-26,118,67,63,-135,5,362,35,436,-83,-76,97,114,155,-57,134,286,88,137,239,271,35,307,321,63,231
100241,178,350,45,-43,-43,443,-118,151,70,74,-95,-84,361,17,441,-179,-50,101,108,153,-66,93,342,121,159,245,260,65,353,338,96,260
100242,182,394,51,-50,-39,396,-99,165,83,92,-60,-109,369,40,462,-154,-9,97,116,174,-35,107,345,125,181,258,271,153,413,386,136,366
100243,243,308,73,-42,-48,420,-93,171,68,108,-64,-60,367,48,469,-63,-46,102,122,185,11,149,298,128,185,267,309,218,444,444,182,420
100244,299,154,96,-40,-24,461,-109,184,70,105,-112,-64,363,62,475,-42,-44,113,131,203,22,223,325,141,173,288,358,215,448,471,230,467
100245,245,74,83,-46,-38,459,-56,131,61,108,-42,-92,341,43,498,-61,-80,86,95,161,9,185,302,102,129,259,308,192,418,387,84,320
100246,258,136,86,-71,-47,416,-37,99,28,85,-21,-63,305,15,489,11,-73,71,69,150,11,114,306,71,96,223,305,196,381,318,14,276
100247,312,282,88,-89,-38,409,17,114,4,94,-37,-83,314,-6,484,54,-50,73,61,144,49,197,323,86,96,222,344,202,400,340,34,328
100248,318,361,92,-91,-36,363,55,129,0,96,-64,-63,331,3,504,115,2,105,87,177,88,129,358,114,115,255,357,260,452,381,80,402
100249,322,289,94,-117,-52,357,131,102,3,108,-17,-41,320,17,543,210,46,120,83,203,109,151,373,118,127,266,370,318,493,414,121,445
100250,299,127,76,-135,-58,420,99,77,-15,109,0,-67,289,5,567,190,19,93,56,192,121,210,381,87,119,269,418,324,469,424,102,467
100251,393,176,145,-111,-51,427,58,127,-10,113,-19,-20,299,20,566,145,20,87,56,210,119,238,368,65,103,252,442,294,424,383,61,414
100252,412,146,229,-65,-36,435,9,177,22,132,21,43,325,50,592,140,52,106,78,238,141,258,373,59,88,255,429,282,410,358,74,471
100253,326,218,210,-78,-47,403,21,167,17,127,33,14,299,25,577,138,27,70,47,201,127,297,260,8,59,220,403,37,268,266,10,407
100254,396,456,211,-50,-57,364,53,192,28,103,6,-14,329,23,556,122,-7,67,42,195,95,289,265,-16,47,199,324,21,237,232,7,399
100255,530,462,232,-8,-45,350,17,221,44,96,-19,-13,340,12,531,71,-82,43,41,167,56,267,251,-25,17,155,282,75,222,192,-30,398
100256,580,454,204,-29,-36,363,38,210,26,75,-38,-27,313,-22,486,28,-84,20,8,123,-1,190,212,-69,-23,104,256,60,196,174,-66,334
100257,513,406,207,-37,-58,353,30,206,0,52,-84,-12,292,-65,450,-14,-127,-17,-13,90,-36,138,172,-138,-75,62,208,-17,132,118,-108,318
100258,544,394,237,-33,-50,336,3,193,-1,31,-142,-14,276,-74,418,-15,-188,-50,-38,46,-62,98,108,-187,-114,26,186,-151,37,44,-151,317
100259,640,396,246,-4,-32,386,-31,213,15,44,-138,-31,300,-75,417,-50,-190,-53,-32,-6,-139,38,52,-219,-148,-22,109,-192,-22,-51,-260,164
100260,739,408,233,6,-31,381,-111,202,17,24,-147,-66,312,-97,384,-85,-248,-70,-50,-31,-197,-25,30,-274,-172,-90,46,-242,-101,-145,-329,67
100261,757,461,211,14,-23,375,-121,174,55,32,-144,-137,304,-72,357,-41,-236,-87,-64,-35,-190,26,6,-269,-175,-92,59,-261,-114,-149,-315,101
100262,788,539,246,51,-26,375,-129,211,51,51,-147,-131,315,-63,362,-27,-189,-56,-37,-28,-203,10,19,-241,-189,-104,38,-228,-109,-147,-336,75
100263,877,522,281,65,-51,369,-136,201,43,24,-220,-117,303,-62,333,-67,-256,-63,-12,-27,-218,84,2,-260,-174,-98,38,-211,-115,-141,-326,102
100264,865,517,258,61,-54,405,-96,181,43,42,-193,-113,306,-40,337,-77,-287,-34,-4,-5,-215,40,30,-250,-148,-97,25,-164,-112,-128,-340,97
100265,920,484,251,54,-29,397,-94,162,58,58,-184,-139,296,-29,358,-96,-283,-64,-15,6,-207,-97,54,-240,-148,-92,9,-146,-96,-145,-366,57
100266,1046,497,226,30,-24,394,-75,115,23,43,-206,-189,252,-62,320,-199,-304,-132,-37,-29,-258,-87,-3,-289,-196,-125,-6,-242,-159,-195,-442,-12
100267,1219,740,204,13,-45,412,-79,71,-29,12,-260,-266,210,-116,300,-299,-337,-177,-100,-65,-290,-96,-61,-328,-238,-169,-49,-306,-189,-238,-495,-78
100268,1310,878,183,25,-29,420,-91,46,-39,-14,-258,-318,183,-136,289,-271,-348,-204,-124,-69,-274,-9,-72,-320,-228,-154,-2,-292,-192,-230,-492,-61
100269,1380,1049,171,42,-34,430,-51,26,-37,-4,-205,-351,175,-126,287,-132,-375,-223,-110,-71,-232,0,-102,-311,-229,-117,-1,-250,-178,-210,-472,-55
100270,1457,1165,155,13,-48,442,-50,-19,-53,-16,-212,-418,146,-150,280,-240,-493,-275,-128,-56,-270,-44,-141,-321,-212,-148,-43,-285,-215,-201,-446,-20
100271,1546,1232,212,38,-49,452,-61,-14,-42,-12,-209,-450,144,-139,295,-336,-551,-291,-123,-55,-288,-72,-160,-327,-215,-151,-118,-329,-240,-216,-455,-32
100272,1599,1267,263,52,-44,500,-91,0,-40,10,-160,-438,128,-133,324,-336,-463,-290,-125,-42,-272,-70,-151,-313,-190,-124,-90,-286,-196,-204,-445,-70
100273,1664,1284,263,49,-54,493,-38,-12,-50,-16,-164,-439,105,-154,305,-314,-476,-304,-141,-55,-254,-113,-165,-338,-178,-106,-6,-249,-195,-208,-430,19
100274,1777,1417,300,74,-52,469,10,-7,-53,-9,-194,-453,117,-170,299,-261,-488,-335,-159,-47,-216,-147,-195,-369,-202,-99,34,-271,-237,-254,-459,-37
100275,1856,1518,313,89,-51,475,-15,-17,-70,-3,-199,-485,119,-181,302,-312,-481,-370,-175,-53,-252,-272,-253,-416,-229,-103,15,-386,-313,-272,-433,-72
100276,1847,1535,247,51,-56,516,-101,-46,-102,-25,-191,-537,84,-204,276,-353,-589,-422,-221,-130,-334,-372,-328,-509,-303,-193,-113,-487,-373,-348,-524,-60
100277,1926,1595,201,7,-42,461,-89,-139,-118,-53,-250,-625,40,-215,228,-398,-642,-423,-249,-145,-383,-339,-282,-487,-312,-239,-220,-372,-307,-323,-554,-115
100278,2000,1637,183,13,-41,443,-46,-141,-112,-55,-254,-602,31,-225,200,-436,-639,-411,-235,-168,-425,-274,-254,-485,-316,-263,-228,-388,-338,-386,-661,-286
100279,1970,1624,180,-7,-32,489,-86,-131,-144,-57,-223,-601,31,-238,201,-424,-642,-396,-232,-178,-418,-313,-204,-449,-323,-252,-219,-400,-311,-354,-606,-210
100280,2002,1657,212,-6,-33,546,-58,-149,-136,-24,-217,-581,27,-222,211,-428,-642,-407,-213,-159,-421,-413,-264,-450,-317,-246,-263,-370,-293,-361,-596,-258
100281,1994,1638,198,31,-47,574,-19,-178,-116,7,-224,-595,65,-189,253,-411,-695,-418,-178,-116,-388,-423,-332,-418,-274,-183,-198,-440,-321,-316,-506,-149
100282,2038,1520,232,35,-52,572,-13,-178,-100,3,-255,-606,74,-174,277,-421,-706,-376,-167,-89,-341,-384,-332,-381,-230,-151,-119,-509,-312,-293,-463,-69
100283,2076,1603,236,44,-49,553,13,-93,-54,21,-242,-522,118,-139,307,-208,-598,-294,-118,-48,-305,-391,-185,-302,-161,-86,-47,-319,-170,-178,-398,-92
100284,2087,1734,325,47,-40,531,55,-23,-34,37,-230,-476,155,-108,321,-135,-529,-218,-99,-34,-293,-305,-99,-240,-129,-73,-57,-328,-116,-150,-398,-123
100285,1987,1674,340,20,-36,511,117,-35,-51,26,-149,-472,161,-122,324,-180,-541,-224,-94,-23,-280,-216,-152,-261,-138,-47,-33,-305,-101,-108,-329,10
100286,1887,1630,297,-2,-56,439,53,-50,-75,-10,-219,-466,133,-145,290,-161,-539,-252,-118,-30,-288,-114,-225,-254,-152,-46,-42,-315,-97,-77,-281,60
100287,1842,1555,273,13,-38,471,-101,-45,-56,4,-199,-451,149,-136,315,-214,-449,-210,-105,17,-269,-166,-129,-188,-106,-3,-19,-168,14,30,-201,131
100288,1773,1400,257,5,-40,475,-140,-42,-57,8,-175,-475,152,-160,316,-323,-521,-207,-118,-3,-267,-252,-129,-209,-117,-7,-2,-184,-14,-9,-252,113
100289,1748,1302,307,-3,-78,439,-132,-2,-68,-24,-228,-463,138,-195,268,-417,-603,-241,-156,-69,-344,-294,-194,-289,-182,-104,-105,-329,-143,-177,-462,-181
100290,1659,1272,339,25,-49,436,-40,53,-44,4,-236,-409,164,-165,291,-390,-668,-219,-124,-34,-330,-177,-178,-263,-175,-78,-46,-296,-126,-142,-393,-61
100291,1594,1286,270,72,-30,454,12,66,-9,18,-211,-350,191,-123,337,-340,-658,-195,-91,12,-275,-118,-143,-239,-139,-12,44,-294,-83,-62,-308,103
100292,1559,1275,303,112,-45,447,4,96,17,13,-233,-269,225,-118,336,-341,-565,-176,-94,9,-262,-43,-138,-252,-141,-4,57,-403,-134,-79,-303,76
100293,1542,1252,342,91,-57,429,14,60,1,15,-238,-253,207,-118,337,-376,-564,-155,-109,13,-240,-41,-132,-221,-137,19,125,-365,-103,-11,-167,187
100294,1568,1274,345,103,-48,423,66,80,2,17,-235,-317,231,-124,328,-336,-532,-151,-86,7,-236,-104,-123,-198,-125,45,115,-311,-40,44,-71,293
100295,1581,1213,367,116,-36,421,91,120,-3,-6,-248,-341,228,-138,308,-314,-438,-157,-102,-17,-277,-207,-84,-201,-158,-21,-22,-248,-73,-65,-270,-4
100296,1560,1171,384,117,-33,383,39,111,-2,-24,-248,-323,231,-123,293,-308,-323,-108,-86,-40,-287,-256,-15,-174,-158,-64,-105,-196,-89,-151,-423,-144
100297,1467,1056,384,113,-50,352,-44,132,8,-45,-321,-230,270,-132,241,-320,-276,-36,-42,-67,-346,-159,72,-120,-117,-69,-159,-127,-11,-124,-436,-135
100298,1417,1010,448,126,-44,333,-80,173,8,-68,-353,-208,307,-140,233,-284,-260,-4,-25,-59,-326,-87,117,-70,-86,-28,-88,-62,74,-42,-343,-88
100299,1431,1009,475,164,-40,317,-51,205,24,-49,-251,-205,316,-114,291,-229,-243,19,-1,-2,-238,-21,82,-49,-40,28,49,-84,55,-26,-301,-32
100300,1437,956,449,173,-32,374,-27,215,52,-11,-186,-170,343,-69,353,-183,-205,51,46,62,-152,-25,131,-16,8,97,156,-97,73,55,-217,49
100301,1424,965,423,170,-37,395,-72,216,56,-3,-168,-136,363,-47,388,-249,-223,69,70,69,-127,1,207,22,51,125,152,8,164,128,-161,146
100302,1392,910,427,153,-54,412,-120,197,51,7,-162,-128,343,-61,373,-246,-226,54,58,62,-158,30,198,12,38,96,61,-59,111,89,-164,247
100303,1352,800,444,163,-50,408,-98,185,59,29,-146,-131,348,-25,383,-167,-197,52,65,75,-130,-97,161,3,33,125,111,-139,74,95,-122,306
100304,1317,855,427,175,-33,378,-62,253,76,44,-159,-135,349,-4,396,-12,-218,68,76,96,-96,-132,194,3,46,134,179,-108,135,133,-63,309
100305,1226,892,399,160,-36,406,-73,235,61,31,-161,-99,320,-36,380,-27,-245,51,43,56,-132,-93,211,-21,-3,47,59,-51,110,25,-273,95
100306,1244,895,386,137,-47,430,-60,226,39,8,-159,-69,296,-75,342,-79,-212,58,25,8,-166,-132,218,-34,-62,-29,-52,-20,83,-68,-416,-71
100307,1248,879,410,117,-57,364,-88,231,27,-10,-226,-82,306,-81,311,-157,-178,66,11,-1,-190,-62,228,-23,-64,-27,-53,-9,96,-7,-331,-11
100308,1202,823,452,124,-50,340,-71,233,7,-32,-196,-110,312,-83,312,-188,-137,73,19,7,-180,18,209,-33,-67,-3,30,-36,100,-14,-336,48
100309,1150,823,447,128,-50,338,10,262,32,-4,-177,-42,355,-69,344,-102,-42,114,58,34,-106,33,271,10,-42,28,155,38,158,41,-260,111
100310,1089,751,391,98,-50,355,19,250,47,28,-161,-25,366,-40,360,-50,39,140,61,32,-105,88,317,48,-35,35,173,138,187,80,-256,77
100311,1109,745,396,111,-26,391,13,318,63,16,-138,26,396,-22,350,49,36,166,78,27,-118,161,326,38,-42,21,130,134,188,67,-252,147
100312,1202,852,378,155,-39,392,52,353,105,29,-122,120,437,-25,348,36,-7,183,88,11,-131,248,339,35,-56,0,46,96,162,32,-270,203
100313,1205,897,383,169,-45,361,72,354,107,20,-197,128,461,-19,338,-47,0,191,77,7,-136,216,344,28,-86,-4,61,87,168,72,-189,262
100314,1189,926,426,176,-28,393,89,337,107,36,-166,91,465,-18,346,-54,-39,198,91,10,-106,223,331,16,-73,2,146,66,134,44,-194,227
100315,1143,915,407,155,-43,395,124,309,77,24,-137,37,419,-33,328,-36,-94,163,63,5,-115,231,343,-8,-82,0,182,73,99,36,-199,239
100316,1112,835,328,114,-56,368,58,233,45,6,-139,-6,372,-54,325,-37,-87,112,5,-11,-130,84,321,-83,-155,-34,127,-109,37,19,-162,338
100317,1102,772,276,78,-56,366,30,166,14,-1,-166,-39,316,-78,319,-120,-109,44,-39,-40,-167,-41,180,-169,-217,-117,-16,-96,-35,-107,-316,122
100318,1051,736,237,31,-44,375,34,126,7,-18,-138,-163,269,-107,309,-73,-226,-52,-94,-89,-210,-31,14,-227,-269,-153,-60,-102,-98,-177,-411,74
100319,969,713,216,34,-49,370,-8,105,-22,-9,-202,-245,226,-135,276,-116,-310,-125,-130,-120,-232,-29,-35,-291,-308,-177,-75,-178,-158,-235,-477,44
100320,938,739,177,51,-34,372,-58,98,-3,11,-251,-204,225,-99,292,-163,-247,-113,-104,-84,-225,81,32,-281,-279,-160,-41,-107,-106,-204,-459,-8
100321,873,709,107,30,-46,381,-149,49,-6,16,-231,-204,189,-98,300,-202,-317,-162,-125,-76,-239,36,-16,-306,-276,-191,-65,-155,-109,-210,-452,-37
100322,886,666,93,23,-49,408,-125,28,-19,47,-215,-215,162,-90,346,-124,-377,-197,-150,-75,-234,-62,-93,-332,-274,-210,-118,-186,-137,-232,-444,-36
100323,854,575,64,-2,-46,440,-96,0,-33,39,-214,-280,128,-94,338,-171,-424,-247,-177,-111,-281,-238,-139,-384,-289,-230,-186,-288,-203,-274,-494,-75
100324,764,580,14,-7,-46,463,-40,-55,-47,60,-176,-390,83,-106,340,-202,-471,-277,-200,-105,-290,-228,-171,-395,-304,-228,-192,-343,-239,-333,-593,-213
100325,703,506,-101,-24,-50,452,-169,-108,-73,56,-216,-441,65,-104,336,-247,-474,-316,-226,-104,-297,-240,-200,-428,-321,-224,-145,-369,-240,-364,-591,-298
100326,649,457,-180,-85,-35,445,-283,-205,-85,55,-211,-496,55,-103,336,-239,-457,-369,-243,-112,-314,-220,-233,-456,-351,-242,-222,-338,-240,-342,-580,-237
100327,610,411,-238,-96,-48,447,-297,-200,-117,27,-195,-553,6,-145,295,-276,-567,-419,-290,-157,-357,-264,-272,-536,-380,-287,-328,-366,-291,-377,-611,-241
100328,544,364,-271,-113,-44,436,-242,-190,-110,21,-215,-629,12,-163,289,-319,-655,-459,-319,-163,-377,-263,-284,-545,-394,-301,-333,-361,-304,-392,-627,-247
100329,453,467,-259,-93,-38,417,-158,-216,-99,18,-196,-608,24,-170,317,-327,-676,-457,-298,-152,-322,-166,-308,-526,-366,-258,-228,-413,-329,-387,-623,-229
100330,543,595,-223,-94,-45,394,-91,-211,-96,23,-228,-608,40,-140,317,-354,-634,-421,-231,-108,-298,-173,-277,-489,-323,-206,-132,-385,-289,-337,-556,-174
100331,649,592,-185,-98,-47,406,-63,-183,-81,42,-276,-522,89,-98,356,-306,-529,-362,-186,-50,-229,-142,-220,-416,-249,-136,-57,-362,-230,-262,-461,-47
100332,681,575,-191,-109,-44,443,-27,-147,-49,84,-183,-489,113,-71,387,-266,-588,-309,-123,-10,-208,-34,-231,-358,-196,-72,-23,-388,-204,-213,-387,4
100333,672,597,-165,-109,-55,427,-16,-119,-32,95,-187,-528,151,-46,386,-251,-614,-280,-81,12,-179,3,-222,-304,-151,-38,-24,-356,-144,-133,-319,7
100334,613,563,-195,-108,-50,450,34,-108,-29,104,-156,-463,174,-6,398,-194,-532,-227,-56,30,-140,-13,-151,-253,-95,4,28,-239,-76,-23,-221,98
