,Fp1,Fp2,F7,F3,Fz,F4,F8,FC5,FC1,FC2,FC6,T7,C3,Cz,C4,T8,TP9,CP5,CP1,CP2,CP6,TP10,P7,P3,Pz,P4,P8,PO9,O1,Oz,O2,PO10
100968,771,123,361,312,-33,728,456,638,136,298,528,270,558,100,450,165,102,111,231,209,115,338,208,-3,292,377,388,174,336,-113,56,165
100969,631,-22,280,203,-33,659,381,494,25,209,540,169,444,5,377,96,36,19,127,93,-17,165,127,-94,186,245,223,60,215,-307,-207,-95
100970,600,-127,211,75,-17,561,197,399,-84,121,508,85,341,-92,296,74,-20,-57,33,8,-105,56,40,-181,88,152,128,-57,105,-433,-337,-240
100971,550,-244,150,-4,-31,493,140,326,-168,51,382,20,281,-172,230,-15,-119,-132,-20,-43,-116,33,-44,-232,34,146,183,-141,44,-423,-268,-118
100972,521,-262,123,8,-15,498,203,318,-131,62,399,112,306,-146,231,-81,-139,-112,13,-30,-76,1,27,-191,71,195,348,-155,80,-391,-240,-21
100973,576,-217,161,91,-31,535,286,429,-46,130,418,191,388,-75,289,90,-114,-24,79,67,16,-38,109,-121,156,266,406,-21,175,-346,-223,-151
100974,661,-76,242,183,-49,620,391,507,47,221,552,265,476,17,408,161,-52,25,167,167,126,108,120,-52,248,376,458,140,268,-227,-97,23
100975,740,121,350,275,-45,668,447,599,132,285,573,288,549,113,476,164,18,89,266,256,182,396,199,33,344,477,505,173,327,-150,-9,101
100976,795,156,369,334,-43,741,488,609,184,359,664,241,599,170,534,206,123,146,312,347,253,491,253,102,403,536,566,188,395,-81,55,128
100977,831,207,401,326,-31,763,474,613,194,375,726,279,595,210,547,265,158,157,337,369,283,470,274,134,420,548,616,199,410,-45,135,286
100978,795,236,419,280,-41,715,353,569,146,332,626,263,549,148,484,302,124,112,286,295,224,326,282,85,375,477,534,223,396,-31,107,337
100979,678,165,284,154,-33,587,332,414,42,233,523,115,440,45,394,325,48,30,163,185,144,187,190,-24,259,378,480,92,293,-173,-33,90
100980,541,-66,102,36,-43,488,323,316,-58,122,417,-41,347,-60,316,259,-86,-79,80,85,77,131,103,-110,163,304,509,37,243,-236,-90,7
100981,416,-169,21,-66,-44,393,196,188,-149,17,251,-104,267,-144,205,14,-112,-166,26,-12,-62,-68,38,-159,102,177,282,42,204,-297,-178,-67
100982,400,-117,100,-25,-34,399,156,181,-126,46,247,-71,287,-101,219,-76,-67,-121,22,-11,-104,-84,76,-130,129,171,210,28,226,-288,-202,-140
100983,439,-102,65,29,-32,486,179,272,-57,114,341,-19,338,-58,279,-62,-82,-68,74,36,-91,57,134,-45,163,210,194,94,321,-205,-142,-116
100984,591,-84,93,99,-36,531,165,351,3,199,429,105,424,30,322,-16,-148,-35,163,88,-30,56,184,6,220,288,261,247,419,-78,-40,25
100985,688,-74,178,189,-28,643,257,430,108,297,513,186,524,103,418,94,73,54,234,162,38,146,233,82,306,357,320,323,490,-33,26,133
100986,706,-49,217,252,-29,726,313,485,166,345,587,224,582,156,480,158,162,145,295,209,83,300,344,149,373,421,379,392,566,43,120,283
100987,707,37,283,273,-34,720,323,493,170,351,589,271,583,168,485,208,121,155,305,232,104,351,330,153,370,438,455,277,550,52,167,330
100988,677,-43,280,222,-38,688,255,503,151,302,518,248,554,136,445,145,58,147,282,203,85,312,325,112,339,425,496,311,530,84,193,337
100989,592,-106,221,179,-26,617,151,494,70,258,493,182,503,57,390,136,7,104,214,138,48,215,290,63,279,369,470,304,516,84,185,309
100990,544,-165,158,78,-19,503,16,369,-21,155,399,81,428,-31,292,112,31,26,126,62,-58,149,241,-5,215,300,408,254,468,12,126,232
100991,468,-246,96,-13,-37,409,-21,289,-105,49,298,-14,363,-111,186,98,-2,-26,57,3,-123,56,184,-84,140,223,309,208,379,-76,86,245
100992,541,-183,145,6,-31,427,62,300,-80,65,279,68,390,-95,193,43,55,13,71,-12,-129,-17,160,-85,129,199,243,55,290,-199,-44,142
100993,630,-171,258,112,-33,472,139,432,-1,93,312,219,441,-67,221,-65,84,93,106,3,-125,-32,227,-69,125,177,224,23,228,-312,-276,-71
100994,690,-86,293,230,-26,559,185,545,85,170,396,370,562,36,299,-26,153,211,199,94,-41,94,371,26,239,274,366,132,359,-144,-107,60
100995,769,41,360,327,-50,639,330,628,159,242,479,456,640,104,360,169,268,270,267,166,44,322,368,67,305,366,474,149,415,-63,20,199
100996,790,124,461,380,-53,697,488,694,195,257,512,497,675,129,387,209,321,318,301,194,74,339,356,97,328,394,448,289,473,-62,11,172
100997,767,184,515,394,-57,687,551,719,192,288,460,442,705,148,414,221,389,347,329,216,98,295,412,160,380,420,443,432,509,-7,83,307
100998,801,170,475,364,-18,675,432,696,205,284,501,462,699,157,405,210,448,351,350,204,86,318,436,175,376,424,462,405,500,-24,40,255
100999,672,49,330,272,-16,572,248,585,117,205,446,391,616,82,341,115,270,259,256,140,18,156,317,82,276,333,362,168,345,-163,-109,52
101000,547,-203,250,173,-29,481,156,454,10,114,352,249,500,-28,234,-49,80,134,155,35,-111,30,130,-63,158,206,194,-56,206,-334,-261,-94
101001,530,-357,209,64,-31,425,120,347,-65,33,286,100,400,-117,143,-127,-42,1,80,-48,-193,-41,24,-157,65,140,102,-112,102,-430,-353,-192
101002,547,-205,214,73,-36,377,125,374,-75,21,265,129,386,-122,142,-160,-32,-26,59,-62,-176,-85,-16,-194,59,101,51,-158,35,-490,-430,-272
101003,615,-137,283,139,-36,444,177,476,13,89,329,245,470,-52,220,-99,94,37,135,18,-112,-2,55,-140,133,176,144,-78,74,-423,-342,-213
101004,682,-68,407,216,-32,545,260,583,103,172,445,359,587,37,322,-30,176,145,231,110,-49,112,187,-29,214,259,223,95,205,-301,-204,-18
101005,786,15,473,309,-40,625,342,672,187,281,524,474,683,144,428,33,245,252,330,219,62,238,300,82,335,341,311,262,344,-168,-92,70
101006,795,81,508,374,-26,701,317,747,265,360,617,528,749,225,502,219,348,297,390,290,162,332,391,127,396,440,425,227,332,-134,-68,60
101007,739,147,480,388,-30,700,311,746,262,372,710,509,728,222,537,299,232,261,380,295,194,277,332,112,382,452,404,181,287,-148,-36,47
101008,683,24,389,319,-40,655,225,703,201,326,571,467,669,161,499,215,147,219,342,250,143,177,244,51,326,397,350,104,207,-205,-58,81
101009,532,-85,286,245,-31,546,172,624,112,209,416,413,593,57,376,101,86,126,243,145,15,43,161,-31,223,268,231,-4,130,-366,-244,-116
101010,500,-166,213,160,-24,469,129,507,1,106,334,318,471,-47,262,-91,21,27,134,24,-94,-85,43,-158,113,145,110,-139,18,-535,-479,-414
101011,511,-201,205,61,-12,424,61,439,-68,16,290,225,406,-118,195,-138,-30,-21,83,-45,-147,-206,-24,-214,51,90,78,-224,-32,-545,-444,-409
101012,564,-111,252,70,-25,409,83,438,-54,24,363,201,405,-127,219,-59,60,3,77,-29,-120,-122,55,-175,80,122,90,-110,69,-449,-346,-258
101013,639,-4,269,151,-24,485,241,487,-5,65,404,229,438,-96,249,23,126,55,126,20,-65,52,126,-130,124,180,195,-11,139,-366,-252,-51
101014,809,92,415,261,-41,561,337,637,93,136,438,449,545,-13,304,170,231,162,216,105,16,271,234,-21,213,261,292,106,238,-271,-164,11
101015,909,122,567,349,-47,631,428,746,201,228,497,574,649,71,382,356,327,248,293,170,116,398,343,70,300,348,388,245,329,-146,-49,149
101016,916,120,587,410,-51,702,529,761,223,291,629,599,691,125,437,403,318,286,319,221,142,408,407,116,350,391,433,224,377,-93,-6,250
101017,876,150,569,425,-32,743,579,782,235,322,683,479,700,157,466,369,317,309,337,223,150,437,382,121,332,403,428,157,387,-107,-9,228
101018,837,125,542,393,-41,735,538,766,199,286,636,420,673,116,432,391,245,273,310,195,168,432,349,111,308,364,455,257,406,-83,-10,203
101019,753,-40,454,268,-43,643,373,651,88,204,546,329,561,19,348,268,95,138,180,96,45,362,238,-36,191,264,365,278,356,-163,-72,146
101020,583,-171,323,150,-37,544,244,502,-24,121,441,174,446,-82,240,151,13,32,82,-8,-65,226,151,-137,101,194,271,209,282,-230,-140,110
101021,478,-234,237,42,-36,422,196,359,-105,28,359,119,338,-160,181,27,-74,-74,-17,-74,-107,155,36,-246,13,127,259,-39,143,-370,-232,56
101022,490,-188,217,24,-29,436,220,353,-88,46,341,125,339,-151,217,-6,-106,-105,-23,-52,-78,49,-41,-271,-11,132,290,-180,28,-445,-296,-18
101023,567,-125,277,90,-25,518,321,406,-24,120,471,159,383,-80,311,86,-19,-25,52,23,-12,130,79,-182,78,209,420,-60,126,-339,-174,66
101024,640,-10,310,162,-45,587,314,479,57,199,528,235,480,6,386,225,118,74,140,103,96,286,226,-79,170,317,549,28,268,-189,-26,230
101025,721,55,324,204,-37,688,402,563,122,268,602,269,536,60,457,355,128,84,172,156,165,369,210,-41,211,373,579,150,336,-145,1,278
101026,772,22,370,255,-52,723,464,560,160,327,626,277,551,94,470,389,193,105,202,202,194,263,247,4,239,391,588,217,359,-122,-14,216
101027,818,118,428,316,-45,750,345,585,183,373,676,332,568,126,484,383,164,125,236,204,189,160,270,38,274,401,516,243,391,-89,15,174
101028,765,125,365,287,-35,711,200,569,157,347,690,300,546,92,493,358,134,97,194,174,169,211,264,4,246,362,482,285,392,-81,-13,181
101029,697,-95,247,162,-36,676,2,482,41,257,642,191,439,-7,414,245,77,10,90,78,76,116,183,-84,132,265,412,184,281,-179,-99,181
101030,587,-168,156,44,-17,552,37,326,-67,143,536,83,322,-101,307,98,-31,-63,-4,-15,-27,21,138,-174,43,175,318,56,196,-288,-194,125
101031,425,-192,52,-28,-13,422,102,267,-145,40,353,-42,240,-215,213,-80,-201,-166,-101,-119,-146,-24,30,-268,-39,68,229,-31,87,-388,-274,74
101032,407,-332,17,-22,-31,451,131,297,-153,29,401,-94,227,-227,216,-29,-274,-243,-128,-119,-153,102,-93,-335,-62,73,266,-50,52,-382,-231,150
101033,495,-261,79,63,-22,542,258,349,-77,90,429,11,276,-136,265,218,-212,-174,-52,-48,-49,210,-26,-276,-12,163,390,14,136,-300,-120,168
101034,596,-115,164,154,-49,609,341,444,-2,150,378,127,354,-70,301,134,-110,-63,25,-8,-8,347,102,-203,37,186,386,18,168,-304,-180,101
101035,732,-7,308,249,-48,711,419,536,110,242,536,296,472,15,377,97,83,74,130,58,-3,350,282,-75,115,209,288,136,254,-250,-181,104
101036,817,93,420,336,-47,759,492,625,162,304,619,370,555,77,432,244,-13,110,177,121,49,365,234,-54,151,246,267,0,226,-264,-188,126
101037,838,206,466,330,-43,747,515,686,183,301,559,440,585,90,408,251,91,164,184,116,80,371,236,-39,173,269,367,176,276,-288,-193,95
101038,854,190,428,278,-45,704,536,620,127,266,547,548,568,65,394,203,285,200,182,78,79,289,299,-31,171,256,381,327,321,-252,-164,156
101039,804,94,348,178,-40,649,515,517,18,194,512,376,464,-35,321,168,235,101,83,1,15,242,250,-103,92,191,323,189,286,-265,-171,152
101040,690,8,317,106,-26,564,400,426,-59,120,396,193,389,-129,206,181,87,-5,-12,-81,-70,212,123,-226,-28,129,278,-46,115,-416,-308,-53
101041,596,-66,250,53,-17,491,269,371,-134,28,300,101,306,-208,155,99,-4,-110,-77,-173,-164,128,-14,-337,-121,19,126,-145,-2,-544,-411,-154
101042,561,-88,247,37,-15,472,160,332,-164,39,284,102,275,-218,146,120,72,-148,-113,-181,-183,72,-3,-335,-130,-17,4,-73,10,-540,-436,-123
101043,580,-49,276,82,-15,559,125,390,-105,94,325,167,351,-163,205,215,195,-59,-59,-100,-126,151,124,-235,-51,50,83,154,117,-458,-399,-153
101044,683,67,307,182,-30,642,291,503,-4,176,524,281,444,-56,330,72,305,40,27,-5,-42,236,253,-120,51,162,234,270,246,-318,-254,-29
101045,729,149,374,281,-18,762,367,637,103,289,587,375,543,34,446,119,378,125,130,93,65,372,346,-50,147,249,325,305,331,-184,-109,231
101046,685,93,423,343,-48,830,462,680,146,344,615,518,579,57,478,170,442,198,153,113,77,318,391,-12,179,264,328,351,375,-135,-55,240
101047,781,71,392,408,-63,775,550,771,157,309,642,528,601,38,462,197,388,208,142,97,94,296,356,-24,163,277,362,241,351,-161,-81,132
101048,795,86,388,383,-54,745,501,728,121,288,618,374,552,4,457,204,341,138,115,62,79,337,300,-67,117,231,346,203,311,-207,-124,170
101049,743,78,334,261,-34,614,392,574,23,200,453,286,440,-92,352,139,300,32,4,-39,-33,228,213,-171,-2,77,177,102,134,-429,-372,-42
101050,709,74,261,140,-17,522,335,434,-60,101,330,206,337,-177,268,61,216,-55,-84,-119,-109,181,132,-271,-100,0,112,23,48,-505,-472,-196
101051,634,12,248,56,-13,423,322,368,-141,6,277,161,262,-249,193,-14,102,-125,-176,-221,-186,39,37,-367,-184,-66,51,-99,-59,-567,-486,-187
101052,645,42,283,63,-9,440,323,335,-134,-2,318,184,287,-239,174,16,36,-132,-170,-200,-176,53,18,-370,-188,-46,120,-157,-95,-568,-475,-179
101053,655,116,369,100,-17,495,415,399,-92,61,397,264,348,-172,228,79,73,-71,-85,-125,-112,148,73,-312,-103,44,233,-65,3,-485,-412,-186
101054,744,136,483,141,-32,598,517,509,-10,161,485,425,434,-76,338,202,215,64,42,10,11,309,214,-166,48,171,331,59,116,-334,-206,79
101055,794,161,562,216,-63,687,587,587,68,239,591,448,538,44,419,320,299,163,147,110,123,344,311,-46,177,269,425,135,237,-200,-78,241
101056,918,235,646,305,-45,764,634,653,151,284,664,439,600,123,492,349,349,203,225,166,169,364,364,28,257,327,450,229,340,-135,-42,157
101057,960,283,663,314,-45,783,651,657,167,308,684,483,609,117,472,394,345,203,234,183,161,427,338,51,280,352,422,312,382,-104,-11,153
101058,903,239,574,279,-45,740,552,638,145,279,685,446,586,89,466,432,281,161,205,164,129,260,296,16,254,326,343,288,354,-161,-46,129
101059,784,152,456,199,-30,651,434,529,47,191,622,313,497,9,352,366,113,57,120,96,66,172,175,-82,167,256,266,91,194,-276,-168,24
101060,641,66,315,92,-37,526,294,412,-60,79,507,149,382,-95,215,210,-9,-73,5,-23,-66,131,33,-189,53,135,137,-61,71,-416,-325,-91
101061,562,-54,261,6,-24,471,111,328,-125,23,425,110,299,-163,175,61,-70,-127,-48,-106,-183,42,22,-252,1,51,26,-93,48,-463,-355,-116
101062,564,-105,238,12,-4,502,93,343,-106,23,407,168,323,-137,188,78,-60,-117,-28,-91,-157,-94,43,-248,6,50,48,-73,64,-456,-355,-155
101063,614,-41,274,78,-13,536,109,397,-45,95,506,135,362,-63,240,28,-7,-73,31,-38,-122,-74,71,-180,63,96,111,0,117,-388,-281,-78
101064,675,9,355,156,-26,613,186,468,19,194,565,153,427,-2,306,-18,24,-21,95,21,-100,-46,93,-139,117,144,134,37,154,-348,-253,-33
101065,749,64,401,235,-32,700,308,537,105,253,613,233,494,73,383,108,115,54,175,94,-23,31,152,-76,186,215,196,55,208,-264,-180,-1
101066,831,120,442,318,-29,746,391,603,181,328,667,327,580,163,467,274,156,147,270,195,81,196,236,27,293,367,376,106,332,-77,114,320
101067,870,127,450,338,-37,752,385,606,225,340,638,322,605,174,518,436,166,137,268,213,163,338,243,69,315,385,469,157,364,-62,139,445
101068,809,9,425,308,-41,737,431,560,177,320,606,264,581,134,498,431,184,87,219,173,144,291,254,23,247,298,386,157,292,-188,-117,160
101069,733,-43,328,247,-20,636,394,500,82,225,451,213,510,33,382,265,105,38,136,67,12,47,225,-58,156,179,225,178,212,-315,-314,-72
101070,641,-73,247,146,-16,526,276,360,-32,118,391,150,384,-90,279,71,-47,-71,18,-60,-125,142,76,-203,27,69,100,187,149,-393,-406,-170
101071,512,-123,155,61,-34,433,187,305,-116,34,363,89,291,-189,203,-153,-113,-156,-74,-160,-210,38,-11,-322,-67,-34,0,51,68,-477,-481,-284
101072,522,-181,112,68,-49,473,179,351,-103,44,377,98,303,-181,241,-128,-82,-165,-81,-128,-161,-22,-5,-319,-59,0,87,-74,53,-455,-416,-152
101073,550,-78,200,122,-26,539,230,360,-41,97,452,150,382,-105,311,-50,-21,-84,-1,-30,-89,191,72,-237,18,112,270,84,130,-357,-272,-40
101074,561,-4,241,232,-32,615,297,451,54,178,558,172,476,-14,403,141,20,15,103,103,62,301,170,-93,143,253,461,365,310,-217,-126,169
101075,735,77,321,283,-54,703,341,532,120,269,679,255,544,77,488,308,161,105,186,179,143,403,247,1,227,337,484,440,395,-160,-107,123
101076,851,124,487,357,-49,748,457,606,194,308,650,383,635,155,511,307,220,185,257,221,167,494,343,47,282,383,436,354,382,-158,-74,164
101077,849,116,518,356,-34,770,458,642,228,336,694,414,654,148,532,380,249,199,280,231,209,458,310,26,294,388,524,110,299,-209,-51,267
101078,856,65,431,317,-35,743,319,598,187,314,707,361,634,141,508,320,195,189,267,232,210,511,296,20,289,402,609,51,242,-259,-60,277
101079,707,0,283,241,-16,639,224,439,110,224,627,270,526,74,426,230,-24,69,188,141,123,416,198,-50,187,305,507,48,182,-328,-141,226
101080,567,-94,118,110,-37,526,151,377,1,100,464,188,406,-56,319,136,-118,-56,63,8,-16,161,91,-185,48,159,345,-95,69,-439,-266,91
101081,503,-135,56,35,-29,460,194,270,-95,27,449,64,314,-148,246,-18,-254,-148,-57,-104,-121,73,-28,-313,-49,50,237,-264,-77,-560,-414,-68
101082,527,-132,118,26,-15,459,273,201,-111,31,389,30,283,-141,214,22,-247,-167,-85,-96,-110,60,-21,-310,-55,68,227,-288,-81,-590,-483,-134
101083,563,-95,198,57,-26,462,332,273,-71,67,346,16,317,-83,250,86,-133,-120,-50,-45,-34,120,14,-222,0,150,353,-119,5,-506,-405,-163
101084,675,-29,280,149,-51,554,410,352,-1,143,402,62,381,-31,338,119,-5,-79,37,39,49,281,-20,-167,94,233,400,26,102,-392,-257,16
101085,738,62,365,226,-49,637,409,405,70,225,469,186,457,38,382,196,104,-17,110,101,81,299,81,-91,171,282,379,121,187,-307,-123,192
101086,724,70,424,279,-50,697,368,468,113,280,554,243,522,91,419,302,204,50,162,138,96,344,197,-17,212,314,380,181,248,-237,-86,207
101087,708,71,427,284,-32,761,374,455,132,319,656,200,529,132,470,409,238,58,215,160,117,377,207,4,239,335,405,205,274,-206,-125,157
101088,677,70,422,259,-41,683,325,448,111,304,604,179,478,93,429,226,139,33,138,116,55,272,155,-43,178,268,364,149,230,-269,-192,57
101089,619,12,318,178,-27,604,208,381,5,191,462,113,415,-7,317,-69,54,-43,44,7,-87,77,87,-129,75,141,177,93,161,-362,-242,19
101090,552,-124,192,84,-41,483,101,284,-74,111,319,9,311,-85,234,-166,-51,-132,-19,-72,-185,30,24,-226,-18,58,37,-61,65,-463,-344,-110
101091,483,-276,107,-23,-23,398,66,177,-145,30,228,-15,259,-169,157,-79,-122,-166,-96,-136,-246,0,-27,-301,-97,7,-5,-178,3,-527,-423,-164
101092,483,-248,91,-32,-41,424,95,235,-147,18,146,3,287,-167,142,9,-83,-124,-88,-136,-259,16,9,-286,-77,13,60,-181,21,-515,-415,-158
101093,542,-144,182,31,-38,509,224,338,-83,94,267,127,375,-98,225,91,-16,-47,-20,-79,-163,98,31,-197,-1,91,183,-69,109,-437,-351,-124
101094,629,-12,364,135,-33,565,286,400,5,162,358,216,461,-7,297,34,49,18,66,18,-60,202,109,-114,88,191,255,89,213,-307,-206,37
101095,732,130,500,250,-25,642,348,535,124,246,438,332,566,70,374,76,170,123,176,111,6,207,241,-29,189,271,318,185,314,-223,-149,51
101096,783,102,534,324,-39,685,338,663,197,294,480,407,636,126,429,121,202,213,253,158,47,256,311,66,251,322,382,249,384,-168,-103,41
101097,790,140,531,339,-39,698,388,637,213,291,515,440,662,155,449,140,220,218,276,163,52,318,355,95,281,328,345,277,415,-138,-59,125
101098,747,27,509,294,-51,658,385,580,172,257,503,465,612,117,411,105,249,181,240,130,15,279,319,61,259,281,296,257,373,-175,-83,113
101099,702,-89,391,173,-57,548,224,504,68,153,414,346,524,12,297,26,182,121,135,19,-93,101,247,-15,142,168,174,244,301,-245,-165,21
101100,591,-175,262,88,-23,438,84,386,-29,57,290,152,421,-72,196,-107,-29,23,51,-68,-181,37,128,-152,26,69,83,195,216,-338,-285,-69
101101,463,-249,197,4,-24,367,21,311,-115,-20,194,55,330,-165,115,-213,-161,-131,-75,-175,-271,-64,-30,-288,-75,-22,11,-12,55,-493,-378,-206
101102,407,-295,181,-2,-20,364,22,310,-131,-26,220,56,308,-176,133,-193,-169,-158,-92,-184,-253,-192,-74,-300,-80,2,0,-124,20,-439,-293,-195
101103,476,-301,197,41,-46,424,64,346,-71,48,281,130,364,-93,198,-145,-151,-67,-8,-90,-170,-224,104,-197,29,88,56,155,206,-231,-123,-27
101104,578,-221,281,144,-42,509,141,472,27,154,358,240,460,5,274,-88,-48,36,79,-11,-122,-125,205,-135,92,127,58,277,286,-293,-297,-159
101105,643,-110,386,239,-50,610,157,573,106,220,441,339,552,61,339,-80,56,88,144,28,-106,3,165,-125,102,122,12,171,212,-463,-547,-413
101106,713,-3,469,306,-46,722,257,642,181,276,515,428,617,132,415,66,84,141,216,105,9,158,174,-71,169,197,169,-57,191,-382,-354,-139
101107,807,53,550,343,-36,740,343,659,184,297,543,480,649,144,455,187,154,167,229,127,37,20,197,-65,194,224,252,-153,143,-401,-307,-50
101108,785,37,498,315,-35,704,324,625,168,270,511,487,641,127,460,240,125,151,180,103,44,-14,205,-54,171,225,292,-68,122,-422,-317,-55
101109,650,-61,362,197,-39,594,338,518,45,159,450,352,519,13,344,156,0,26,65,-3,-43,41,52,-184,56,156,230,-179,18,-499,-378,-118
101110,524,-156,258,78,-49,499,234,426,-62,66,403,198,405,-80,235,29,-49,-66,-20,-110,-152,27,-21,-282,-41,53,166,-262,-60,-576,-441,-190
101111,485,-173,160,-12,-35,397,154,320,-142,-20,291,127,312,-163,151,-104,-144,-175,-114,-179,-213,5,-90,-368,-117,-55,78,-235,-84,-613,-499,-214
101112,516,-182,152,27,-42,390,159,332,-127,-15,321,154,320,-158,155,-122,-159,-195,-105,-156,-205,5,-86,-386,-106,-39,94,-213,-70,-607,-485,-259
101113,564,-178,160,92,-34,426,147,406,-73,46,334,213,396,-95,208,-66,-100,-104,-53,-116,-171,113,-40,-349,-62,15,107,-206,-38,-550,-411,-164
101114,660,-101,238,155,-40,524,221,432,14,125,404,166,453,-34,283,33,-73,-49,23,-53,-90,194,63,-296,-8,82,135,-129,-13,-471,-325,-51
101115,746,42,351,218,-51,625,279,489,85,204,497,195,499,24,328,98,51,-5,68,17,-6,83,160,-219,59,162,242,-64,71,-406,-211,78
101116,817,161,419,301,-45,725,353,525,151,271,599,259,553,97,423,185,77,43,116,79,54,-39,218,-161,115,227,347,97,173,-324,-163,116
101117,835,192,467,302,-24,774,472,482,156,316,630,244,545,105,498,324,22,14,119,112,120,31,121,-184,105,264,391,129,158,-360,-244,-49
