,Fp1,Fp2,F7,F3,Fz,F4,F8,FC5,FC1,FC2,FC6,T7,C3,Cz,C4,T8,TP9,CP5,CP1,CP2,CP6,TP10,P7,P3,Pz,P4,P8,PO9,O1,Oz,O2,PO10
189186,326,495,182,173,-81,141,9,70,4,-269,32,-251,180,35,44,-8,-237,-147,-34,90,-102,14,174,164,0,346,75,-294,103,-132,-196,-46
189187,376,500,211,181,-79,115,13,84,9,-280,26,-187,221,39,36,15,-210,-82,-9,108,-94,26,227,209,33,376,93,-220,128,-119,-166,-10
189188,423,529,244,208,-72,126,31,116,30,-284,46,-120,231,75,66,65,-163,-40,25,160,-32,56,275,247,69,426,192,-135,208,-19,-81,74
189189,457,499,257,221,-78,117,13,132,26,-290,43,-111,254,73,71,66,-153,-26,36,154,-33,69,313,254,83,421,202,-104,229,0,-60,83
189190,434,482,252,215,-92,94,-9,148,22,-299,28,-116,269,71,55,58,-182,-25,40,140,-40,80,289,272,81,410,169,-162,225,-13,-83,83
189191,358,450,219,178,-103,69,-32,153,30,-307,-14,-140,268,80,34,23,-174,0,55,152,-69,67,291,294,96,406,178,-162,244,1,-67,51
189192,346,417,182,162,-123,45,-66,138,29,-308,-48,-144,266,92,10,-5,-126,32,60,136,-91,40,347,320,110,427,183,-90,281,38,-37,19
189193,375,415,254,179,-119,50,-53,122,26,-312,-33,-95,284,78,22,16,-98,31,76,118,-85,52,371,332,101,417,200,-114,303,46,-6,91
189194,396,423,273,190,-114,56,-62,137,33,-316,-13,-95,290,77,31,10,-92,29,57,124,-72,40,355,343,82,419,207,-94,323,53,-3,152
189195,358,403,251,166,-107,42,-66,120,22,-328,-9,-135,277,72,9,-31,-64,31,45,115,-98,-29,346,323,80,394,153,-11,304,40,-36,130
189196,358,435,236,185,-85,58,-47,88,26,-316,4,-182,271,49,3,-62,-102,17,38,94,-120,-42,327,305,61,354,122,-24,251,-29,-95,52
189197,317,422,207,164,-88,74,-77,52,1,-292,-8,-207,244,56,0,-66,-162,-16,33,79,-126,-55,285,287,41,350,129,-54,240,-42,-127,39
189198,292,385,177,134,-98,68,-78,43,3,-297,-57,-235,236,74,13,-80,-232,-90,24,78,-135,-92,230,253,19,331,96,-188,203,-98,-171,5
189199,288,370,126,141,-118,64,-69,49,9,-297,-68,-271,229,52,9,-86,-300,-118,9,93,-152,-55,179,212,1,316,62,-310,135,-150,-207,-38
189200,240,343,103,100,-150,52,-108,43,11,-296,-47,-247,233,58,-2,-97,-261,-98,-4,86,-195,-99,256,200,-5,288,26,-289,113,-159,-226,-63
189201,241,339,117,78,-139,28,-130,46,-7,-323,-70,-230,225,46,-27,-168,-249,-103,-17,51,-206,-167,303,201,-31,239,-24,-321,95,-184,-276,-119
189202,244,308,102,106,-145,21,-120,52,7,-316,-75,-233,214,72,-1,-193,-280,-72,-10,71,-182,-142,271,235,-8,270,6,-218,139,-161,-270,-97
189203,227,253,110,132,-147,15,-114,66,16,-321,-89,-274,224,68,-1,-195,-266,-52,-6,58,-199,-115,246,229,1,264,-5,-191,161,-164,-272,-100
189204,281,287,145,161,-120,-45,-99,73,30,-319,-82,-323,226,57,-18,-141,-283,-97,-18,54,-187,-87,199,205,-11,267,-11,-208,126,-180,-278,-103
189205,293,331,147,158,-126,-25,-95,49,7,-308,-41,-273,206,53,-11,-73,-273,-113,-25,48,-162,-84,165,179,-28,260,7,-264,92,-187,-291,-95
189206,311,420,164,140,-114,47,-65,45,6,-292,-3,-219,199,57,-4,-49,-249,-110,-37,53,-161,-80,178,177,-25,272,25,-263,87,-191,-257,-81
189207,287,442,161,148,-110,63,-62,34,15,-277,-12,-193,177,64,-4,-54,-243,-125,-40,47,-167,-51,192,182,-41,274,27,-257,72,-199,-264,-100
189208,302,422,130,125,-125,54,-94,10,-24,-284,-20,-241,172,51,-14,-62,-283,-148,-59,21,-202,-71,154,160,-54,247,-12,-248,74,-192,-304,-150
189209,276,365,112,101,-133,13,-136,0,-39,-293,-74,-278,175,61,-24,-90,-283,-145,-73,23,-229,-113,158,157,-48,239,-37,-211,108,-156,-307,-156
189210,255,368,159,111,-138,-85,-145,34,-14,-289,-96,-217,208,67,-8,-69,-227,-99,-34,44,-194,-123,231,187,-35,265,-1,-150,149,-101,-266,-108
189211,244,321,145,88,-177,-45,-122,32,-18,-313,-107,-212,200,45,-34,-98,-210,-90,-35,34,-209,-142,231,195,-28,261,2,-158,167,-93,-254,-114
189212,247,349,150,80,-178,-5,-86,29,-24,-306,-95,-197,208,58,-13,-34,-183,-63,13,64,-168,-65,279,249,4,295,41,-64,273,7,-181,-21
189213,273,417,176,126,-136,8,-28,67,2,-271,-42,-144,241,64,38,2,-102,3,42,103,-108,24,368,309,58,362,139,43,354,79,-95,46
189214,267,425,206,144,-121,28,-27,85,10,-288,-16,-129,239,69,39,-7,-87,8,37,104,-93,29,373,327,52,365,158,21,329,43,-86,47
189215,276,403,208,112,-137,22,-37,58,-12,-293,-57,-161,218,49,5,-15,-91,-17,8,62,-126,1,334,289,14,341,130,-34,259,3,-130,32
189216,229,356,156,113,-152,0,-91,49,-27,-293,-69,-175,197,38,2,-25,-121,-43,-11,74,-123,12,329,278,6,357,135,-66,270,21,-109,73
189217,224,369,141,111,-128,34,-96,37,-21,-254,-32,-207,182,56,19,-18,-192,-43,0,80,-100,19,287,276,17,374,169,-103,260,4,-97,98
189218,238,358,107,108,-136,37,-102,23,-29,-272,-42,-252,172,53,-15,-47,-264,-89,-26,59,-148,-16,198,222,10,341,131,-289,178,-71,-157,17
189219,239,379,123,115,-144,66,-83,30,-13,-277,-35,-267,173,56,-10,-36,-217,-88,-13,77,-130,-30,221,221,22,358,150,-216,245,1,-99,54
189220,231,355,141,100,-143,55,-99,17,-18,-283,-28,-273,174,41,1,-53,-213,-68,-17,80,-118,-74,251,266,27,393,171,-109,306,41,-39,74
189221,218,315,123,107,-144,36,-89,31,2,-287,-38,-246,186,51,-5,-52,-209,-67,8,83,-111,-122,269,280,54,384,171,-106,310,44,-35,49
189222,211,324,85,98,-160,55,-79,37,15,-307,-43,-251,184,45,-21,-60,-242,-104,-4,68,-131,-101,259,257,32,358,123,-152,254,-7,-75,58
189223,267,309,97,97,-164,37,-96,47,11,-308,-58,-212,217,60,-12,-139,-185,-61,0,83,-133,-38,301,291,65,382,137,-81,319,40,-42,74
189224,245,267,96,133,-181,-26,-125,89,10,-310,-94,-205,239,47,-41,-238,-95,-20,31,65,-139,-63,334,322,60,386,138,-71,351,43,-64,29
189225,202,237,74,144,-175,-95,-168,84,20,-315,-118,-275,248,42,-29,-221,-131,-30,40,76,-129,-58,277,314,59,377,132,-167,298,15,-88,-17
189226,173,275,91,153,-154,-42,-158,75,33,-308,-82,-266,260,58,-7,-131,-120,-34,55,86,-117,-34,280,318,82,397,170,-151,302,48,-70,21
189227,204,283,111,144,-147,-1,-160,68,9,-312,-76,-260,226,55,-32,-61,-136,-69,19,65,-131,-59,290,290,43,376,171,-147,281,17,-90,51
189228,285,337,137,150,-127,17,-95,68,19,-295,-66,-243,237,59,-24,-6,-165,-81,17,69,-112,-19,298,273,47,362,141,-141,271,-2,-96,64
189229,320,405,128,167,-103,64,-46,70,50,-277,-27,-200,255,65,17,36,-176,-46,40,85,-106,40,304,273,65,378,163,-128,250,-3,-106,95
189230,295,436,144,189,-113,40,-58,71,38,-276,-39,-194,240,53,-2,10,-211,-37,19,86,-128,-31,283,257,29,356,124,-167,248,-23,-139,26
189231,304,447,157,168,-106,48,-85,75,7,-269,-33,-199,216,28,-13,-11,-204,-44,0,35,-141,-35,296,252,13,326,87,-153,239,-44,-162,-24
189232,317,422,162,175,-93,65,-77,74,5,-290,-29,-192,225,43,-5,-22,-159,-38,11,51,-145,-36,320,264,20,328,107,-83,269,9,-139,57
189233,376,439,223,198,-86,96,-36,116,12,-269,-16,-162,227,20,1,-21,-134,-25,5,60,-139,-55,319,259,-1,322,109,-122,233,-25,-153,42
189234,421,476,241,221,-67,105,-15,156,0,-244,8,-111,252,27,17,-21,-88,-8,2,58,-138,-3,359,274,18,323,98,-44,272,-27,-174,24
189235,419,497,263,233,-47,133,21,174,14,-231,37,-75,269,38,32,1,-74,10,0,50,-125,55,354,295,44,325,115,-85,239,-46,-198,22
189236,393,508,258,214,-65,133,10,169,18,-263,31,-63,257,17,25,-12,-64,26,9,64,-137,48,355,290,33,307,101,-104,236,-55,-208,7
189237,378,468,236,198,-57,135,13,150,13,-262,35,-90,257,12,15,-18,-47,26,4,62,-122,56,385,302,32,309,103,-52,277,-11,-213,5
189238,346,450,235,182,-65,116,1,130,5,-238,26,-94,240,21,8,-38,-77,8,6,44,-124,14,363,301,36,309,129,-43,292,-21,-225,23
189239,355,428,222,180,-57,122,-19,142,22,-225,39,-105,246,54,12,-25,-72,4,20,76,-118,11,372,301,39,342,137,-2,321,-13,-198,53
189240,331,369,170,136,-84,102,-74,77,3,-254,13,-162,220,38,-12,-46,-123,8,-8,55,-166,-18,351,293,-3,302,83,-36,282,-61,-255,-38
189241,298,374,145,128,-90,-12,-84,31,-13,-274,4,-196,205,31,-32,-82,-186,-54,-44,40,-181,-45,274,251,-28,267,50,-286,146,-161,-343,-90
189242,276,364,156,125,-131,25,-102,38,-3,-270,-53,-195,205,49,-10,-68,-189,-50,-35,29,-176,-50,270,243,-22,270,46,-255,127,-165,-325,-78
189243,233,369,131,128,-142,57,-106,35,10,-281,-106,-206,227,54,-35,-74,-154,-19,-19,33,-195,-114,351,245,-10,259,21,-171,151,-151,-324,-104
189244,220,351,123,154,-129,35,-108,28,14,-261,-87,-200,228,46,-38,-99,-140,-3,0,52,-208,-109,394,265,-10,245,8,-200,175,-158,-309,-83
189245,236,320,94,126,-132,9,-128,24,17,-291,-89,-213,226,37,-33,-126,-186,-18,-4,27,-210,-105,343,288,-13,256,43,-141,202,-130,-302,-84
189246,195,334,65,113,-119,13,-124,16,10,-299,-111,-242,211,48,-50,-152,-243,-50,-18,17,-215,-122,284,280,-10,268,47,-155,198,-140,-295,-94
189247,168,339,63,131,-127,26,-122,13,-3,-299,-125,-249,227,29,-46,-145,-257,-51,0,23,-208,-114,278,272,-6,274,61,-123,214,-146,-281,-46
189248,187,340,83,142,-144,22,-130,39,-8,-316,-149,-230,227,40,-45,-184,-231,-30,-1,28,-198,-118,276,283,-8,281,76,-86,228,-121,-288,-56
189249,258,376,146,186,-109,47,-104,101,23,-280,-104,-204,266,66,-26,-146,-208,0,20,64,-173,-71,296,314,19,298,85,-117,224,-117,-281,-47
189250,280,402,149,159,-110,-9,-104,129,14,-277,-66,-184,282,77,-10,-110,-170,-3,40,77,-161,-51,294,319,25,298,96,-201,187,-118,-280,-27
189251,258,359,125,143,-134,42,-137,88,4,-287,-90,-226,245,60,-25,-134,-199,-38,14,55,-167,-72,254,281,12,294,81,-252,152,-144,-278,-18
189252,258,344,122,188,-105,69,-142,97,34,-273,-117,-211,260,74,-35,-150,-224,-29,20,70,-162,-126,246,290,12,284,100,-258,150,-148,-274,-10
189253,270,355,116,158,-122,29,-158,97,21,-289,-135,-203,256,57,-21,-155,-239,-29,4,44,-170,-132,217,264,-20,284,97,-259,126,-169,-255,-2
189254,298,346,106,170,-103,33,-177,74,9,-308,-141,-220,245,43,-30,-170,-237,-42,8,36,-166,-134,227,252,-13,280,84,-214,131,-166,-271,-6
189255,269,347,79,165,-103,38,-184,29,17,-302,-144,-256,232,58,-28,-177,-159,-73,10,58,-158,-125,270,259,-14,311,97,-122,168,-134,-253,0
189256,261,308,63,154,-104,32,-188,46,19,-292,-143,-281,228,67,-19,-177,-92,-49,14,75,-152,-110,299,281,-4,348,125,-23,229,-78,-200,24
189257,247,315,74,173,-119,22,-199,44,18,-313,-129,-295,223,48,-11,-189,-211,-69,0,64,-153,-96,206,241,6,339,138,-224,148,-120,-192,17
189258,255,335,78,167,-114,15,-185,44,17,-299,-108,-297,211,45,-10,-208,-272,-118,-18,62,-149,-71,122,198,-12,339,171,-385,71,-156,-204,-20
189259,242,319,79,140,-125,34,-161,31,12,-279,-48,-279,219,53,2,-198,-297,-102,2,69,-149,-43,160,216,-24,345,198,-269,108,-130,-217,-2
189260,205,245,30,119,-144,7,-151,18,-5,-303,-69,-275,211,44,7,-152,-324,-102,-7,70,-143,-70,171,191,-21,316,172,-323,83,-152,-230,31
189261,229,259,33,121,-136,17,-142,-5,11,-289,-95,-299,215,62,12,-110,-312,-90,-17,83,-143,-130,186,215,-8,324,156,-300,117,-105,-216,31
189262,237,303,41,133,-133,48,-154,4,3,-287,-61,-303,219,50,10,-100,-298,-79,-23,74,-146,-50,180,233,-11,321,123,-274,148,-85,-218,34
189263,236,370,75,157,-105,61,-107,13,2,-285,-59,-278,222,34,-1,-106,-288,-87,-12,70,-149,-49,175,222,-3,305,120,-294,130,-99,-240,2
189264,241,406,87,169,-111,80,-85,41,18,-279,-77,-263,223,35,-2,-95,-290,-81,-6,84,-140,-46,203,230,-3,323,128,-231,165,-95,-222,5
189265,272,419,118,175,-95,81,-81,74,26,-267,-59,-240,258,72,17,-41,-259,-47,30,114,-115,17,227,258,32,348,156,-199,193,-51,-201,79
189266,305,399,115,146,-87,91,-70,33,17,-264,-33,-244,261,96,44,-53,-266,-46,27,126,-117,57,225,267,39,342,161,-194,155,-63,-210,53
189267,269,368,61,107,-105,48,-109,-8,-6,-290,-56,-258,226,81,5,-69,-296,-69,17,103,-126,20,187,250,20,329,141,-215,138,-91,-228,31
189268,248,367,50,134,-109,45,-107,10,-10,-272,-50,-253,222,73,9,-64,-291,-110,11,103,-129,-8,173,233,22,318,102,-270,92,-122,-261,-49
189269,236,399,76,145,-95,69,-97,24,-10,-265,-30,-302,203,79,26,-72,-305,-122,10,129,-130,-60,173,226,25,344,99,-248,118,-111,-244,-37
189270,241,375,78,134,-101,8,-141,34,6,-277,-65,-278,193,82,12,-91,-249,-110,6,105,-142,-110,201,223,16,325,63,-194,144,-96,-255,-41
189271,252,327,66,121,-110,45,-132,36,-1,-262,-41,-281,202,80,22,-74,-264,-112,1,94,-145,-61,186,219,16,325,70,-220,138,-104,-232,-36
189272,229,274,45,99,-143,84,-122,17,-21,-264,-15,-286,204,65,19,-70,-268,-105,-8,89,-156,-29,208,205,8,316,77,-172,145,-84,-218,-9
189273,244,301,46,110,-126,107,-114,9,-11,-246,-23,-285,203,79,12,-75,-242,-105,9,86,-140,2,215,211,20,324,103,-176,148,-82,-212,33
189274,231,340,38,92,-131,99,-122,-37,-40,-268,-24,-266,195,65,11,-70,-235,-125,0,75,-176,-54,194,206,-1,296,67,-189,115,-139,-254,-43
189275,204,356,29,75,-135,85,-114,-41,-20,-269,-27,-261,193,73,1,-74,-237,-124,-18,45,-182,-75,195,195,-18,279,44,-161,100,-163,-291,-89
189276,205,367,39,108,-116,84,-84,-29,-3,-258,-22,-283,185,96,7,-88,-257,-144,-16,53,-178,-63,162,195,-5,275,46,-172,95,-141,-286,-79
189277,178,347,22,124,-122,51,-96,-42,-19,-273,-52,-321,175,74,4,-109,-268,-152,-40,40,-197,-71,117,153,-26,255,51,-260,62,-153,-289,-68
189278,197,390,53,121,-136,67,-90,-14,3,-260,-54,-333,182,75,5,-96,-323,-151,-34,49,-180,-68,90,145,-35,250,30,-345,12,-194,-294,-86
189279,190,367,61,121,-140,76,-94,-9,0,-269,-50,-353,204,78,7,-105,-346,-151,-14,63,-184,-96,114,181,-10,262,21,-308,40,-187,-285,-87
189280,197,341,68,119,-148,66,-92,11,24,-268,-60,-309,224,94,-14,-107,-327,-118,-4,64,-181,-79,123,202,14,287,35,-331,55,-168,-278,-78
189281,203,346,69,119,-159,47,-89,24,28,-281,-51,-314,230,95,-7,-153,-288,-104,11,66,-198,-85,143,206,8,296,61,-297,84,-166,-270,-47
189282,253,352,90,121,-161,46,-91,52,25,-275,-42,-323,235,92,15,-197,-271,-111,17,57,-193,-104,120,202,9,284,56,-281,68,-170,-304,-54
189283,242,297,76,74,-181,16,-113,38,13,-300,-82,-338,220,60,-29,-216,-342,-128,-16,21,-216,-110,79,169,-34,238,7,-339,-10,-235,-375,-161
189284,217,277,93,133,-149,-57,-105,76,41,-295,-61,-308,250,89,-10,-173,-331,-91,15,46,-194,-146,147,181,-21,277,22,-245,57,-201,-334,-133
189285,208,219,76,115,-174,-29,-119,63,35,-305,-84,-305,247,80,-27,-183,-293,-94,1,37,-225,-175,170,204,-40,262,-3,-124,96,-174,-355,-139
189286,181,233,50,112,-186,-15,-143,47,21,-313,-112,-322,226,71,-55,-182,-292,-109,-24,10,-251,-160,168,183,-59,235,-18,-66,124,-178,-350,-177
189287,171,265,61,147,-180,-30,-166,46,3,-327,-115,-317,216,49,-68,-169,-307,-126,-35,-19,-263,-160,157,163,-86,215,-30,-127,114,-187,-377,-181
189288,256,331,147,197,-139,34,-92,77,35,-308,-83,-263,239,70,-26,-132,-265,-124,-38,9,-237,-145,138,158,-77,226,-7,-314,57,-201,-393,-159
189289,288,389,180,194,-133,32,-64,83,33,-307,-68,-234,237,42,-25,-73,-233,-132,-38,24,-204,-193,151,135,-77,234,30,-433,-25,-252,-378,-162
189290,320,381,167,176,-140,34,-73,74,22,-274,-46,-225,237,60,1,-54,-188,-95,-18,44,-170,-154,239,187,-40,282,67,-264,69,-174,-307,-86
189291,315,402,161,150,-147,31,-61,62,3,-292,-53,-235,221,41,2,-87,-187,-91,-18,37,-174,-109,251,200,-38,309,64,-186,106,-148,-276,-86
189292,324,456,202,159,-116,-10,-51,68,8,-294,-27,-204,223,51,4,-72,-158,-84,-8,48,-152,-123,279,207,-38,330,73,-99,145,-104,-241,-68
189293,339,415,234,166,-111,20,-47,102,0,-282,-17,-188,225,54,25,-63,-156,-68,-19,57,-130,-87,276,234,-16,330,110,-92,169,-89,-219,-65
189294,386,437,271,199,-95,96,7,131,17,-257,22,-155,242,59,57,-16,-169,-60,0,85,-90,-7,242,213,-7,367,169,-236,101,-111,-219,-33
189295,412,436,279,211,-91,84,32,123,12,-263,54,-140,261,57,73,-31,-142,-56,-5,85,-75,30,269,234,2,385,213,-197,127,-74,-193,57
189296,340,362,279,228,-94,96,30,122,-2,-261,81,-142,251,67,75,-89,-122,-52,-3,82,-90,8,281,244,21,381,181,-173,149,-44,-179,105
189297,363,398,286,249,-75,104,67,135,-6,-243,110,-122,233,73,95,-53,-78,-28,-3,109,-51,0,305,264,29,396,205,-113,223,0,-120,120
189298,390,428,291,206,-102,114,60,119,5,-230,90,-116,234,94,95,6,-39,-18,3,122,-41,63,340,281,45,398,212,-34,239,0,-113,146
189299,374,453,291,201,-118,107,35,135,1,-243,61,-139,244,74,87,35,-74,-39,-9,101,-65,83,317,268,38,395,208,-59,207,-8,-139,140
189300,387,473,286,206,-95,86,48,132,0,-277,70,-159,243,34,74,48,-105,-49,-20,78,-84,78,250,225,6,372,201,-161,166,-36,-163,123
189301,427,474,311,244,-90,89,52,142,17,-276,62,-145,244,29,39,55,-122,-53,-23,49,-93,103,240,217,-3,351,182,-172,147,-85,-186,112
189302,382,463,266,234,-103,97,25,149,38,-268,62,-128,246,48,31,55,-129,-43,-18,40,-100,125,234,212,-12,345,174,-173,121,-113,-206,98
189303,409,490,252,233,-81,89,26,158,30,-263,56,-105,260,34,32,17,-103,-33,-19,44,-103,85,258,215,-22,329,162,-165,105,-112,-225,52
189304,425,496,250,244,-70,99,46,147,40,-269,40,-138,258,43,24,29,-84,-26,-20,31,-100,102,264,224,-1,322,155,-100,134,-72,-227,67
189305,421,458,250,252,-70,101,53,127,39,-280,29,-183,225,34,-8,11,-102,-47,-46,23,-127,94,213,199,-30,291,135,-156,116,-94,-228,74
189306,391,428,231,241,-73,86,39,109,14,-290,-6,-190,202,4,-16,-18,-141,-90,-81,2,-168,71,179,161,-69,246,119,-169,94,-138,-256,42
189307,392,477,264,230,-76,71,44,99,28,-282,9,-186,215,12,-14,-40,-158,-107,-86,-7,-148,76,219,158,-66,231,128,-109,107,-173,-280,40
189308,378,496,253,210,-86,93,27,67,12,-282,44,-198,183,-1,-14,-127,-178,-119,-106,-32,-167,83,176,134,-103,212,93,-175,41,-230,-343,2
189309,357,487,241,226,-104,99,66,82,1,-283,41,-188,188,13,-1,-128,-147,-116,-103,-37,-192,42,167,119,-103,199,65,-227,29,-220,-349,-63
189310,395,511,265,204,-92,140,98,123,21,-287,49,-157,209,19,11,-53,-116,-105,-71,-7,-171,1,202,142,-95,238,61,-169,65,-180,-294,-54
189311,434,558,284,200,-77,177,138,148,26,-266,74,-145,219,43,29,6,-121,-88,-52,16,-152,0,191,167,-59,285,67,-189,57,-166,-277,-31
189312,437,542,288,208,-74,160,146,154,25,-266,84,-157,227,42,32,24,-133,-86,-49,12,-157,0,191,178,-54,274,60,-173,62,-150,-288,-34
189313,434,522,285,212,-86,148,104,157,7,-275,68,-172,235,26,31,4,-136,-73,-54,23,-168,-1,209,185,-67,249,39,-146,74,-166,-307,-65
189314,439,532,299,239,-76,133,111,140,13,-254,100,-157,215,48,58,19,-97,-98,-27,43,-128,5,232,181,-43,263,54,-134,108,-128,-273,-52
189315,423,542,306,258,-49,76,130,127,24,-246,121,-184,226,44,59,40,-107,-93,-13,30,-131,18,199,186,-48,273,63,-151,108,-134,-269,-30
189316,419,553,321,258,-60,105,136,134,3,-259,134,-205,206,41,40,37,-173,-95,-44,17,-145,15,148,151,-68,245,31,-228,67,-198,-313,-88
189317,415,540,268,243,-74,160,136,124,-24,-255,117,-225,172,24,35,15,-210,-114,-68,6,-162,-36,104,139,-80,243,3,-263,40,-228,-354,-141
189318,408,542,268,215,-70,141,122,114,9,-263,79,-205,195,42,34,17,-221,-104,-49,21,-174,-66,142,162,-59,240,2,-234,59,-190,-325,-124
189319,424,487,293,244,-78,83,112,117,10,-261,95,-184,226,41,39,-12,-225,-78,-49,27,-173,-29,161,184,-52,258,5,-195,82,-177,-296,-118
189320,404,478,269,263,-85,65,105,147,11,-258,107,-182,239,37,39,-26,-221,-83,-48,13,-179,-61,148,172,-57,243,25,-161,86,-183,-296,-122
189321,404,480,259,250,-56,163,84,164,35,-235,81,-160,262,43,25,-52,-195,-87,-51,0,-204,-101,186,178,-72,207,10,-110,87,-185,-317,-126
189322,412,492,244,215,-63,153,71,142,28,-258,36,-178,232,52,3,-77,-259,-98,-71,-20,-214,-78,145,138,-105,219,0,-196,48,-207,-336,-138
189323,422,540,228,218,-53,173,88,123,25,-251,50,-295,194,35,2,-55,-332,-144,-94,-20,-186,-49,86,93,-116,225,20,-353,-25,-252,-365,-150
189324,444,615,257,239,-33,214,136,112,26,-223,94,-314,168,18,45,-19,-347,-183,-112,-17,-157,-35,49,85,-119,239,58,-396,-68,-281,-363,-125
189325,422,581,211,206,-34,201,125,59,-11,-245,98,-280,135,1,36,-11,-332,-208,-142,-48,-155,-44,36,38,-144,225,61,-326,-61,-267,-356,-65
189326,408,606,211,208,-31,211,156,63,-3,-235,115,-234,144,-8,45,-3,-309,-199,-152,-29,-151,11,57,42,-140,228,66,-321,-46,-265,-328,1
189327,455,625,286,232,-15,214,160,100,2,-223,114,-219,148,-4,48,5,-266,-181,-144,-12,-161,-5,97,69,-142,241,84,-303,-18,-243,-292,24
189328,488,576,309,228,-16,201,166,95,-2,-226,116,-259,161,-16,35,7,-252,-169,-133,-28,-158,-54,119,83,-139,237,87,-227,7,-250,-326,-2
189329,489,561,279,233,-32,200,144,72,1,-234,103,-260,151,-19,30,24,-237,-175,-138,-34,-147,-9,128,84,-138,249,119,-198,28,-208,-280,3
189330,489,557,282,249,-40,198,124,79,-4,-240,87,-238,155,-12,19,-9,-215,-168,-129,-21,-134,-5,131,87,-121,261,142,-171,55,-154,-248,58
189331,463,566,275,245,-29,184,114,93,-1,-254,65,-268,157,-19,2,-29,-205,-153,-120,-13,-131,5,157,98,-109,286,140,-115,87,-96,-228,87
189332,493,602,336,237,-42,169,106,117,5,-257,64,-219,164,-14,17,7,-164,-133,-106,-2,-129,37,168,118,-107,297,162,-111,85,-103,-199,87
189333,469,609,322,226,-51,81,101,114,-19,-264,51,-211,161,-9,5,-5,-128,-119,-94,3,-101,38,198,163,-100,295,177,-77,113,-82,-197,77
189334,497,575,357,249,-50,107,93,131,-25,-263,38,-209,161,-1,13,43,-107,-100,-81,12,-79,90,209,170,-67,324,200,-128,139,-75,-175,112
189335,542,554,411,279,-44,147,77,171,3,-254,43,-135,191,19,38,80,-35,-58,-56,19,-83,156,249,183,-54,321,209,-164,154,-53,-171,113
