,Fp1,Fp2,F7,F3,Fz,F4,F8,FC5,FC1,FC2,FC6,T7,C3,Cz,C4,T8,TP9,CP5,CP1,CP2,CP6,TP10,P7,P3,Pz,P4,P8,PO9,O1,Oz,O2,PO10
63074,189,236,311,-33,-52,7,330,239,-132,12,250,-16,93,-154,360,36,-9,16,-29,47,-472,155,230,68,100,293,136,18,303,92,169,94
63075,187,256,310,-48,-58,-6,327,232,-126,33,254,-11,90,-146,360,61,11,5,-29,40,-466,159,220,43,89,261,131,54,251,34,113,61
63076,181,273,295,-53,-69,-65,332,246,-127,30,258,-8,86,-150,360,69,38,6,-34,39,-472,198,221,27,86,270,143,60,186,-35,66,84
63077,142,249,266,-66,-89,-15,301,227,-147,19,227,-30,77,-168,348,30,50,7,-48,42,-502,197,261,41,87,267,140,175,254,29,110,78
63078,175,197,270,-76,-90,-14,286,236,-149,13,221,-17,87,-150,328,18,73,5,-28,23,-512,197,281,47,71,277,128,177,256,29,111,76
63079,183,199,263,-55,-81,-9,292,209,-153,0,211,-51,63,-154,305,19,30,-7,-46,2,-531,203,192,-26,44,252,112,11,193,-16,71,52
63080,221,230,268,-22,-50,19,311,206,-155,0,218,-68,45,-155,308,34,-17,-35,-59,5,-525,199,166,-46,26,228,95,-29,194,-38,77,34
63081,244,231,299,-7,-44,22,304,226,-172,7,201,-54,48,-170,312,17,33,-18,-84,-10,-532,183,225,-5,35,242,85,155,262,-8,72,55
63082,258,311,345,5,-26,27,320,229,-165,8,207,-59,21,-188,301,5,51,-41,-87,-16,-544,203,191,-28,11,223,98,84,194,-35,55,54
63083,283,368,384,18,-16,47,354,278,-155,21,239,-14,39,-180,323,44,87,0,-51,21,-508,235,209,12,42,255,139,135,261,43,124,97
63084,282,374,372,39,-8,89,350,314,-133,42,266,-18,66,-159,335,70,57,-7,-44,30,-482,231,206,9,81,300,177,101,229,43,164,152
63085,276,356,368,56,-28,61,334,304,-137,18,260,-53,72,-176,325,54,28,-52,-65,6,-489,234,155,-31,57,306,183,-56,147,-16,123,113
63086,231,307,336,51,-32,26,297,288,-134,-6,210,-22,58,-190,306,12,26,-44,-85,-5,-512,208,164,-42,38,249,120,-39,166,-39,64,77
63087,176,278,302,23,-41,-15,282,280,-138,-25,180,-9,51,-193,272,-19,26,-39,-91,-14,-546,164,201,-21,29,218,87,70,203,-22,40,64
63088,142,332,297,1,-29,-6,312,291,-115,7,213,-16,66,-169,286,4,52,-22,-67,1,-541,187,209,-26,55,223,95,57,215,-17,67,90
63089,185,328,287,-21,-39,-67,292,260,-132,-17,181,-51,46,-183,271,-19,3,-66,-90,-29,-553,175,141,-78,20,217,85,-73,122,-60,51,61
63090,277,317,311,4,-35,-46,277,247,-136,-22,190,-53,25,-183,268,-31,-2,-97,-105,-27,-578,156,111,-74,26,218,85,-122,101,-85,40,55
63091,261,266,316,-4,-33,41,283,210,-152,1,213,-94,20,-170,283,-29,-16,-90,-71,3,-552,132,118,-61,38,242,96,2,154,-48,53,76
63092,257,261,324,7,-19,58,295,203,-150,11,214,-67,47,-172,288,-40,-2,-85,-73,-4,-548,168,123,-33,42,226,86,40,192,-27,43,75
63093,280,297,319,11,-16,59,291,194,-168,20,215,-44,30,-177,286,-38,-2,-80,-77,-24,-555,173,157,-13,56,202,65,73,233,-6,31,58
63094,276,324,301,-3,-19,63,303,204,-174,26,223,-58,9,-200,270,-21,-51,-78,-81,-40,-590,130,130,-43,28,179,26,-28,187,-52,4,29
63095,293,337,348,47,0,88,300,253,-166,12,217,-20,43,-215,256,-47,-29,-59,-91,-54,-621,118,130,-37,1,134,-4,-91,151,-70,3,-24
63096,339,362,381,86,21,123,314,287,-140,41,238,8,74,-212,252,-25,23,-30,-83,-67,-598,171,171,-34,-6,130,6,-68,133,-92,18,6
63097,334,364,372,93,20,121,347,303,-133,43,211,0,44,-199,251,-17,12,-42,-95,-93,-614,167,162,-43,-19,129,27,-85,115,-133,3,7
63098,323,377,342,83,14,45,367,272,-140,27,227,-37,35,-219,232,-23,-17,-63,-106,-100,-632,181,151,-65,-46,97,8,-71,107,-138,-21,-7
63099,328,350,306,53,17,69,356,262,-130,21,226,-69,21,-234,220,-44,-23,-68,-117,-105,-639,89,134,-51,-43,97,-21,-62,126,-127,-32,4
63100,338,347,333,72,30,122,346,280,-142,24,220,-71,28,-209,212,-46,-23,-49,-119,-100,-644,32,118,-68,-33,96,-31,-57,158,-116,-2,4
63101,330,327,353,88,20,89,296,275,-135,9,195,-33,41,-212,203,-88,11,-50,-122,-93,-641,92,181,-36,-12,111,-7,47,195,-52,55,25
63102,336,334,356,67,21,75,285,286,-131,1,190,0,33,-225,227,-87,28,-30,-105,-63,-606,110,214,-13,20,161,14,30,233,0,86,45
63103,307,330,331,46,9,61,307,249,-150,5,218,-41,45,-230,256,-28,-60,-16,-83,-37,-542,173,169,-8,62,218,87,-48,259,58,163,103
63104,259,319,328,21,-1,63,309,249,-163,16,228,-21,69,-215,297,6,-18,21,-62,5,-484,192,207,43,87,279,147,28,289,74,192,121
63105,276,352,340,25,13,64,308,266,-144,12,248,-5,70,-184,325,51,-3,34,-32,39,-446,230,210,47,105,312,171,-13,205,10,129,93
63106,272,334,322,28,-4,33,300,238,-149,-2,247,-12,48,-166,325,82,20,17,-24,55,-438,260,221,43,111,322,178,32,209,10,136,106
63107,258,320,310,30,-2,36,329,244,-130,14,249,-14,61,-163,348,99,69,43,-24,61,-414,255,258,87,133,360,185,115,290,87,202,145
63108,271,309,336,36,-5,65,331,270,-136,37,268,4,68,-170,372,108,64,47,-19,72,-412,279,268,83,159,379,229,111,315,97,228,160
63109,260,293,353,42,-10,82,317,255,-147,39,280,9,85,-167,354,123,87,52,-17,58,-395,311,284,87,153,390,270,144,338,130,268,186
63110,217,237,295,-5,-27,59,312,212,-167,26,268,-35,64,-173,348,101,66,31,-45,50,-400,301,276,85,135,365,278,193,340,138,265,220
63111,226,255,263,-32,-38,36,317,184,-178,34,254,-34,52,-161,357,77,30,16,-40,49,-448,270,241,63,119,341,223,108,278,96,233,174
63112,228,269,242,-31,-38,28,320,196,-171,39,250,-59,45,-157,348,80,36,-8,-44,37,-454,274,179,51,100,314,182,39,217,46,201,138
63113,232,262,256,-48,-54,15,293,192,-173,33,240,-85,42,-175,317,55,-4,-23,-56,10,-494,199,157,11,73,279,136,19,192,15,144,102
63114,229,258,261,-69,-58,19,283,190,-187,1,210,-75,7,-187,280,34,-2,-21,-87,-34,-526,151,109,-25,46,236,95,-115,111,-43,98,59
63115,257,282,296,-25,-27,-7,320,222,-183,8,207,-48,18,-162,278,36,2,-23,-87,-18,-516,207,142,-9,35,238,107,-102,134,2,155,78
63116,238,268,306,-27,-39,-16,299,223,-182,8,170,-25,34,-168,257,7,34,2,-84,-36,-558,206,197,31,29,222,87,32,209,42,145,61
63117,243,256,323,-19,-55,-19,283,238,-174,-4,186,24,21,-181,240,6,58,24,-83,-53,-585,229,211,14,6,202,94,41,182,-12,95,21
63118,243,253,316,-21,-42,-13,286,230,-182,0,189,13,15,-183,240,-13,40,0,-105,-73,-590,147,214,-19,-22,175,64,112,179,-61,87,19
63119,231,260,284,-35,-29,1,285,209,-182,3,197,-41,26,-194,244,-8,-13,-25,-110,-81,-587,157,201,-26,-33,169,67,78,193,-44,94,56
63120,258,273,316,5,-8,20,305,224,-166,4,207,-19,30,-190,242,-6,-6,-12,-105,-77,-578,150,163,-24,-23,161,33,-87,136,-76,91,21
63121,269,264,327,21,-4,6,310,242,-163,20,213,-31,42,-185,244,5,78,49,-63,-59,-552,201,278,43,6,196,91,155,313,67,170,90
63122,246,266,286,28,-1,-33,320,236,-166,15,244,-41,40,-185,266,19,128,61,-75,-55,-560,218,286,67,3,214,123,175,322,77,156,100
63123,269,306,311,23,-1,23,350,254,-163,10,252,-36,39,-184,293,43,107,48,-82,-39,-527,237,261,72,20,234,121,53,283,58,186,102
63124,259,318,330,24,-5,-34,335,238,-179,28,247,-5,47,-181,303,58,101,51,-53,-29,-497,238,283,94,42,273,152,25,324,94,229,132
63125,256,267,341,39,-8,53,351,277,-166,21,270,38,65,-169,337,65,112,76,-38,-4,-468,234,329,103,74,294,173,139,395,150,238,143
63126,249,244,348,56,-11,44,368,325,-132,12,260,47,76,-161,336,61,74,80,-39,31,-466,256,315,103,77,308,194,127,370,137,236,166
63127,237,195,373,60,-18,17,354,342,-119,8,238,84,93,-167,335,57,120,86,-37,7,-469,226,313,96,62,271,171,73,274,65,172,138
63128,268,219,340,55,-34,14,349,343,-122,1,250,63,78,-162,317,46,101,58,-68,-25,-498,220,258,52,36,246,139,-69,172,-63,93,55
63129,253,234,324,32,-28,-2,307,307,-136,-1,238,36,61,-186,276,34,68,32,-75,-33,-504,200,226,45,22,249,133,-27,229,-28,119,81
63130,249,276,307,24,-22,10,307,299,-111,17,226,49,94,-172,277,60,82,50,-43,-26,-499,137,276,89,48,241,133,135,300,39,142,105
63131,257,289,314,30,-26,4,298,297,-110,9,204,40,99,-167,268,24,103,63,-37,-21,-523,158,307,97,54,247,132,205,319,35,134,78
63132,242,308,328,18,-7,20,306,313,-106,10,205,36,93,-165,263,4,104,48,-55,-43,-543,183,263,71,45,245,120,99,256,-16,107,69
63133,216,309,318,43,10,37,319,301,-102,8,234,12,82,-173,273,26,58,25,-45,-37,-525,175,223,65,29,241,120,-41,183,-63,69,69
63134,222,320,334,55,14,52,322,304,-100,15,241,13,89,-181,298,24,29,26,-54,-33,-512,178,207,49,18,245,120,-95,170,-75,65,71
63135,250,328,348,31,-1,44,339,290,-123,-2,231,4,83,-196,288,31,40,25,-63,-49,-507,158,195,26,-3,229,115,-100,171,-91,40,43
63136,286,346,367,59,3,53,373,292,-111,7,248,29,92,-181,292,45,67,48,-57,-34,-488,186,236,55,25,228,110,-40,196,-83,54,51
63137,302,351,373,59,1,46,360,297,-118,15,256,28,84,-186,276,24,73,49,-44,-32,-516,164,256,80,52,247,79,26,229,-70,52,29
63138,291,328,348,52,16,24,326,297,-152,0,224,11,71,-200,278,11,92,47,-34,-18,-498,181,277,97,72,261,93,112,292,-18,83,33
63139,310,358,353,43,10,45,329,299,-147,8,226,19,90,-176,290,26,108,65,-9,10,-476,197,305,130,115,274,119,137,325,44,111,53
63140,320,366,367,9,7,41,334,280,-156,2,227,3,69,-201,285,29,66,46,-31,7,-477,194,271,126,90,275,121,88,306,44,128,67
63141,369,384,384,36,26,73,375,286,-145,18,259,13,67,-184,318,68,85,40,-40,0,-467,193,278,118,92,289,134,74,327,65,137,94
63142,338,348,372,44,9,47,383,272,-133,2,255,-7,66,-184,292,61,90,20,-18,3,-496,208,290,111,109,263,123,42,313,60,141,82
63143,265,327,342,48,17,-19,371,266,-142,9,252,-1,49,-168,303,62,92,21,-13,16,-500,226,294,126,123,289,126,95,355,96,170,83
63144,242,297,318,54,8,-42,346,245,-136,10,244,-8,43,-186,310,64,98,21,-21,22,-504,219,299,134,127,288,115,111,364,106,162,75
63145,272,320,325,72,22,15,364,235,-157,9,258,-37,31,-206,303,68,72,11,-52,-14,-523,194,256,106,105,252,84,80,324,70,136,45
63146,298,335,326,46,34,38,381,236,-155,17,276,-50,27,-200,315,68,73,-13,-64,-21,-526,211,242,81,97,266,107,54,286,47,129,63
63147,290,337,333,62,22,45,386,234,-149,32,278,-60,14,-192,323,86,57,-23,-78,-26,-507,206,237,66,106,276,118,56,250,65,152,65
63148,285,337,281,55,12,49,370,217,-144,45,278,-106,-8,-196,326,82,44,-45,-98,-15,-500,219,228,20,95,284,119,61,266,84,169,67
63149,269,305,241,22,3,50,368,161,-156,35,287,-141,-39,-210,333,109,-26,-94,-117,-3,-485,231,215,5,80,292,144,47,256,74,178,76
63150,282,302,231,26,-1,35,370,161,-167,36,281,-95,0,-188,340,85,18,-75,-104,13,-496,193,239,20,94,295,122,141,281,93,175,64
63151,270,267,242,38,6,29,357,163,-143,30,269,-71,-7,-179,322,62,46,-31,-94,10,-498,163,247,19,95,296,94,125,278,70,163,57
63152,218,215,195,-7,-15,4,305,141,-167,9,218,-106,-28,-194,286,15,39,-62,-110,-16,-529,139,238,22,63,265,61,88,278,63,151,22
63153,202,186,160,-37,-32,-25,286,151,-161,15,208,-146,0,-189,283,-3,35,-58,-104,-15,-553,109,218,32,61,248,49,63,268,66,131,-3
63154,199,196,187,-31,-45,-50,255,163,-154,1,184,-180,5,-194,248,-44,-21,-72,-126,-41,-591,78,129,0,25,217,4,-47,193,10,97,-34
63155,208,235,181,-32,-33,-15,276,174,-151,0,193,-182,26,-191,241,-37,-6,-50,-113,-42,-604,113,134,13,35,200,7,-44,185,-8,114,-29
63156,218,241,207,-32,-33,-21,282,183,-139,9,202,-162,17,-204,239,-26,-25,-66,-99,-47,-611,91,127,15,37,201,-5,-71,147,-37,79,-50
63157,229,236,226,-27,-45,-25,276,188,-138,-13,191,-141,25,-185,249,-38,-92,-89,-87,-32,-591,76,102,13,44,202,-18,-176,130,-52,49,-66
63158,245,233,232,7,-20,-2,265,233,-128,0,189,-72,86,-156,278,-19,-31,0,-24,-16,-571,103,200,70,98,230,47,-91,208,5,93,-44
63159,259,219,245,4,-29,18,280,238,-98,0,182,-22,105,-155,275,-16,40,49,-1,0,-569,145,278,122,141,264,65,55,267,28,141,-1
63160,257,232,227,-14,-36,-14,272,236,-132,-21,189,-34,101,-169,250,-17,53,38,-10,3,-571,134,289,137,155,272,54,82,316,68,170,20
63161,266,267,247,23,-11,-14,297,250,-137,-15,186,-20,107,-181,249,3,71,70,-1,6,-549,176,321,156,166,287,93,138,365,133,188,75
63162,298,309,296,73,0,-32,307,263,-116,2,187,-11,109,-178,259,7,78,64,-3,2,-548,236,328,162,175,309,131,116,382,165,233,110
63163,324,355,318,101,16,-14,322,294,-112,5,200,-2,115,-174,265,15,89,60,-21,-1,-561,146,299,153,168,291,91,67,340,115,205,76
63164,341,385,332,112,43,-60,332,317,-115,0,207,20,104,-171,267,-8,109,45,-24,9,-558,124,290,143,144,274,100,65,345,124,200,57
63165,245,345,297,75,17,7,318,271,-147,-10,192,-13,73,-193,259,-12,86,24,-36,-3,-571,151,284,120,125,281,94,168,371,117,197,53
63166,235,314,239,31,5,41,353,231,-145,18,248,-63,58,-190,294,42,98,20,-32,14,-535,192,330,136,162,302,137,361,457,182,249,134
63167,262,322,229,9,2,31,375,215,-160,28,262,-86,14,-187,316,64,51,-33,-67,4,-506,216,279,92,124,305,136,221,373,129,205,128
63168,252,324,234,1,-3,35,375,179,-182,21,264,-106,-1,-186,312,60,22,-63,-83,22,-509,213,230,45,106,308,128,151,308,89,194,89
63169,255,351,228,-9,1,35,390,139,-191,17,269,-111,-3,-182,321,81,-49,-81,-78,18,-509,212,154,14,105,302,131,-4,277,72,191,86
63170,277,377,212,-21,18,-6,378,150,-180,9,290,-97,-2,-174,353,95,-19,-66,-44,43,-478,238,161,29,116,317,152,-25,293,109,213,132
63171,252,373,208,-50,19,-6,360,169,-174,29,299,-114,23,-148,372,105,0,-52,-36,69,-476,175,208,44,124,314,135,111,299,116,206,118
63172,164,273,169,-48,-11,40,329,126,-186,40,278,-186,15,-143,349,69,-6,-88,-71,52,-499,173,151,8,94,277,100,97,282,98,193,88
63173,181,221,188,-27,-19,35,359,139,-193,42,301,-216,-7,-149,345,76,6,-124,-85,37,-499,185,89,-24,45,249,111,-16,195,28,133,58
63174,257,291,225,-48,-5,80,427,138,-195,48,334,-201,-18,-152,358,81,-50,-130,-121,10,-510,140,9,-88,12,228,78,-242,29,-142,29,-3
63175,241,322,223,-40,-24,105,418,148,-205,66,352,-180,-47,-170,369,95,-52,-144,-140,10,-488,212,8,-85,3,243,103,-275,-1,-129,33,22
63176,208,312,242,-36,-22,85,386,155,-211,56,335,-141,-47,-177,364,125,-45,-126,-135,14,-483,308,83,-78,0,259,131,-147,99,-48,79,34
63177,175,332,239,-12,-22,85,387,186,-198,48,325,-93,-15,-205,363,117,-47,-88,-139,-4,-506,301,133,-57,2,256,121,-88,152,-51,91,30
63178,258,354,279,-3,-2,83,405,230,-156,51,326,-27,-12,-186,362,129,39,-7,-105,6,-510,334,223,7,42,257,145,16,241,18,143,75
63179,280,375,310,4,1,60,439,259,-149,40,344,-11,4,-209,339,146,95,-3,-111,-24,-486,359,234,5,20,260,164,42,217,-12,129,97
63180,308,398,323,22,-7,83,438,272,-172,19,333,-5,8,-218,321,157,45,-26,-125,-38,-507,315,142,-25,-27,222,122,-149,52,-154,27,57
63181,358,421,358,69,20,138,451,308,-139,54,353,15,61,-187,357,175,48,22,-77,-2,-492,340,182,40,34,262,148,-58,170,-44,103,114
63182,341,364,366,74,33,100,399,329,-149,56,325,11,103,-190,337,131,40,35,-63,2,-484,317,220,60,37,260,143,0,224,-9,112,82
63183,311,357,363,65,22,88,385,326,-143,35,295,26,103,-188,347,114,48,47,-40,9,-479,294,244,77,42,240,119,17,215,-21,76,44
63184,263,323,334,43,15,63,363,298,-134,22,278,9,106,-186,330,95,19,34,-54,-14,-504,259,212,62,35,218,72,-20,168,-76,20,-2
63185,253,318,296,27,0,46,343,268,-128,6,266,-1,91,-166,326,81,30,25,-54,0,-522,195,209,50,36,209,63,29,176,-67,28,7
63186,267,318,310,46,-12,27,327,276,-122,11,240,-5,101,-150,320,50,35,28,-53,7,-531,188,223,68,33,211,56,88,210,-34,17,-14
63187,278,317,319,41,2,24,327,286,-120,0,222,-3,78,-137,316,52,-2,15,-63,-9,-549,182,206,56,9,197,41,48,198,-56,-10,-50
63188,264,322,337,35,13,8,316,275,-142,-10,235,-11,68,-147,310,45,0,2,-70,-19,-552,152,185,49,19,203,20,62,187,-59,11,-45
63189,263,338,304,55,9,40,336,252,-149,-13,244,-53,52,-178,302,30,-30,-22,-79,-23,-574,130,147,5,15,204,16,-39,133,-60,15,-51
63190,273,365,276,45,-5,64,326,255,-140,-4,249,-92,34,-189,296,27,-53,-29,-91,-34,-556,152,116,-9,19,216,30,-139,73,-51,28,-46
63191,281,383,278,47,1,91,304,250,-153,-1,242,-75,41,-179,303,45,-36,-42,-104,-16,-538,198,123,0,43,248,66,-172,113,-8,86,-16
63192,271,407,300,62,20,35,317,270,-136,4,246,-37,52,-180,299,42,6,-26,-93,-11,-529,109,176,38,71,264,65,-141,179,51,159,5
63193,267,376,297,66,0,50,341,254,-137,18,250,-40,64,-170,305,25,3,-14,-67,-4,-532,85,178,44,91,279,95,-66,204,85,206,-1
63194,247,280,239,-9,-29,80,339,182,-140,19,235,-61,69,-147,314,35,-6,-20,-51,11,-522,98,190,76,118,302,126,39,259,111,240,37
63195,227,259,238,-16,-32,0,338,183,-143,13,219,-44,61,-152,329,39,37,22,-26,16,-502,134,256,118,126,320,141,174,292,110,255,49
63196,261,251,269,10,-24,21,371,207,-131,25,255,-47,73,-135,347,39,24,25,-5,39,-477,149,252,120,160,352,163,86,264,116,274,79
63197,245,204,245,-2,-32,24,352,213,-131,15,255,-89,67,-133,351,35,-4,-11,-37,32,-473,126,179,80,138,350,157,-24,195,61,240,74
63198,191,112,199,-30,-47,19,284,192,-145,4,208,-119,57,-146,315,-13,-12,-49,-53,30,-511,150,167,57,111,320,123,-1,199,39,240,75
63199,164,86,180,-35,-67,8,250,192,-127,-1,210,-137,66,-130,311,-19,-49,-41,-37,30,-516,147,164,55,110,317,119,16,215,52,224,64
63200,140,114,167,-46,-65,-28,218,167,-139,2,187,-148,29,-130,318,-6,-37,-68,-53,39,-508,155,181,52,118,326,138,88,249,84,243,66
63201,151,171,211,-28,-61,-34,206,205,-169,-10,189,-140,18,-136,339,11,-48,-66,-38,53,-496,194,156,44,128,320,142,7,228,63,251,56
63202,168,207,239,-30,-62,-61,248,206,-151,-3,192,-102,32,-113,353,26,-59,-36,-37,63,-485,221,122,38,126,322,146,-149,174,22,224,69
63203,168,202,242,-44,-65,-115,242,207,-156,-17,189,-81,40,-101,321,26,-32,-59,-46,54,-494,191,130,40,128,318,139,-153,130,3,181,70
63204,178,198,254,-28,-61,-5,268,225,-126,16,217,-90,46,-85,338,32,7,-42,-28,71,-496,197,178,60,132,315,155,-28,199,51,179,96
63205,129,184,236,-39,-68,5,274,171,-130,3,215,-115,34,-103,327,-13,-12,-64,-18,62,-517,199,174,48,105,282,133,-37,179,22,135,78
63206,146,139,195,-67,-98,-53,244,130,-180,-21,161,-159,22,-118,306,-38,-68,-94,-56,20,-546,123,129,29,64,246,68,-62,158,-5,86,3
63207,123,154,178,-74,-85,-39,265,149,-175,-23,174,-171,21,-129,286,-44,-110,-99,-70,-7,-560,129,113,9,49,230,49,-100,157,-13,67,-35
63208,95,148,153,-83,-63,-35,273,147,-171,-9,185,-189,3,-139,271,-45,-129,-130,-85,-27,-580,138,86,-18,45,207,17,-171,87,-75,-2,-84
63209,113,180,180,-58,-69,-32,296,140,-184,-15,170,-205,-10,-147,260,-61,-122,-137,-97,-52,-614,117,78,-42,5,172,-20,-141,48,-144,-80,-104
63210,67,182,152,-46,-73,-3,294,101,-182,-20,161,-218,-22,-169,245,-72,-121,-143,-118,-75,-637,95,77,-46,-18,142,-42,-95,70,-110,-49,-103
63211,103,214,165,-32,-61,-5,277,119,-168,0,165,-211,-7,-159,232,-77,-116,-140,-106,-51,-626,58,58,-64,-1,142,-80,-144,65,-132,-77,-144
63212,144,203,169,-54,-53,13,271,136,-185,0,165,-243,-15,-168,247,-70,-90,-133,-107,-47,-634,79,33,-75,0,145,-82,-180,10,-166,-120,-175
63213,116,181,144,-72,-61,-24,261,146,-183,0,161,-229,-20,-167,257,-85,-71,-93,-101,-38,-631,96,72,-39,7,155,-70,-67,71,-115,-90,-137
63214,114,211,154,-81,-77,-90,267,167,-194,-14,162,-209,0,-157,277,-76,-91,-96,-98,-42,-630,87,98,-34,8,162,-70,14,102,-104,-84,-140
63215,119,208,134,-84,-86,-14,269,163,-191,10,183,-195,-1,-137,308,-35,-102,-133,-99,-12,-591,143,80,-46,8,178,-40,-38,87,-132,-92,-108
63216,123,198,157,-59,-75,-21,244,186,-170,11,178,-143,19,-124,314,-21,-68,-103,-85,-9,-571,142,144,-17,28,179,-8,58,136,-93,-54,-91
63217,118,192,167,-42,-83,-50,230,191,-168,-9,170,-125,15,-126,280,-13,-54,-64,-93,-29,-574,56,158,-12,10,190,-10,-18,113,-111,-69,-114
63218,130,192,212,-30,-75,-28,265,201,-154,-23,164,-97,33,-134,275,-9,7,-8,-66,-30,-564,104,210,10,28,190,15,31,164,-88,-16,-113
63219,131,176,238,-26,-68,-36,266,203,-149,-17,176,-67,66,-135,296,-4,65,13,-45,-2,-545,151,274,57,67,237,55,137,208,-19,55,-19
63220,162,194,255,-30,-64,-10,279,196,-150,-15,193,-67,87,-112,315,5,99,45,-2,30,-536,142,299,80,96,286,81,209,266,28,113,18
63221,190,197,268,-14,-49,-7,305,195,-137,1,199,-84,86,-122,294,22,61,11,-11,21,-536,145,255,85,103,270,81,46,189,-19,80,17
63222,196,193,265,-22,-46,-21,272,200,-138,-11,167,-74,94,-133,287,16,80,25,-10,32,-537,176,266,103,94,267,94,113,238,20,112,44
63223,190,208,259,-45,-51,-36,275,200,-158,-18,149,-94,75,-144,272,13,2,6,-28,-1,-533,171,195,69,87,267,111,-44,199,22,125,45
