,Fp1,Fp2,F7,F3,Fz,F4,F8,FC5,FC1,FC2,FC6,T7,C3,Cz,C4,T8,TP9,CP5,CP1,CP2,CP6,TP10,P7,P3,Pz,P4,P8,PO9,O1,Oz,O2,PO10
29343,-552,-21,-25,-401,-198,500,-552,-18,152,32,-114,-86,261,-96,376,224,122,-70,-123,-212,11,246,63,19,-35,67,157,-11,195,-143,-99,-196
29344,-571,-41,12,-274,-194,424,-509,-72,167,42,-162,128,208,-90,377,310,132,-117,-113,-197,20,243,123,27,-38,80,174,14,188,-131,-75,-248
29345,-398,33,59,-307,-187,238,-544,-100,151,24,-219,349,186,-72,351,106,125,-122,-134,-198,-1,253,162,33,-33,109,162,37,177,-159,-71,-245
29346,-334,-69,70,-402,-185,506,-523,-128,140,59,-138,292,172,-67,372,-158,95,-90,-114,-200,26,274,119,40,-32,119,139,75,178,-164,-96,-181
29347,-220,176,135,-385,-176,251,-445,-100,152,32,-66,69,197,-76,389,-195,156,-133,-113,-184,43,243,-7,21,-16,109,148,70,177,-148,-91,-122
29348,-37,269,51,-338,-174,125,-428,-179,152,-6,-127,7,226,-77,366,-95,99,-153,-123,-198,17,-23,-132,1,-29,104,114,67,155,-166,-119,-112
29349,-14,298,70,-278,-174,92,-422,-75,177,-5,-175,-3,256,-77,348,-69,6,-125,-100,-207,13,10,-72,38,-18,112,112,49,170,-148,-104,-116
29350,15,310,131,-441,-172,108,-380,-20,166,7,-165,99,276,-54,363,-103,-34,-46,-55,-170,24,195,26,89,20,147,152,82,232,-117,-56,-106
29351,69,243,195,-546,-198,146,-353,-90,139,8,-146,25,257,-58,353,-81,8,-33,-60,-162,20,152,49,89,32,139,151,29,225,-139,-69,-196
29352,96,233,318,-604,-202,190,-378,-225,135,27,-154,47,247,-76,366,-74,70,-36,-62,-167,34,165,48,108,25,150,167,53,213,-107,-77,-204
29353,94,233,335,-639,-181,145,-453,-217,135,16,-146,161,230,-76,346,-71,22,-51,-81,-176,30,179,63,104,32,130,132,42,212,-125,-88,-168
29354,13,173,317,-700,-185,209,-487,-172,131,31,-132,246,238,-57,354,-83,28,-23,-54,-156,23,165,131,97,31,137,124,-18,195,-144,-117,-185
29355,-184,122,235,-675,-205,257,-583,-131,120,19,-161,248,213,-67,359,-151,7,-65,-65,-171,1,165,133,72,3,104,91,-29,162,-161,-143,-190
29356,-199,97,257,-630,-190,443,-719,-102,125,30,-169,262,189,-55,345,-85,30,-70,-75,-180,11,129,114,65,19,118,101,-25,167,-167,-128,-143
29357,-111,184,304,-600,-192,273,-773,-124,139,46,-177,265,193,-36,356,-12,101,-18,-52,-163,13,146,122,96,50,141,165,-8,172,-134,-97,-83
29358,-58,205,256,-592,-197,302,-598,-126,119,40,-143,166,199,-39,368,-43,111,-49,-47,-143,26,164,138,104,54,167,183,81,216,-96,-75,-66
29359,-53,213,242,-614,-207,236,-486,-154,139,16,-104,119,202,-21,392,-125,123,-56,-53,-123,76,175,115,105,86,204,212,92,231,-61,-25,-70
29360,-70,168,245,-586,-208,145,-398,-158,146,19,-124,101,189,-19,405,-170,76,-65,-51,-98,101,204,87,100,96,221,241,25,229,-81,-24,-98
29361,-111,113,217,-572,-207,155,-429,-158,130,22,-133,100,186,-16,398,-146,9,-71,-66,-104,102,214,117,76,85,207,246,52,221,-103,-61,-182
29362,-157,141,192,-582,-210,183,-492,-189,120,26,-120,102,144,-18,415,-79,-7,-124,-97,-111,90,183,62,16,57,200,226,59,215,-84,-71,-244
29363,-215,114,147,-581,-205,204,-450,-197,131,49,-130,67,114,-21,428,-31,42,-145,-92,-95,97,165,35,19,64,197,222,90,201,-86,-53,-245
29364,-264,74,83,-568,-226,211,-426,-200,114,57,-133,29,119,-4,437,6,36,-150,-96,-98,96,226,30,16,45,207,218,99,212,-88,-52,-125
29365,-269,71,0,-529,-219,236,-395,-179,109,41,-121,20,116,-31,419,8,6,-177,-106,-125,96,239,32,16,43,207,195,92,205,-96,-45,-55
29366,-285,-1,-23,-472,-197,261,-435,-160,134,44,-192,29,149,-27,392,69,63,-115,-84,-129,100,278,89,40,68,189,221,118,243,-54,-13,-25
29367,-574,-91,-140,-324,-184,513,-594,-196,151,70,-235,-27,177,-32,397,226,216,-111,-82,-138,103,295,64,63,40,192,214,69,243,-54,0,12
29368,-991,-35,-355,-145,-175,541,-829,-302,168,64,-75,2,136,-54,415,165,327,-181,-110,-165,68,210,38,34,9,151,176,57,241,-48,-18,-154
29369,-899,-97,-333,-142,-156,474,-915,-116,147,50,20,-178,115,-76,407,21,283,-263,-130,-180,60,181,53,16,-1,144,178,88,242,-47,-20,-285
29370,-512,-102,-240,-123,-151,407,-724,-75,154,31,-48,-137,149,-60,405,17,185,-226,-118,-171,87,69,92,43,28,176,232,56,260,-66,-42,-198
29371,-123,237,27,-290,-143,286,-422,-82,166,36,-89,-76,235,-26,380,25,26,-101,-49,-139,104,177,179,105,75,193,293,106,312,-29,12,-93
29372,113,211,274,-513,-156,194,-278,-273,144,36,-80,46,258,-20,402,-70,8,-7,-10,-128,117,342,242,153,88,207,329,206,360,15,47,-54
29373,198,293,428,-644,-170,180,-229,-256,143,39,-41,153,260,-5,442,47,128,37,-13,-96,162,418,276,185,112,247,359,211,372,47,71,-48
29374,211,362,446,-691,-169,188,-224,-131,135,55,-19,215,247,-4,446,142,194,25,-13,-95,193,493,244,193,131,259,373,255,372,63,92,73
29375,259,425,468,-757,-179,227,-185,-96,138,48,-33,224,214,-9,431,117,167,-32,-51,-121,150,379,177,135,96,226,291,224,331,15,72,83
29376,221,368,452,-728,-171,211,-201,-115,134,46,-32,245,205,-14,411,92,156,-40,-63,-125,123,325,181,129,61,211,278,195,314,-5,46,40
29377,149,362,445,-699,-157,225,-213,-134,124,35,-45,231,187,-38,395,136,159,-50,-80,-150,98,304,144,100,49,190,229,158,284,-29,3,1
29378,89,371,422,-689,-163,245,-229,-129,103,40,-38,233,166,-51,403,171,155,-51,-97,-161,58,282,127,63,33,158,199,141,279,-33,-19,17
29379,51,354,403,-683,-158,263,-242,-107,97,28,-35,219,156,-53,407,173,173,-64,-114,-157,61,271,126,57,23,158,193,120,262,-39,2,1
29380,15,326,386,-635,-155,240,-280,-96,124,44,-49,216,160,-39,407,177,143,-75,-110,-157,72,261,89,58,32,150,204,90,230,-62,-18,-35
29381,-30,252,359,-591,-164,288,-323,-98,105,60,-63,215,161,-50,382,85,151,-96,-114,-161,66,282,72,37,7,144,196,54,190,-98,-36,-59
29382,-76,213,318,-595,-167,436,-366,-119,93,47,-96,166,131,-75,363,-45,106,-132,-161,-183,25,285,18,-3,-12,124,175,-44,151,-141,-59,-93
29383,-142,164,286,-581,-170,503,-487,-120,104,51,-142,142,126,-70,352,100,62,-130,-170,-208,37,351,-12,-8,-13,101,175,-45,146,-161,-75,-117
29384,-170,13,249,-562,-168,398,-630,-123,106,33,-190,147,146,-76,345,246,49,-125,-172,-209,45,352,-19,-22,-40,80,187,-54,107,-183,-109,-217
29385,-183,-68,226,-553,-176,434,-760,-139,94,28,-145,129,143,-93,350,15,52,-129,-178,-228,16,188,3,-30,-48,79,164,-133,73,-214,-147,-370
29386,-160,24,211,-534,-182,479,-658,-130,103,43,-54,137,148,-102,381,-124,112,-94,-153,-213,-15,173,65,1,-41,80,129,-56,104,-201,-130,-274
29387,-94,109,101,-451,-176,367,-480,-79,125,39,-37,129,176,-70,383,-124,131,-92,-132,-201,-25,166,5,-3,-21,86,77,2,120,-164,-137,-192
29388,-72,171,56,-366,-160,253,-416,-36,156,11,-85,-38,208,-92,362,-69,101,-120,-135,-216,-32,119,-93,-28,-18,73,66,-1,107,-185,-130,-173
29389,-183,242,-58,-241,-156,245,-389,37,182,-2,-113,-235,238,-106,349,-173,96,-106,-126,-217,-47,147,-92,-23,-35,43,33,-31,97,-185,-149,-202
29390,-461,260,-146,-205,-150,180,-440,-130,188,-10,-145,-37,226,-94,341,-222,91,-106,-123,-249,-39,75,-47,-17,-32,45,99,-69,115,-202,-158,-284
29391,-743,265,-173,-118,-157,161,-464,-152,178,-18,-177,265,207,-115,301,-162,31,-104,-154,-269,-51,33,-61,-37,-71,28,86,-160,57,-249,-194,-269
29392,-594,334,0,-181,-149,180,-398,-16,180,-20,-151,186,226,-105,309,-71,-52,-96,-155,-256,-50,148,-119,-46,-66,32,52,-158,43,-260,-212,-318
29393,-357,268,123,-188,-167,234,-331,-104,199,7,-122,-49,209,-103,354,21,-5,-162,-135,-244,-35,161,-186,-67,-56,43,84,-145,37,-270,-205,-351
29394,-185,188,79,-307,-173,237,-356,-159,162,31,-116,-77,183,-105,369,0,-11,-234,-166,-237,-24,177,-150,-83,-67,41,108,-208,16,-278,-203,-335
29395,-131,85,86,-375,-170,264,-409,-91,140,29,-123,-98,148,-107,356,-80,-146,-237,-185,-242,-27,163,-120,-99,-89,35,84,-260,-43,-320,-238,-304
29396,-47,106,234,-444,-152,267,-430,-64,142,44,-125,-111,165,-90,370,-58,-219,-175,-160,-206,-18,193,-107,-100,-65,38,85,-213,-35,-332,-250,-189
29397,56,181,371,-597,-174,303,-456,-202,120,48,-133,-173,118,-99,365,-5,-105,-178,-186,-224,-20,170,-100,-92,-50,39,45,-155,-4,-293,-239,-202
29398,-6,193,375,-710,-194,301,-466,-346,102,39,-138,-49,81,-98,362,9,-30,-214,-200,-222,-39,105,-102,-89,-54,46,8,-221,-25,-311,-253,-279
29399,26,176,216,-678,-211,212,-512,-191,113,19,-177,-23,88,-95,348,-95,-129,-251,-197,-216,-78,23,-77,-117,-45,32,-7,-267,-32,-329,-272,-312
29400,27,98,157,-665,-208,199,-539,-222,114,28,-209,-9,109,-72,322,-207,-174,-258,-184,-211,-107,-36,-125,-118,-24,21,-64,-235,9,-322,-268,-324
29401,-232,16,141,-710,-209,329,-600,-274,102,35,-215,-26,99,-79,321,-286,-168,-284,-188,-231,-143,-34,-170,-126,-53,12,-90,-192,11,-320,-267,-346
29402,-228,32,175,-724,-205,360,-595,-280,99,37,-203,-91,99,-66,340,-313,-134,-292,-185,-238,-137,-24,-177,-138,-58,5,-76,-170,1,-297,-250,-350
29403,-167,103,160,-684,-210,229,-645,-258,110,39,-291,-133,93,-49,335,-242,-133,-306,-176,-205,-100,-11,-200,-116,-41,39,-24,-130,18,-262,-223,-337
29404,-123,55,120,-674,-233,471,-793,-288,95,67,-237,-258,83,-56,371,-166,-111,-318,-187,-192,-50,8,-213,-130,-25,65,-14,-112,39,-259,-215,-329
29405,-90,47,66,-601,-247,413,-785,-263,87,51,-237,-262,73,-64,371,-100,-153,-343,-195,-173,6,4,-234,-130,-26,95,34,-164,13,-266,-216,-341
29406,-63,54,40,-559,-211,292,-681,-192,106,53,-201,36,69,-55,378,-50,-163,-315,-189,-185,-7,-34,-184,-114,-19,93,53,-191,40,-250,-196,-313
29407,-91,-21,35,-572,-227,243,-667,-244,104,42,-182,53,57,-64,371,-73,-114,-274,-184,-180,-31,9,-146,-102,-29,92,41,-176,46,-253,-175,-317
29408,-269,32,-58,-486,-221,343,-655,-535,86,28,-186,-20,39,-103,359,-165,-48,-278,-200,-189,-44,125,-167,-109,-35,72,33,-189,11,-241,-168,-296
29409,-347,215,-36,-608,-215,198,-623,-615,68,1,-193,-115,29,-102,362,-262,-26,-314,-220,-188,-29,53,-196,-121,-35,88,81,-181,48,-235,-162,-279
29410,-294,258,107,-535,-184,217,-479,-314,105,49,-130,-253,52,-85,387,-212,-6,-349,-184,-162,16,8,-179,-98,3,145,121,-87,120,-184,-118,-241
29411,-246,264,105,-466,-187,182,-419,-285,83,32,-146,-46,6,-106,392,-118,-20,-365,-197,-171,44,27,-131,-96,-5,137,122,14,143,-157,-106,-238
29412,-240,294,139,-543,-173,196,-492,-240,82,31,-111,12,20,-86,404,-106,-36,-327,-184,-165,68,5,-118,-79,3,153,176,30,166,-132,-86,-200
29413,-213,243,154,-553,-182,389,-520,-247,89,48,-76,-60,45,-83,408,-112,-69,-284,-176,-157,45,100,-82,-47,15,171,156,11,158,-134,-79,-198
29414,-127,178,149,-561,-200,303,-480,-297,69,47,-106,-101,43,-103,405,-74,-19,-258,-172,-155,52,111,-16,-32,14,165,177,47,176,-116,-61,-299
29415,-168,124,48,-569,-190,381,-441,-349,79,57,-83,-150,47,-77,420,52,14,-235,-162,-119,106,135,16,-10,41,180,244,87,222,-95,-20,-294
29416,-174,3,29,-607,-187,554,-410,-372,67,112,-49,-125,30,-85,448,128,-20,-233,-183,-119,122,272,3,-22,26,204,244,51,201,-108,-30,-161
29417,-160,21,91,-619,-180,511,-335,-340,70,71,-41,-91,29,-97,440,150,6,-231,-155,-126,137,260,11,-17,25,205,230,43,219,-94,-57,-150
29418,13,176,159,-681,-194,374,-306,-305,57,45,-58,-84,33,-87,423,-2,69,-224,-156,-139,92,269,49,4,47,196,244,94,242,-80,-47,-259
29419,86,219,258,-659,-194,191,-315,-234,77,40,-59,-98,79,-75,423,-143,106,-177,-129,-117,82,401,123,67,73,221,309,146,283,-44,-3,-134
29420,100,258,280,-569,-175,308,-338,-240,109,68,-20,-109,104,-57,436,-70,141,-116,-112,-119,95,283,107,53,70,206,274,152,273,-35,-33,39
29421,117,314,285,-580,-167,257,-295,-238,97,60,-39,-128,96,-58,418,-5,163,-112,-127,-144,80,196,80,23,38,156,207,148,245,-41,-36,85
29422,-105,333,172,-558,-163,252,-338,-228,86,43,-59,-169,109,-79,412,81,109,-211,-171,-162,70,240,6,-20,0,134,155,116,226,-91,-31,56
29423,-144,475,47,-501,-166,221,-393,-136,119,54,-100,-114,123,-69,423,161,118,-251,-166,-165,99,305,39,-26,-5,153,194,116,203,-96,-31,29
29424,-310,461,29,-374,-175,221,-321,-76,144,56,-74,-76,129,-79,408,137,154,-235,-162,-193,67,301,66,-41,-38,121,159,83,182,-121,-70,5
29425,-383,422,68,-492,-190,153,-307,-202,96,29,-78,-137,85,-101,374,139,135,-202,-200,-211,66,312,53,-79,-53,90,140,-13,160,-148,-114,-28
29426,-217,249,114,-394,-179,287,-387,-202,92,39,-60,-109,92,-107,373,80,95,-184,-198,-214,34,324,25,-70,-47,87,138,-61,148,-172,-94,-34
29427,2,205,216,-419,-156,455,-402,-152,129,71,18,69,131,-103,409,106,63,-133,-174,-199,54,370,68,-37,-12,115,145,-61,153,-159,-56,-39
29428,31,298,317,-462,-162,480,-433,-116,118,50,-39,28,134,-128,394,85,75,-103,-178,-218,46,322,86,-50,-25,127,141,-22,128,-158,-74,-71
29429,110,321,371,-554,-149,381,-528,-35,112,52,-96,37,130,-138,371,235,118,-70,-157,-213,57,348,51,-39,-46,120,179,88,131,-156,-91,-60
29430,105,324,325,-551,-143,413,-507,-16,128,63,-9,194,169,-136,385,180,190,-115,-177,-205,51,334,-46,-53,-42,98,141,69,132,-189,-125,-139
29431,-27,340,307,-510,-136,309,-439,-190,119,43,-29,246,154,-162,374,-17,63,-166,-202,-253,8,323,-81,-75,-69,61,74,14,104,-220,-161,-202
29432,-188,271,265,-484,-156,394,-366,-506,101,24,-39,231,109,-168,369,63,57,-160,-211,-228,25,167,-64,-85,-91,48,103,-44,88,-216,-172,-194
29433,-136,276,241,-472,-144,410,-354,-341,127,32,-36,125,114,-130,388,240,139,-136,-200,-228,23,174,-15,-75,-77,36,110,-103,56,-230,-194,-193
29434,-11,240,331,-477,-134,337,-393,-77,135,21,-109,-67,152,-143,371,260,69,-125,-201,-238,-8,191,22,-81,-95,16,93,-158,14,-267,-190,-192
29435,124,242,391,-534,-130,393,-422,-80,123,24,-111,25,166,-130,352,212,79,-165,-217,-244,-6,137,-69,-115,-115,20,82,-95,30,-268,-205,-219
29436,144,134,395,-503,-129,377,-336,-87,127,45,-85,84,134,-104,360,82,3,-178,-233,-222,9,193,-117,-123,-85,61,88,-75,32,-266,-207,-175
29437,19,177,383,-495,-147,297,-296,-93,129,14,-99,96,137,-108,358,-34,44,-176,-220,-219,-6,224,-153,-127,-92,63,99,-47,33,-242,-170,-169
29438,39,265,327,-500,-155,433,-297,-85,119,14,-94,144,134,-110,340,-2,91,-211,-221,-248,0,198,-176,-135,-90,35,93,-38,15,-272,-185,-211
29439,66,298,192,-456,-160,463,-351,-58,125,1,-151,262,130,-126,332,33,64,-194,-210,-276,-4,228,-133,-126,-113,20,55,-61,6,-292,-220,-264
29440,-54,232,-28,-307,-134,322,-443,-96,145,10,-108,274,132,-96,323,-78,15,-169,-205,-250,-32,220,-118,-143,-113,17,61,-84,-8,-296,-240,-333
29441,-399,132,-329,-30,-151,290,-550,-77,171,-11,-112,50,159,-115,289,-207,-9,-150,-229,-293,-103,94,-197,-170,-142,-8,31,-154,-64,-351,-291,-440
29442,-706,152,-244,-91,-172,302,-545,-76,142,-16,-202,-238,143,-138,272,-187,27,-226,-247,-316,-120,115,-278,-195,-169,-39,17,-163,-73,-358,-311,-373
29443,-493,329,71,-259,-151,171,-475,-101,134,-6,-174,-255,122,-118,287,-80,36,-275,-255,-289,-94,136,-246,-176,-137,20,52,-128,-25,-310,-239,-368
29444,-186,170,242,-334,-136,388,-502,-98,119,35,-139,-88,120,-106,342,19,-36,-262,-235,-267,-40,164,-178,-151,-124,42,75,-147,-29,-295,-228,-531
29445,26,-89,335,-519,-155,595,-524,-217,92,47,-93,51,117,-130,349,35,-102,-209,-251,-274,-65,147,-108,-160,-132,1,71,-161,-13,-325,-263,-461
29446,198,104,446,-645,-133,491,-489,-233,120,50,-72,221,154,-116,348,125,-7,-122,-191,-243,-56,133,12,-101,-90,17,61,-75,42,-265,-220,-190
29447,281,240,547,-684,-129,456,-412,-174,118,64,-83,264,156,-100,355,-124,11,-92,-171,-255,-51,187,46,-68,-73,45,45,-58,57,-227,-171,-27
29448,70,301,454,-617,-168,236,-393,-91,129,15,-132,230,173,-115,331,-328,38,-147,-181,-258,-56,185,-24,-81,-83,51,56,-78,62,-216,-166,-70
29449,-98,385,281,-589,-169,187,-379,-119,117,3,-148,241,146,-130,335,-261,37,-172,-196,-250,-56,85,-76,-97,-86,53,56,-70,66,-237,-178,-203
29450,-44,443,223,-546,-146,133,-392,-191,131,18,-159,207,117,-95,311,-190,-32,-191,-187,-233,-38,53,-97,-78,-51,62,69,-107,53,-260,-207,-263
29451,-5,326,129,-493,-183,80,-417,-339,126,-25,-232,79,115,-100,279,-192,-49,-207,-197,-248,-74,41,-89,-78,-60,49,45,-118,59,-268,-228,-242
29452,14,270,156,-581,-196,93,-518,-348,110,-34,-278,-104,114,-116,274,-180,-86,-236,-201,-254,-100,8,-132,-94,-67,33,1,-104,35,-269,-225,-216
29453,27,245,195,-649,-204,150,-591,-357,111,-12,-284,-281,99,-76,288,-121,-121,-209,-192,-239,-92,55,-141,-82,-54,25,28,-110,25,-248,-178,-230
29454,5,236,143,-706,-202,246,-659,-457,109,21,-251,-172,123,-62,321,18,-126,-194,-167,-223,-78,57,-123,-71,-46,61,56,-155,31,-264,-199,-310
29455,-80,180,188,-674,-211,342,-644,-252,111,23,-247,-215,133,-68,321,-82,-225,-261,-193,-226,-96,-39,-134,-83,-52,46,25,-196,15,-289,-258,-356
29456,-76,149,206,-670,-212,244,-544,-275,115,-9,-295,-206,124,-62,277,-218,-236,-261,-194,-222,-130,-78,-109,-99,-52,35,3,-234,18,-293,-233,-360
29457,-105,233,144,-675,-213,170,-553,-307,109,-11,-346,-75,102,-61,279,-169,-191,-231,-188,-193,-96,-9,-50,-75,-16,59,34,-219,27,-250,-225,-328
29458,-92,213,161,-698,-207,255,-573,-333,98,23,-267,-199,67,-64,323,-369,-172,-262,-188,-171,-96,-27,-105,-81,-9,69,-14,-111,99,-227,-201,-277
29459,-32,95,151,-655,-188,232,-568,-297,103,15,-281,-260,80,-58,335,-311,-94,-280,-189,-158,-64,43,-140,-70,3,108,-17,-83,151,-181,-155,-205
29460,-24,103,141,-603,-172,195,-491,-272,112,10,-202,-218,95,-53,360,-152,-32,-256,-167,-167,-21,-11,-111,-40,13,127,12,-18,162,-146,-128,-162
29461,-110,236,108,-541,-176,228,-433,-250,124,33,-158,-245,125,-57,374,-86,-46,-242,-172,-161,-2,62,-91,-37,19,130,45,10,172,-157,-119,-155
29462,-207,190,-52,-396,-161,277,-451,-179,131,45,-137,-254,127,-58,378,-112,-1,-248,-173,-178,-20,163,-91,-64,-3,127,77,-23,144,-174,-126,-150
29463,-361,211,-71,-325,-138,246,-523,-150,125,44,-115,-265,113,-93,370,-112,49,-274,-179,-201,-21,120,-132,-92,-18,108,89,-61,107,-185,-115,-167
29464,-377,278,-103,-382,-144,252,-614,-205,125,42,-75,-163,125,-99,398,-48,-20,-240,-163,-178,14,183,-76,-47,-5,125,129,-12,126,-165,-71,-144
29465,-282,239,-91,-311,-137,361,-566,-155,149,49,-55,-19,153,-99,396,-34,-37,-201,-156,-191,16,211,-64,-41,-14,118,137,21,165,-165,-76,-72
29466,-220,225,36,-302,-133,281,-487,-111,170,61,-64,118,183,-81,385,10,-14,-143,-155,-208,26,203,-46,-27,7,126,117,64,204,-132,-48,-79
29467,-115,169,237,-380,-137,290,-478,-157,149,48,-64,54,159,-86,380,33,39,-162,-148,-203,41,270,-43,-40,-3,126,129,63,190,-111,-78,-181
29468,-21,207,282,-469,-169,275,-406,-245,120,29,-72,-19,139,-116,363,36,48,-166,-171,-241,10,212,-46,-59,-53,89,140,10,130,-148,-112,-258
29469,72,244,300,-514,-164,262,-343,-260,141,25,-83,-30,187,-97,373,63,65,-118,-151,-217,24,266,-26,-35,-29,101,171,-4,156,-145,-91,-329
29470,92,312,275,-626,-129,346,-326,-256,139,68,-59,31,148,-71,398,207,183,-160,-132,-179,106,404,-23,-33,25,143,240,28,171,-121,-91,-233
29471,51,298,260,-634,-137,404,-301,-291,117,59,-45,160,96,-85,424,220,205,-263,-167,-165,120,349,-64,-56,11,139,228,49,155,-135,-76,-181
29472,2,250,233,-630,-156,340,-316,-537,91,41,-95,345,34,-85,407,206,113,-266,-194,-195,88,353,-24,-78,-10,142,245,70,159,-128,-33,-171
29473,82,251,193,-653,-137,408,-459,-633,70,74,-96,296,57,-73,393,244,85,-206,-171,-197,74,367,43,-76,-21,150,254,81,179,-127,-49,-75
29474,85,293,192,-652,-159,415,-662,-308,96,60,-38,17,87,-85,376,-73,45,-196,-180,-200,2,291,41,-74,-54,84,127,24,153,-156,-81,-103
29475,29,315,218,-577,-165,343,-564,-181,118,54,-49,-56,114,-100,365,-166,37,-189,-200,-201,-18,181,55,-80,-73,51,83,-6,133,-173,-103,-73
29476,-3,239,206,-534,-162,446,-399,-195,131,59,-66,-14,110,-82,365,-59,59,-199,-196,-231,0,206,39,-76,-58,62,112,-31,156,-176,-118,-80
29477,-89,263,113,-530,-135,324,-352,-265,118,36,-104,-22,116,-75,340,-11,73,-192,-202,-222,-1,176,-3,-77,-53,64,115,11,158,-175,-126,-157
29478,-215,350,-51,-484,-160,187,-397,-227,117,1,-149,-168,126,-87,309,46,26,-209,-204,-244,-28,100,-54,-108,-104,41,90,-7,103,-210,-179,-241
29479,-476,340,-86,-268,-151,220,-457,-193,148,6,-192,-287,110,-80,321,136,104,-255,-200,-262,-20,81,-62,-121,-91,38,45,-44,109,-214,-176,-186
29480,-498,140,-55,-347,-134,319,-489,-122,127,1,-158,-292,98,-114,313,60,78,-274,-230,-283,-65,84,-71,-130,-105,11,-22,-48,89,-250,-207,-187
29481,-340,90,98,-292,-133,446,-442,-79,125,34,-106,-173,120,-138,331,53,9,-252,-231,-284,-70,102,-86,-133,-131,-7,-72,-95,69,-266,-247,-246
29482,-219,184,208,-382,-150,347,-483,-59,133,40,-67,-3,146,-143,336,4,-58,-200,-220,-282,-71,171,-45,-129,-127,-34,-73,-176,27,-295,-252,-298
29483,-29,253,224,-443,-141,400,-509,-60,134,44,-75,59,138,-138,350,6,-111,-162,-226,-271,-21,55,-21,-109,-117,-7,8,-96,49,-284,-246,-305
29484,48,211,252,-477,-153,420,-493,-175,116,31,-110,131,125,-143,327,57,-25,-167,-239,-272,-67,67,-55,-131,-128,-11,24,-32,71,-277,-258,-267
29485,40,81,312,-531,-158,423,-557,-185,131,50,-25,171,149,-133,361,10,47,-142,-225,-260,-67,80,-30,-114,-122,-21,37,-85,32,-285,-250,-244
29486,125,66,340,-566,-169,457,-576,-146,109,48,-78,231,135,-125,358,-84,117,-139,-227,-267,-65,44,-27,-114,-124,-23,17,-132,11,-290,-251,-270
29487,219,209,383,-586,-158,350,-501,-143,141,42,-185,254,178,-99,347,-47,66,-85,-175,-234,-31,120,14,-74,-90,8,29,-146,53,-281,-231,-279
29488,189,141,342,-542,-158,297,-475,-146,168,22,-194,247,193,-83,343,-46,2,-106,-172,-261,-24,103,1,-70,-80,-1,16,-145,27,-285,-247,-313
29489,155,175,308,-602,-191,197,-498,-220,145,21,-120,336,171,-86,307,-148,130,-78,-154,-250,-100,75,42,-61,-73,-23,-7,-78,44,-275,-265,-369
29490,104,215,301,-574,-178,169,-487,-177,168,9,-185,180,198,-71,287,-33,134,-82,-149,-264,-103,93,-42,-70,-73,-32,-9,-59,39,-303,-265,-403
29491,-109,177,238,-517,-208,263,-529,-123,176,-21,-235,-6,203,-90,273,-56,42,-153,-189,-307,-121,87,-152,-124,-115,-46,-4,-96,6,-325,-279,-417
29492,-87,258,265,-518,-185,198,-604,-73,161,-24,-210,-49,228,-86,281,-217,-63,-130,-164,-285,-104,9,-129,-93,-91,-28,25,-57,42,-301,-262,-513
