,Fp1,Fp2,F7,F3,Fz,F4,F8,FC5,FC1,FC2,FC6,T7,C3,Cz,C4,T8,TP9,CP5,CP1,CP2,CP6,TP10,P7,P3,Pz,P4,P8,PO9,O1,Oz,O2,PO10
40757,144,224,354,39,88,307,22,274,-108,-147,142,207,405,8,5,31,-39,166,-80,3,-321,34,497,447,-203,-19,222,-45,215,66,-243,-174
40758,139,248,345,-3,83,315,57,248,-124,-149,151,188,431,1,16,33,-53,194,-74,3,-310,45,492,461,-186,13,246,-2,237,78,-240,-170
40759,174,282,343,-1,96,309,67,216,-135,-149,135,146,405,11,17,22,-64,163,-75,4,-309,59,449,450,-181,6,222,9,239,73,-219,-166
40760,184,252,285,-38,83,231,-18,166,-141,-171,95,129,370,-1,16,-14,-78,127,-87,-9,-333,26,394,432,-208,-20,121,-20,198,64,-226,-194
40761,225,246,314,-59,81,241,-18,171,-142,-168,78,144,391,7,-2,-32,-103,120,-86,3,-351,0,386,439,-220,-30,78,-47,165,30,-260,-239
40762,261,247,322,-56,91,289,50,196,-131,-150,108,112,405,29,-9,-27,-105,134,-78,0,-340,2,361,419,-200,-12,80,-21,160,22,-274,-294
40763,238,203,270,-57,96,293,38,186,-126,-179,89,13,383,46,-23,-47,-132,115,-100,1,-380,0,307,381,-231,-35,52,-72,127,-9,-292,-324
40764,196,185,197,-54,100,281,-50,183,-123,-195,52,-49,363,20,-39,-75,-146,61,-123,-21,-431,-44,281,362,-259,-66,9,-102,104,-47,-357,-372
40765,124,157,118,-49,86,281,-80,175,-134,-184,48,-39,353,-3,-50,-104,-153,35,-133,-45,-454,-98,260,340,-262,-110,-39,-121,103,-72,-394,-402
40766,123,170,100,-39,79,259,-97,200,-128,-178,64,-47,358,5,-51,-154,-217,65,-147,-60,-465,-156,261,346,-271,-138,-62,-133,81,-100,-418,-389
40767,114,200,34,-10,92,267,-89,271,-115,-193,65,-49,349,8,-64,-182,-305,36,-148,-68,-493,-229,245,324,-297,-152,-95,-180,26,-156,-494,-443
40768,133,223,62,12,114,269,-56,306,-114,-189,75,-34,368,-6,-52,-180,-330,29,-158,-71,-495,-177,269,299,-316,-192,-93,-223,-10,-182,-532,-440
40769,129,172,143,3,127,307,-195,244,-117,-163,121,1,362,12,-38,-150,-272,43,-148,-60,-465,-147,289,284,-325,-175,-75,-231,-11,-198,-531,-487
40770,126,130,162,-6,108,328,-364,200,-121,-168,101,-44,326,29,-2,-134,-252,-20,-165,-59,-452,-156,231,268,-318,-170,-32,-286,-31,-220,-533,-504
40771,90,137,166,-1,86,329,-280,182,-119,-145,50,-48,327,4,2,-71,-292,0,-156,-54,-423,-139,244,251,-312,-190,-32,-260,-29,-218,-533,-425
40772,118,188,213,14,98,268,88,251,-125,-167,44,-53,352,-19,-25,28,-245,18,-172,-63,-422,-119,229,278,-324,-178,-99,-117,22,-163,-528,-422
40773,149,145,240,29,100,233,98,232,-132,-205,47,-37,336,-22,-35,-7,-231,4,-185,-81,-445,-93,214,278,-332,-202,-131,-101,16,-154,-522,-367
40774,151,67,223,-16,97,327,-133,-21,-164,-171,69,-57,296,-23,-20,-144,-271,-33,-201,-93,-492,-92,193,235,-367,-252,-138,-180,-21,-214,-551,-384
40775,139,111,173,-57,106,325,-97,-144,-164,-176,65,-127,280,-18,-32,-254,-271,-32,-208,-91,-495,-46,190,250,-355,-215,-106,-183,5,-190,-515,-324
40776,144,225,222,-17,117,276,11,216,-120,-173,75,-94,343,32,-22,-105,-237,5,-161,-47,-445,32,214,306,-305,-163,-25,-170,27,-138,-444,-212
40777,102,233,218,-12,99,294,-4,257,-125,-190,39,-81,353,26,-1,-45,-166,-21,-153,-34,-426,8,197,308,-305,-164,-24,-167,42,-148,-445,-279
40778,123,192,187,-46,108,302,-75,191,-120,-180,95,-109,338,35,11,-73,-149,-12,-132,-18,-430,-38,199,327,-266,-133,-32,-133,86,-121,-454,-389
40779,134,192,189,-45,105,301,-36,175,-132,-161,156,-128,364,34,3,-50,-183,18,-124,-34,-426,-90,248,351,-262,-105,-6,-103,99,-73,-424,-338
40780,70,153,175,1,94,280,-29,211,-112,-183,124,-103,400,18,10,-67,-205,24,-135,-38,-430,-45,258,347,-252,-97,20,-101,113,-55,-374,-289
40781,34,153,187,0,130,225,-41,278,-92,-192,95,-49,424,17,-1,-59,-175,71,-103,-30,-407,11,284,364,-237,-59,36,-98,116,-86,-387,-308
40782,48,98,123,-19,85,205,-98,211,-130,-235,76,19,380,-7,-37,-81,-175,78,-119,-29,-420,5,277,359,-243,-54,59,-100,110,-81,-358,-326
40783,126,89,133,-31,78,217,-52,185,-118,-203,96,-2,391,11,-5,-39,-71,63,-100,2,-390,87,303,383,-224,-16,89,-50,164,6,-273,-263
40784,179,104,228,-60,70,230,-47,192,-120,-200,101,27,390,37,-4,-17,-85,29,-83,23,-360,116,351,402,-181,12,111,-20,218,45,-254,-219
40785,158,152,276,-58,68,233,-41,179,-121,-168,127,100,411,52,13,-33,-135,118,-65,51,-329,123,399,435,-143,38,109,-19,256,80,-235,-241
40786,188,287,346,-58,83,265,0,183,-130,-134,176,72,407,56,56,-13,-103,122,-67,67,-306,134,405,446,-122,74,129,-58,265,95,-222,-201
40787,179,338,321,-79,81,296,-10,193,-126,-132,201,-16,399,41,53,58,-78,122,-59,86,-281,117,422,458,-103,92,128,-45,271,97,-225,-240
40788,166,193,233,-79,72,311,1,167,-155,-148,168,22,378,14,53,142,-100,134,-75,87,-260,95,430,446,-95,98,121,-49,251,76,-252,-288
40789,166,87,195,-67,84,328,-23,235,-135,-140,165,94,392,38,59,105,-78,105,-45,107,-239,109,437,468,-59,141,141,-36,277,99,-185,-217
40790,156,94,234,-15,91,320,-37,234,-111,-135,172,-90,412,34,78,-4,-107,107,-46,107,-269,37,383,482,-51,134,108,-74,264,87,-181,-211
40791,134,129,238,-33,70,325,-4,149,-133,-139,170,-157,384,23,68,-146,-116,98,-45,106,-304,38,352,468,-61,135,79,-49,264,69,-223,-290
40792,68,110,152,-66,64,288,-21,168,-133,-137,166,74,393,51,75,-23,-125,152,-24,120,-278,80,384,506,-41,150,109,36,341,142,-194,-272
40793,63,138,112,-26,57,265,-37,235,-138,-158,143,65,385,61,76,54,-59,99,-28,124,-253,61,363,485,-34,151,127,67,364,178,-161,-196
40794,130,193,151,-15,50,280,-28,235,-135,-143,151,89,394,78,90,41,-79,86,-24,157,-215,61,397,490,-9,189,149,56,362,178,-125,-154
40795,206,205,158,-11,61,273,-37,225,-136,-164,171,85,386,77,87,3,-142,132,-20,133,-231,20,472,501,-10,191,136,29,350,124,-181,-292
40796,198,163,180,-27,55,296,-38,217,-137,-144,177,39,381,73,94,-13,-124,94,-25,132,-239,82,430,489,-27,168,144,-28,332,130,-160,-254
40797,157,104,180,-51,58,266,-74,184,-132,-143,141,-11,363,65,86,-38,-160,51,-40,127,-253,93,403,448,-44,154,146,-62,268,111,-174,-237
40798,156,100,226,-103,47,243,-87,102,-147,-155,88,-15,338,62,62,-9,-214,52,-60,98,-262,63,357,416,-55,145,132,-107,222,78,-207,-261
40799,151,193,270,-87,50,234,-60,105,-148,-137,71,-7,337,77,41,25,-220,49,-63,109,-274,40,330,416,-50,143,104,-110,216,46,-241,-288
40800,164,211,271,-107,65,241,-86,91,-154,-143,95,-12,330,58,53,10,-180,34,-73,97,-282,29,336,409,-58,128,114,-88,192,48,-247,-277
40801,125,163,249,-115,52,252,-220,75,-145,-155,105,-8,314,63,35,-40,-220,21,-86,90,-307,4,316,380,-90,101,115,-135,159,40,-248,-319
40802,84,107,176,-139,34,306,-381,35,-167,-141,89,-39,314,50,40,-55,-284,5,-72,77,-325,-25,285,356,-100,82,106,-222,116,-30,-306,-307
40803,120,71,193,-112,51,354,-255,66,-155,-125,69,-143,321,76,36,-38,-292,19,-64,63,-330,-52,286,367,-120,56,82,-206,123,-33,-335,-296
40804,162,96,212,-50,57,280,56,88,-132,-161,42,-134,332,70,7,-29,-265,26,-79,62,-350,-65,295,365,-125,36,67,-174,123,-35,-342,-346
40805,182,162,250,-32,46,128,200,91,-135,-231,44,-50,320,51,-22,32,-221,10,-83,58,-336,-27,285,356,-137,32,83,-128,129,-33,-333,-319
40806,189,191,238,-57,60,234,12,120,-133,-188,95,-80,308,62,19,23,-228,-19,-82,69,-337,6,247,355,-137,25,86,-128,131,-47,-342,-289
40807,140,192,159,-54,58,224,-3,117,-142,-165,71,-87,351,86,22,54,-288,16,-72,73,-319,31,295,378,-121,41,132,-122,156,-25,-310,-280
40808,101,151,111,-111,29,163,-54,-80,-144,-169,24,-67,339,78,12,126,-280,50,-68,60,-320,7,324,379,-125,47,136,-149,159,-30,-290,-290
40809,61,143,66,-93,17,161,-50,-1,-126,-176,59,-180,350,76,8,114,-265,50,-69,52,-331,2,283,394,-134,51,69,-121,164,-22,-302,-304
40810,43,173,43,-51,57,198,-32,212,-119,-164,78,-105,342,45,16,39,-277,-12,-101,36,-361,10,228,354,-167,9,21,-157,125,-46,-328,-305
40811,63,181,64,-19,78,229,-19,192,-125,-165,104,-73,336,41,6,-150,-272,-27,-113,18,-373,0,209,325,-207,-13,29,-136,129,-64,-328,-304
40812,126,214,82,-9,90,256,-4,189,-115,-147,126,-76,341,33,-9,-215,-237,-13,-125,10,-394,29,210,317,-196,-41,29,-119,125,-54,-331,-309
40813,109,199,66,-19,101,249,-11,200,-96,-161,102,-47,341,38,-1,-76,-197,-15,-145,26,-381,47,215,301,-213,-36,50,-160,122,-57,-305,-306
40814,61,167,48,-18,75,258,-39,193,-110,-155,118,-49,347,55,31,-6,-211,-14,-133,41,-345,60,247,331,-182,-5,70,-122,155,-24,-279,-258
40815,104,185,65,-12,71,270,-10,173,-119,-147,141,-76,350,53,48,9,-240,7,-113,52,-334,87,305,345,-161,5,92,-77,193,8,-237,-272
40816,88,181,99,-7,74,279,10,138,-119,-157,160,-30,326,44,57,-4,-219,13,-117,52,-323,82,345,342,-151,40,118,-49,216,19,-234,-257
40817,68,165,141,-5,61,257,-19,132,-124,-169,135,-62,326,32,32,-52,-227,-10,-133,34,-326,22,310,311,-187,7,86,-159,177,-25,-296,-278
40818,100,153,170,-46,60,276,-41,188,-124,-154,140,-61,353,56,38,-45,-214,17,-117,29,-340,-3,288,326,-187,-9,46,-167,164,-45,-306,-306
40819,56,32,150,-89,51,252,-101,168,-138,-166,102,-154,334,26,23,-53,-197,-3,-139,20,-343,0,215,309,-193,-27,57,-154,149,-36,-312,-320
40820,82,-26,212,-81,52,248,-121,154,-148,-166,81,-180,311,31,1,-31,-207,-87,-141,24,-340,-37,179,271,-197,-20,76,-145,159,-30,-333,-337
40821,94,15,217,-31,58,239,-114,145,-133,-175,75,-107,305,47,5,-48,-285,-58,-128,31,-341,-56,243,288,-201,-8,47,-165,149,-48,-335,-345
40822,103,118,170,-84,39,209,-124,145,-120,-191,61,-13,322,50,-23,-108,-299,-29,-130,20,-372,-51,241,277,-219,-58,1,-166,131,-75,-369,-383
40823,99,193,185,-50,47,215,-132,141,-111,-178,63,-28,342,40,-24,-71,-263,-39,-124,15,-369,-63,238,283,-212,-70,-25,-166,134,-73,-365,-359
40824,150,186,244,-34,58,240,-99,150,-106,-155,96,-67,357,54,-2,38,-229,-12,-120,34,-341,-87,248,309,-197,-30,-11,-189,127,-81,-380,-352
40825,180,174,247,-63,39,235,-99,143,-135,-176,54,-190,355,47,15,24,-184,-5,-107,40,-355,-104,265,324,-189,-35,-31,-151,121,-100,-399,-409
40826,159,155,192,-97,41,242,-79,155,-127,-180,13,-48,352,67,32,-13,-162,1,-72,71,-316,-66,312,359,-145,-4,8,-98,139,-72,-358,-357
40827,117,120,188,-91,43,262,-94,137,-112,-182,37,50,384,74,47,-155,-183,44,-72,88,-313,-10,330,383,-125,9,26,-92,146,-39,-346,-351
40828,100,108,194,-83,56,245,-183,129,-121,-179,36,21,376,61,28,-134,-222,57,-76,70,-351,-57,298,346,-142,-6,12,-160,119,-52,-355,-378
40829,81,95,173,-69,39,280,-380,118,-139,-158,72,3,369,47,33,-72,-233,56,-82,48,-339,-126,290,348,-151,-25,-10,-183,81,-63,-394,-386
40830,116,16,191,-45,52,355,-352,168,-122,-123,109,36,387,60,73,-85,-152,60,-60,75,-331,-114,300,400,-133,3,-4,-134,104,-48,-383,-383
40831,113,-50,170,-59,55,369,-164,158,-136,-117,83,7,372,58,71,-49,-90,-9,-79,82,-333,-101,247,374,-145,6,3,-140,101,-78,-378,-404
40832,80,-13,92,-27,58,219,124,223,-118,-168,67,-11,399,58,29,-32,-176,60,-42,68,-311,-50,314,406,-118,25,55,-102,138,-45,-346,-391
40833,70,35,61,0,71,213,-29,274,-73,-162,49,-69,421,67,40,-68,-203,74,-20,68,-330,-66,324,414,-114,41,73,-114,121,-38,-314,-372
40834,52,64,31,-20,35,228,-94,158,-85,-180,35,-38,390,52,11,-131,-229,52,-57,59,-352,-80,294,375,-139,-12,16,-149,81,-79,-344,-373
40835,28,62,58,-19,28,201,-134,153,-117,-178,25,-3,383,49,-12,-198,-341,66,-82,35,-361,-55,307,353,-177,-14,1,-176,72,-78,-347,-326
40836,69,84,123,7,37,181,-155,191,-98,-168,36,-18,387,56,4,-203,-262,42,-91,35,-377,-56,355,353,-166,-14,46,-183,82,-87,-347,-294
40837,122,140,191,-19,53,195,-147,50,-108,-160,46,-13,378,55,10,-171,-228,59,-80,35,-371,-43,372,347,-186,-32,79,-217,67,-94,-337,-278
40838,121,192,231,-72,60,212,-106,-75,-119,-166,67,-51,379,64,7,-117,-222,78,-86,25,-364,-12,358,365,-188,-5,100,-171,98,-45,-294,-275
40839,86,131,141,-45,51,171,-113,187,-123,-188,7,-22,372,47,-19,-101,-223,44,-94,15,-362,18,321,362,-200,-10,148,-164,98,-46,-293,-232
40840,10,24,37,-62,42,165,-170,213,-137,-194,-47,-28,373,35,-36,-115,-223,16,-92,3,-367,2,259,342,-207,-20,126,-151,87,-80,-294,-296
40841,43,30,55,-54,53,178,-182,167,-121,-194,-63,-51,374,66,-18,-114,-205,27,-75,24,-349,-5,251,357,-168,12,126,-127,83,-81,-314,-358
40842,72,48,148,-75,31,176,-171,143,-119,-197,-37,-38,353,64,-25,-130,-216,30,-55,24,-336,-15,244,367,-156,22,138,-167,66,-86,-304,-329
40843,94,82,153,-81,23,175,-136,118,-123,-178,21,-7,349,81,-1,-86,-222,31,-57,57,-297,-38,245,367,-136,52,148,-211,51,-94,-307,-349
40844,83,96,136,-102,16,180,-145,80,-131,-180,14,-35,357,94,23,-43,-201,35,-63,95,-255,-58,252,370,-115,94,209,-195,57,-68,-279,-287
40845,52,121,154,-130,11,154,-156,66,-154,-202,10,-89,348,88,5,-92,-231,4,-50,84,-278,-81,205,369,-110,76,190,-225,29,-74,-304,-321
40846,36,93,164,-122,-15,161,-172,45,-143,-202,25,-257,343,71,16,-102,-261,3,-48,79,-270,-43,194,352,-115,72,197,-249,18,-133,-334,-399
40847,80,18,98,-133,10,169,-229,86,-143,-200,14,-234,363,93,12,-104,-251,22,-63,90,-259,-7,181,364,-104,91,226,-229,24,-87,-273,-371
40848,81,-37,53,-106,3,150,-266,123,-119,-189,-37,-134,342,61,-10,-139,-248,-32,-80,82,-307,-31,165,340,-121,80,166,-258,6,-114,-300,-349
40849,77,-47,90,-92,5,169,-266,91,-132,-212,-65,-184,330,56,-16,-58,-260,-75,-103,68,-306,-62,197,315,-138,53,132,-285,-16,-110,-349,-378
40850,10,-10,4,-95,8,161,-214,27,-141,-212,-25,-146,316,46,-17,-67,-366,-31,-100,26,-354,-169,212,305,-164,14,27,-315,-32,-150,-370,-464
40851,-12,-4,-134,-101,14,166,-203,43,-157,-230,-43,-107,280,42,-22,-160,-356,-61,-128,12,-379,-233,184,294,-187,9,-16,-309,-8,-133,-389,-529
40852,-15,-94,-78,-117,21,141,-298,119,-155,-228,-66,-88,298,39,-21,-290,-331,-81,-122,26,-355,-191,188,284,-191,24,41,-296,7,-122,-385,-463
40853,-52,-127,-12,-109,25,133,-342,153,-144,-217,-52,-132,324,62,-24,-302,-373,-42,-104,24,-353,-144,217,303,-186,15,77,-303,18,-138,-357,-482
40854,-25,-62,80,-122,12,145,-293,-19,-141,-203,-26,-182,300,80,-10,-59,-388,-47,-106,22,-330,-138,205,273,-214,5,88,-355,-26,-165,-374,-539
40855,-16,-2,90,-103,7,153,-266,-98,-164,-202,-17,-139,268,58,-28,-45,-356,-107,-150,-1,-332,-181,149,227,-249,-40,38,-424,-60,-198,-420,-524
40856,-31,-40,88,-93,2,199,-278,157,-172,-230,-41,-209,260,51,-70,-121,-372,-176,-179,-36,-369,-231,92,165,-303,-95,-9,-425,-98,-253,-480,-540
40857,-30,-89,92,-108,8,231,-258,159,-155,-219,-48,-201,269,37,-73,-82,-420,-145,-183,-65,-409,-216,121,163,-326,-114,-42,-367,-104,-244,-479,-533
40858,-43,-48,66,-119,18,223,-226,68,-147,-204,-44,-231,266,68,-70,-96,-415,-124,-192,-71,-422,-184,112,178,-329,-132,-32,-340,-89,-260,-483,-552
40859,-10,53,77,-97,23,254,-245,76,-130,-201,-2,-241,273,76,-55,-149,-384,-110,-175,-56,-414,-143,107,199,-297,-121,-27,-277,-64,-225,-451,-482
40860,-17,50,41,-110,38,280,-453,22,-141,-188,43,-168,271,57,-58,-332,-357,-113,-176,-72,-463,-109,83,166,-309,-150,-78,-251,-84,-195,-468,-486
40861,-6,-19,-21,-175,20,317,-432,1,-180,-179,16,-174,237,43,-64,-288,-358,-188,-212,-98,-501,-85,19,113,-325,-182,-119,-283,-131,-244,-478,-499
40862,33,-86,30,-174,14,317,-178,3,-174,-166,36,-151,247,33,-36,-124,-412,-147,-191,-90,-446,-61,66,139,-297,-147,-52,-287,-104,-239,-443,-469
40863,59,-29,154,-155,2,156,133,28,-158,-218,45,-107,270,41,-75,-106,-348,-89,-171,-62,-400,-29,148,172,-277,-115,-21,-196,-56,-166,-396,-391
40864,83,64,225,-150,9,189,29,39,-167,-220,88,-85,289,43,-46,-83,-297,-102,-162,-50,-390,16,169,196,-262,-91,6,-194,-29,-138,-372,-334
40865,115,119,194,-124,37,228,0,43,-170,-191,121,-110,290,44,-25,-50,-288,-83,-170,-31,-374,15,216,197,-256,-81,23,-165,-26,-149,-372,-365
40866,99,64,124,-106,36,210,-6,78,-154,-185,124,-80,327,54,-17,-32,-234,-47,-132,-22,-356,15,245,237,-227,-84,32,-119,-10,-133,-350,-385
40867,55,-13,144,-126,18,196,-49,81,-152,-180,93,-110,334,40,-18,-49,-266,-53,-150,-17,-362,-9,186,234,-233,-73,25,-124,-18,-140,-382,-368
40868,-40,-23,98,-83,24,135,-87,97,-143,-215,-12,-305,313,40,-46,-94,-299,-90,-149,-23,-399,-43,100,196,-273,-100,4,-188,-65,-205,-406,-371
40869,-7,-30,11,-104,33,120,-60,56,-158,-221,15,-279,239,45,-77,-94,-278,-167,-159,-52,-396,-71,68,172,-292,-129,-20,-197,-113,-233,-416,-395
40870,-18,-39,-3,-113,32,100,-127,70,-145,-222,11,-140,274,57,-72,-116,-335,-117,-160,-59,-414,-91,83,174,-295,-119,-30,-216,-128,-241,-468,-437
40871,26,34,-43,-81,39,96,-204,199,-132,-230,-27,-125,316,60,-77,-133,-386,-90,-153,-63,-419,-124,76,179,-294,-124,-37,-291,-163,-300,-502,-480
40872,31,101,-87,-92,24,118,-176,147,-131,-241,-34,-201,291,45,-70,-140,-333,-130,-177,-68,-411,-126,5,153,-302,-139,-15,-328,-201,-349,-532,-424
40873,4,140,-92,-89,32,121,-224,114,-137,-229,-27,-199,279,45,-68,-142,-289,-150,-160,-56,-409,-127,7,146,-289,-124,-20,-290,-177,-331,-518,-452
40874,-4,92,-82,-120,21,149,-284,95,-133,-236,-36,-203,261,38,-90,-184,-345,-202,-183,-77,-408,-181,-1,122,-315,-142,-42,-317,-232,-395,-602,-553
40875,-11,-27,-9,-138,14,131,-245,34,-127,-251,-53,-219,246,27,-83,-198,-439,-214,-211,-82,-422,-226,1,113,-329,-134,-57,-345,-232,-426,-617,-582
40876,6,-55,6,-149,32,130,-206,16,-141,-247,-21,-292,236,49,-84,-174,-463,-192,-210,-67,-411,-247,19,109,-320,-125,-47,-362,-259,-419,-589,-574
40877,11,-77,75,-163,37,172,-164,-7,-154,-211,13,-245,212,66,-59,-153,-486,-208,-207,-59,-376,-193,-11,114,-322,-104,-40,-371,-252,-411,-575,-542
40878,-69,-123,57,-151,36,160,-234,-50,-162,-210,-41,-136,210,59,-66,-194,-505,-225,-222,-66,-376,-191,-28,99,-327,-103,-24,-427,-253,-423,-550,-484
40879,-82,-126,35,-109,19,133,-272,-31,-153,-217,-65,-197,225,43,-74,-228,-487,-208,-208,-55,-400,-250,-6,115,-311,-124,-36,-409,-247,-403,-578,-506
40880,-70,-59,113,-93,35,160,-234,-26,-164,-212,4,-268,220,25,-53,-206,-486,-198,-198,-57,-398,-253,-8,135,-292,-119,-43,-405,-252,-402,-592,-587
40881,-8,-3,158,-95,43,187,-195,-11,-176,-200,40,-318,222,35,-31,-170,-431,-178,-206,-53,-359,-253,28,156,-284,-91,-25,-424,-214,-371,-551,-527
40882,31,52,122,-107,57,229,-137,0,-166,-177,87,-287,234,54,-3,-134,-376,-166,-186,-15,-332,-219,77,182,-270,-51,8,-396,-152,-307,-474,-456
40883,8,-12,75,-117,25,204,-179,2,-174,-195,56,-264,221,23,-18,-123,-401,-192,-200,-45,-359,-239,53,178,-292,-70,-52,-428,-169,-319,-515,-585
40884,-10,11,39,-128,21,219,-178,-4,-189,-165,43,-216,251,21,-26,-133,-453,-152,-203,-42,-380,-224,68,171,-299,-86,-71,-477,-209,-352,-519,-570
40885,26,66,70,-115,54,255,-120,-109,-158,-147,90,-189,275,54,8,-108,-379,-134,-169,-16,-342,-166,76,216,-264,-65,-31,-437,-141,-312,-481,-519
40886,76,79,91,-137,69,248,-141,-169,-161,-167,74,-161,275,48,-1,-96,-384,-116,-160,-15,-336,-170,99,212,-265,-57,-8,-377,-102,-280,-462,-513
40887,102,88,110,-107,57,251,-136,77,-166,-175,67,-191,258,19,-1,-90,-400,-109,-179,-25,-339,-137,118,205,-277,-65,0,-334,-110,-280,-476,-489
40888,69,89,130,-95,50,250,-133,97,-160,-155,78,-137,251,25,19,20,-329,-109,-174,-19,-317,-125,123,210,-255,-57,9,-337,-97,-266,-459,-459
40889,59,111,101,-82,51,247,-87,77,-155,-143,122,-106,283,39,53,139,-294,-84,-144,16,-273,-126,159,242,-230,-11,60,-273,-53,-227,-431,-414
40890,140,122,102,-80,57,226,-56,99,-157,-136,170,-52,306,27,63,136,-272,-38,-128,24,-235,-127,211,271,-206,26,82,-256,-27,-209,-393,-399
40891,175,139,160,-65,84,281,-5,146,-145,-93,236,-67,326,46,112,125,-218,-18,-104,76,-176,-48,249,306,-155,55,113,-239,11,-149,-330,-376
40892,178,115,220,-74,78,319,-27,179,-146,-104,227,-73,317,73,111,-11,-209,-15,-75,92,-171,28,244,308,-121,89,140,-208,55,-110,-303,-357
40893,153,42,189,-74,64,368,-214,149,-155,-91,221,-68,316,59,119,38,-250,-16,-87,86,-177,55,262,313,-139,77,154,-180,64,-81,-282,-322
40894,141,62,164,-81,60,407,-237,148,-147,-84,222,-84,320,58,116,-47,-220,-34,-89,76,-229,91,236,310,-148,49,146,-183,59,-119,-321,-304
40895,124,134,127,-62,61,375,-25,196,-140,-90,175,-65,330,84,102,22,-206,-8,-85,76,-234,94,245,302,-146,64,132,-199,50,-129,-328,-312
40896,88,170,175,-17,54,222,274,267,-125,-129,132,2,361,84,53,134,-196,56,-66,51,-217,118,317,335,-147,60,140,-209,62,-118,-338,-314
40897,47,150,126,17,74,249,108,382,-122,-147,169,3,371,52,62,72,-177,26,-82,53,-232,80,257,332,-169,46,132,-183,84,-97,-344,-323
40898,127,143,96,69,93,349,32,399,-96,-120,186,10,392,87,77,99,-101,30,-80,53,-230,71,210,333,-178,48,138,-186,65,-117,-331,-254
40899,190,191,195,36,88,345,41,315,-116,-120,198,32,384,75,85,101,-30,43,-90,65,-220,104,226,348,-164,47,160,-160,110,-84,-300,-232
40900,203,249,256,71,74,343,81,314,-93,-118,217,76,409,81,98,114,-130,92,-59,81,-207,119,302,373,-146,58,136,-118,125,-52,-295,-223
40901,253,273,350,80,91,376,84,316,-110,-95,227,110,455,85,103,107,-168,131,-37,93,-193,149,324,402,-127,72,123,-96,125,-57,-294,-250
40902,275,256,399,31,112,369,73,267,-106,-101,225,3,421,70,92,79,-97,107,-43,98,-222,145,293,401,-118,75,132,-90,135,-54,-281,-246
40903,259,246,352,21,91,360,85,231,-103,-107,218,-186,413,67,107,75,-121,90,-53,73,-215,131,259,385,-121,82,116,-119,143,-36,-275,-224
40904,234,213,329,42,69,360,123,188,-111,-125,167,-238,367,55,82,63,-145,-5,-80,49,-244,54,244,346,-149,48,93,-140,110,-57,-281,-198
40905,308,263,330,36,60,340,123,233,-111,-124,193,185,362,90,81,88,-117,20,-86,65,-249,69,322,367,-139,51,83,-99,117,-65,-305,-275
40906,340,259,344,25,82,353,79,253,-112,-110,241,109,379,85,77,83,-109,48,-67,79,-233,106,330,362,-148,36,71,-100,129,-57,-314,-286
