,Fp1,Fp2,F7,F3,Fz,F4,F8,FC5,FC1,FC2,FC6,T7,C3,Cz,C4,T8,TP9,CP5,CP1,CP2,CP6,TP10,P7,P3,Pz,P4,P8,PO9,O1,Oz,O2,PO10
81492,373,148,386,196,-50,447,-16,593,13,-154,168,-173,106,-192,74,155,52,-76,-16,-28,-38,244,168,111,-105,32,277,32,35,21,44,-60
81493,320,117,298,155,-73,459,79,565,7,-169,129,-173,127,-185,97,158,1,-64,-35,-36,-54,246,169,112,-100,46,259,29,58,36,60,-33
81494,303,90,299,103,-81,395,-39,533,36,-154,82,-226,153,-175,178,121,-16,-59,-32,-20,-46,206,147,88,-100,19,193,-8,59,35,54,-10
81495,367,129,417,176,-41,409,2,614,51,-157,198,-247,206,-173,36,222,9,-64,-23,-47,-73,194,182,116,-88,26,210,50,90,71,89,-11
81496,332,100,323,172,-57,406,-50,657,47,-175,112,-158,199,-160,-10,141,-22,-32,-2,-61,-119,197,203,140,-72,21,171,126,171,142,111,-27
81497,317,63,306,160,-84,366,-107,574,11,-160,47,-186,123,-172,37,55,-22,-79,-31,-69,-103,159,206,134,-79,30,152,185,220,157,77,-80
81498,267,3,292,164,-98,338,-157,617,27,-192,30,-297,157,-164,24,34,-6,-62,-44,-79,-92,150,210,115,-85,27,171,166,236,149,62,-100
81499,268,-14,283,154,-110,330,-148,613,20,-205,4,-288,152,-188,39,-1,-67,-87,-72,-110,-160,117,142,63,-151,-38,85,5,57,2,-42,-128
81500,287,16,312,155,-101,335,-118,569,34,-184,-24,-233,97,-205,38,4,-64,-147,-118,-126,-250,115,109,2,-207,-82,64,-119,-88,-141,-110,-149
81501,268,10,311,154,-115,342,-163,556,13,-211,-20,-242,82,-201,31,-15,-59,-178,-127,-89,-176,126,91,-3,-181,-39,97,-98,-83,-95,-68,-141
81502,297,52,283,158,-93,388,-87,501,16,-213,83,-303,127,-196,-29,-44,-51,-201,-116,-101,-161,105,31,-6,-168,-42,110,-75,-82,-55,-48,-93
81503,308,42,291,161,-84,407,-108,474,36,-183,55,-340,203,-205,-2,-17,-79,-183,-101,-101,-175,97,70,-1,-161,-43,93,-79,-23,-27,-35,-116
81504,293,19,307,154,-84,392,-65,647,-3,-175,68,-263,93,-226,24,-26,-66,-169,-110,-97,-187,108,108,30,-159,-30,105,-75,30,-3,-21,-117
81505,329,22,338,187,-69,400,-124,714,2,-157,139,-255,43,-183,56,-70,-45,-115,-100,-73,-168,68,137,56,-144,-29,111,-10,41,17,-6,-110
81506,259,-23,228,162,-116,360,-153,577,15,-183,84,-262,117,-215,19,-48,-86,-141,-100,-95,-193,27,79,18,-175,-42,102,-11,-31,-54,-39,-115
81507,264,-8,254,178,-104,357,-117,674,48,-202,31,-259,150,-214,-6,-23,-60,-123,-101,-87,-187,74,71,31,-162,-39,108,-53,-35,-54,-34,-151
81508,283,42,294,126,-106,364,-103,613,8,-204,-27,-264,129,-168,9,-36,-7,-98,-51,-58,-161,143,126,87,-97,-14,111,43,41,44,-10,-100
81509,236,12,282,87,-124,343,-114,493,0,-205,-41,-201,83,-158,33,-18,-37,-127,-62,-55,-144,84,117,73,-92,-19,91,48,63,42,-13,-117
81510,213,-31,287,108,-145,328,-196,535,-6,-210,-53,-250,86,-172,24,0,-63,-163,-81,-68,-173,58,93,40,-114,-46,80,58,64,24,-34,-135
81511,220,-39,296,115,-143,309,-198,511,0,-206,-62,-288,103,-165,17,35,-52,-135,-65,-71,-206,65,114,79,-102,-31,88,89,104,59,-15,-123
81512,259,-8,287,122,-126,310,-175,496,0,-198,-13,-239,115,-176,-11,49,-46,-117,-71,-80,-189,62,110,70,-112,-4,140,71,102,33,5,-122
81513,228,-10,174,96,-140,324,-156,455,-3,-209,-28,-331,103,-184,26,-67,-84,-205,-104,-95,-165,23,42,17,-160,-30,118,-5,15,-5,-32,-155
81514,233,-9,198,122,-128,336,-171,438,7,-200,-100,-383,144,-181,97,-100,-108,-208,-102,-74,-157,65,37,2,-173,-34,100,-58,-35,-48,-38,-123
81515,262,-21,247,147,-107,327,-209,560,10,-161,-47,-308,94,-184,137,-43,-121,-144,-105,-56,-110,98,67,27,-156,-23,109,-87,-11,-32,-30,-112
81516,260,-12,337,162,-105,304,-195,581,-10,-200,-102,-279,16,-194,75,-48,-43,-140,-105,-64,-127,84,133,75,-152,-21,108,-53,32,2,-18,-148
81517,209,-65,323,126,-129,290,-216,503,-25,-211,-91,-353,72,-188,70,-99,-55,-185,-111,-70,-143,12,85,40,-150,-36,117,-80,-5,-25,-38,-166
81518,251,-53,262,142,-117,319,-149,511,0,-234,121,-341,73,-212,-72,59,-117,-199,-126,-79,-110,51,37,37,-162,-26,190,-76,0,-5,-32,-142
81519,275,-18,246,116,-106,347,-142,532,-6,-203,88,-303,47,-190,28,-17,-141,-177,-109,-70,-115,95,84,36,-185,-20,174,-74,0,0,-19,-152
81520,269,-20,227,80,-115,292,-218,529,-12,-220,-17,-320,59,-204,1,-69,-145,-180,-117,-87,-140,45,89,34,-197,-33,76,-37,24,-3,-30,-146
81521,256,-33,248,99,-118,281,-241,511,-13,-224,-70,-344,82,-210,-14,-42,-139,-181,-107,-107,-149,-5,87,36,-196,-54,68,-46,47,32,-24,-158
81522,201,-40,150,64,-133,311,-219,475,-26,-217,-47,-391,74,-198,-6,-91,-191,-172,-94,-97,-80,9,97,53,-176,-11,177,-12,83,66,28,-98
81523,164,-52,120,57,-143,317,-211,497,-40,-214,-25,-311,65,-195,26,-160,-209,-156,-90,-77,-84,26,120,61,-159,6,177,-40,73,56,50,-40
81524,273,-16,253,105,-117,340,-164,538,-22,-197,41,-323,50,-200,47,-6,-161,-173,-108,-99,-262,16,95,26,-188,-88,3,-85,13,-8,-28,-140
81525,255,-6,193,110,-130,382,-119,572,-3,-172,80,-356,70,-189,44,41,-120,-181,-113,-127,-230,29,112,35,-194,-101,-42,-57,0,-39,-73,-262
81526,242,-4,197,134,-122,372,-125,541,-26,-183,38,-377,42,-214,26,-87,-180,-209,-143,-142,-240,22,-11,-28,-230,-116,-19,-125,-79,-102,-126,-287
81527,199,-38,181,90,-119,380,-243,443,-20,-169,26,-310,20,-235,101,-160,-151,-200,-154,-140,-218,14,-5,-27,-265,-99,-5,-79,-85,-163,-152,-291
81528,238,-15,242,131,-107,361,-189,532,3,-178,-28,-303,97,-219,77,-21,-63,-140,-121,-131,-207,-2,57,0,-228,-80,5,-32,-47,-173,-165,-307
81529,261,-1,256,155,-93,325,-161,582,22,-200,7,-270,88,-222,0,-40,-20,-110,-108,-135,-238,5,103,22,-204,-87,-1,75,20,-90,-119,-282
81530,267,20,268,166,-90,354,-117,604,7,-212,21,-233,66,-218,-14,-45,-3,-136,-101,-104,-147,64,171,72,-155,-21,80,194,143,10,-35,-227
81531,285,58,185,172,-78,391,-101,600,15,-179,47,-256,120,-193,74,-66,-35,-101,-63,-54,-99,128,180,100,-140,15,115,177,188,69,17,-176
81532,310,67,280,171,-71,399,-56,627,24,-182,29,-224,125,-189,104,15,-48,-66,-60,-32,-71,117,192,107,-122,28,134,98,171,57,50,-144
81533,318,76,350,154,-74,433,-33,571,19,-162,112,-249,96,-194,132,145,7,-83,-50,-5,-58,144,176,98,-115,53,199,5,147,75,86,-108
81534,344,100,318,187,-62,442,5,528,13,-171,181,-284,86,-222,70,180,31,-94,-74,-40,-116,150,143,61,-151,30,176,-47,13,-23,4,-131
81535,353,86,280,177,-59,395,-54,536,12,-192,77,-217,86,-229,51,154,36,-78,-108,-45,-109,193,97,59,-183,2,184,-107,-98,-116,-49,-153
81536,359,64,284,160,-77,407,-78,579,19,-200,71,-214,86,-224,67,118,-7,-127,-113,-55,-121,175,95,45,-172,16,155,-84,-69,-89,-40,-138
81537,308,73,325,183,-76,406,-76,615,29,-187,65,-289,115,-215,54,97,-48,-152,-102,-47,-131,159,74,53,-149,25,153,-84,-62,-81,-42,-174
81538,320,74,328,169,-71,393,-73,480,41,-197,39,-316,140,-213,71,93,-91,-148,-75,-37,-112,184,85,61,-122,4,136,-54,-14,-63,-7,-110
81539,307,50,307,166,-87,403,-95,420,36,-216,26,-325,86,-198,84,61,-124,-159,-65,-44,-136,178,63,50,-144,-10,120,-81,-33,-89,-46,-130
81540,297,15,234,172,-104,377,-135,537,17,-217,36,-284,78,-202,94,-29,-172,-157,-87,-66,-149,130,23,38,-150,-30,76,-128,-79,-138,-90,-223
81541,284,17,227,124,-107,374,-77,594,-2,-221,44,-295,97,-214,68,-63,-122,-118,-73,-48,-150,147,71,32,-137,-16,74,-83,-57,-106,-67,-176
81542,284,48,262,146,-83,386,-62,554,19,-218,21,-277,93,-191,82,22,-114,-103,-63,-49,-140,125,99,44,-132,-16,77,-40,-28,-80,-65,-183
81543,264,25,243,142,-89,382,-92,548,5,-224,92,-295,95,-195,-39,135,-126,-125,-93,-116,-186,178,91,44,-158,-67,113,-70,-33,-99,-85,-142
81544,293,21,246,160,-87,356,-107,549,17,-234,59,-302,82,-190,-37,71,-88,-140,-96,-121,-182,189,72,16,-189,-72,116,-72,-39,-86,-103,-184
81545,279,14,226,138,-77,348,-113,494,7,-215,-8,-334,82,-191,-33,-1,-133,-159,-120,-108,-179,124,82,14,-202,-98,72,-48,4,-71,-98,-214
81546,236,19,173,109,-91,336,-139,450,1,-210,5,-356,117,-189,-13,-65,-148,-188,-121,-121,-139,114,66,7,-207,-89,87,-89,-24,-89,-110,-203
81547,267,0,215,110,-113,301,-254,546,12,-227,-41,-340,127,-193,-19,-119,-103,-185,-119,-96,-75,111,58,4,-189,-63,170,-71,-33,-105,-111,-222
81548,293,33,282,115,-94,337,-204,586,7,-221,10,-275,-24,-207,-7,-94,-80,-201,-130,-110,-210,154,74,-15,-213,-85,55,-65,-78,-156,-116,-187
81549,288,49,234,112,-99,344,-167,538,-15,-201,67,-294,-13,-198,69,22,-83,-219,-131,-85,-222,149,72,-12,-215,-100,22,-63,-59,-147,-108,-131
81550,247,35,105,95,-108,363,-164,574,-6,-196,-37,-334,43,-182,86,63,-40,-185,-111,-46,-148,224,132,20,-171,-56,136,-66,-19,-78,-86,-151
81551,325,45,239,144,-99,341,-110,651,5,-211,-116,-394,65,-187,79,50,-36,-206,-113,-75,-187,211,70,29,-155,-65,49,-59,-9,-86,-94,-191
81552,278,39,280,101,-96,355,-118,470,-19,-206,-7,-352,39,-200,55,54,-68,-200,-121,-52,-158,171,41,21,-144,-26,84,-2,23,-47,-62,-224
81553,243,7,214,99,-104,382,-139,500,-6,-195,83,-377,72,-189,4,81,-81,-138,-70,-37,-125,166,110,60,-117,-15,68,-15,7,-63,-57,-162
81554,253,9,255,114,-107,339,-165,668,6,-242,-16,-317,116,-190,-14,-81,-95,-93,-54,-56,-156,141,130,74,-119,-32,39,35,34,-67,-59,-148
81555,277,57,275,136,-96,367,-78,573,14,-213,0,-259,79,-178,53,-115,-91,-145,-66,-33,-69,161,101,79,-122,1,94,42,66,-29,-39,-148
81556,245,20,267,148,-111,375,-106,486,6,-205,32,-307,67,-170,93,-88,-146,-180,-93,-53,-123,157,-3,47,-157,-18,75,-15,18,-82,-73,-181
81557,250,0,316,160,-104,406,-135,539,26,-199,83,-334,71,-178,67,63,-136,-191,-114,-78,-282,98,-50,0,-202,-90,5,-82,-66,-140,-126,-243
81558,247,-4,326,130,-113,416,-85,471,13,-213,55,-356,52,-204,-29,-54,-202,-244,-152,-142,-302,103,-90,-58,-244,-146,-20,-277,-221,-257,-188,-240
81559,232,-5,205,118,-109,406,-91,445,10,-204,5,-409,71,-216,-10,-73,-228,-267,-155,-145,-253,96,-111,-77,-227,-136,-10,-276,-250,-248,-165,-257
81560,264,4,250,161,-70,376,-138,544,57,-194,-9,-368,134,-194,-4,-50,-148,-197,-125,-120,-255,79,-71,-38,-213,-133,-11,-196,-181,-214,-160,-259
81561,266,14,263,154,-110,348,-149,534,8,-232,-54,-286,15,-238,-9,-55,-130,-268,-175,-157,-300,66,-59,-88,-237,-174,-57,-171,-136,-204,-184,-272
81562,254,9,221,138,-121,332,-180,509,-11,-226,-3,-342,21,-241,0,-31,-120,-258,-178,-160,-282,15,-26,-68,-237,-161,-58,-119,-91,-158,-176,-294
81563,233,-1,162,134,-104,317,-169,512,21,-262,-41,-378,113,-238,-105,9,-122,-228,-149,-154,-250,-13,29,-41,-200,-144,-42,-21,-52,-114,-127,-253
81564,214,-11,146,124,-122,319,-166,473,23,-241,-59,-406,152,-221,-33,-65,-190,-278,-149,-138,-245,-7,-39,-67,-232,-143,-42,-115,-88,-151,-139,-293
81565,211,-5,176,86,-109,351,-139,467,-24,-195,-77,-380,-3,-226,10,-84,-191,-261,-171,-132,-237,30,-56,-73,-241,-123,11,-172,-112,-146,-120,-260
81566,233,1,250,103,-127,347,-269,475,-32,-191,65,-331,-82,-227,37,27,-147,-223,-155,-105,-244,14,40,-37,-201,-105,11,-41,-68,-108,-106,-239
81567,219,-36,246,130,-123,304,-229,474,13,-225,-9,-377,52,-205,-11,-17,-126,-216,-144,-104,-258,-28,19,-28,-197,-104,-29,-102,-67,-117,-141,-285
81568,198,-46,218,139,-117,289,-174,413,20,-231,-71,-396,52,-199,0,-39,-152,-236,-139,-92,-230,14,-12,-19,-203,-97,7,-121,-79,-159,-140,-262
81569,167,-65,133,134,-129,265,-203,378,30,-254,-91,-384,57,-208,-4,-65,-169,-194,-150,-105,-221,-41,14,-23,-225,-95,9,-146,-107,-170,-137,-273
81570,185,-37,152,160,-118,288,-176,528,31,-242,-62,-326,58,-212,-2,-87,-161,-197,-149,-111,-208,-63,8,-48,-222,-95,43,-146,-128,-154,-124,-217
81571,183,-39,236,121,-147,302,-204,494,-9,-221,-26,-290,15,-203,33,-67,-112,-234,-158,-90,-206,-8,14,-62,-198,-85,25,-101,-94,-130,-113,-201
81572,197,-26,237,77,-130,321,-139,467,6,-194,23,-336,40,-196,47,-82,-80,-215,-147,-96,-201,-20,37,-37,-209,-79,5,-89,-96,-134,-103,-213
81573,264,-16,225,83,-109,329,-138,498,3,-224,-12,-353,60,-215,4,-48,-111,-192,-135,-114,-172,33,57,-11,-229,-64,54,-96,-77,-141,-78,-205
81574,237,-1,204,106,-120,333,-161,514,10,-250,-32,-315,88,-213,4,-31,-41,-171,-103,-117,-172,78,136,32,-200,-59,66,16,8,-74,-41,-160
81575,223,10,230,96,-115,353,-148,504,11,-221,-46,-335,86,-211,-4,41,-26,-190,-82,-118,-192,44,141,41,-199,-67,72,110,81,-20,-45,-187
81576,251,-10,266,124,-101,344,-161,479,8,-206,-49,-395,102,-214,2,-21,-123,-180,-110,-138,-229,0,87,30,-221,-106,31,27,16,-77,-105,-263
81577,193,-40,174,94,-145,308,-179,459,8,-236,-13,-462,145,-219,8,-114,-195,-173,-123,-164,-257,-25,33,3,-246,-134,-2,-23,0,-108,-123,-278
81578,185,-21,153,121,-134,314,-187,579,43,-249,-11,-443,126,-225,-98,-70,-163,-155,-120,-170,-289,0,70,28,-241,-152,-15,10,15,-83,-125,-262
81579,266,27,294,118,-105,360,-171,552,3,-220,-45,-262,-43,-235,-77,-110,-139,-164,-140,-152,-264,7,133,13,-236,-135,-7,-64,-56,-122,-119,-243
81580,281,6,325,122,-108,311,-225,481,-5,-213,-76,-221,16,-212,0,-220,-111,-164,-136,-124,-201,-14,159,-2,-211,-90,40,-64,-82,-127,-105,-191
81581,246,-5,232,98,-143,315,-198,495,2,-199,-45,-317,42,-221,82,-263,-143,-194,-149,-110,-163,-21,97,-2,-185,-58,80,-72,-100,-146,-125,-248
81582,276,32,245,122,-119,338,-145,484,17,-203,17,-299,35,-213,-61,-3,-106,-173,-123,-128,-345,66,93,24,-161,-118,-2,-43,-42,-118,-117,-220
81583,275,31,237,125,-108,346,-164,536,25,-215,44,-306,67,-199,-99,29,-117,-160,-107,-110,-299,80,104,39,-164,-110,-14,-87,-34,-89,-72,-181
81584,220,-23,205,98,-143,313,-177,526,-5,-202,-129,-370,39,-199,37,-151,-165,-195,-130,-88,-257,25,55,-3,-166,-86,-14,-163,-78,-119,-106,-204
81585,189,-74,161,76,-149,308,-245,498,-5,-178,-258,-388,50,-177,98,-247,-163,-208,-145,-81,-302,-16,22,-16,-180,-102,-34,-172,-90,-107,-110,-251
81586,162,-76,147,42,-143,322,-250,378,-17,-180,-14,-398,-21,-174,27,-157,-148,-226,-152,-83,-244,-4,52,4,-164,-84,29,-98,-37,-62,-66,-228
81587,153,-65,167,62,-149,297,-189,382,-12,-226,27,-411,-37,-204,-70,-112,-219,-230,-137,-99,-229,-36,59,0,-173,-67,48,-93,-32,-50,-63,-224
81588,133,-85,123,86,-135,315,-243,502,8,-192,-17,-457,27,-200,-22,-5,-265,-246,-132,-99,-213,-80,43,-1,-179,-101,-3,-135,-95,-149,-116,-206
81589,168,-19,132,81,-130,333,-184,486,5,-204,-74,-360,22,-208,-91,-62,-201,-198,-129,-135,-270,-38,38,-14,-177,-133,-4,-144,-134,-206,-165,-251
81590,173,-54,142,81,-139,324,-188,469,-29,-206,-94,-340,-13,-227,-9,-135,-195,-197,-156,-129,-255,-28,1,-37,-219,-143,-36,-209,-129,-217,-222,-394
81591,169,-88,127,99,-136,346,-212,542,-10,-212,-52,-361,27,-225,-15,-106,-160,-197,-154,-110,-242,-31,82,-6,-197,-112,-36,-139,-65,-154,-166,-348
81592,149,-69,135,103,-150,345,-246,510,1,-233,46,-398,45,-234,-61,-85,-115,-177,-149,-161,-270,-52,116,7,-206,-116,-26,-66,-66,-160,-138,-298
81593,154,-31,175,65,-144,357,-137,329,-27,-238,49,-358,-11,-235,-36,-49,-108,-199,-162,-136,-271,-22,115,-23,-223,-106,5,-11,-67,-150,-114,-256
81594,179,-34,166,103,-124,340,-168,391,-11,-244,-77,-416,4,-239,-30,-82,-237,-235,-185,-140,-292,-12,4,-64,-257,-148,4,-183,-96,-145,-146,-260
81595,163,-57,91,110,-111,335,-174,444,11,-220,-56,-435,56,-238,-19,-109,-233,-228,-182,-153,-284,10,-11,-55,-253,-152,-54,-177,-64,-139,-126,-246
81596,137,-82,33,105,-129,344,-199,443,-7,-239,-11,-411,-23,-242,-2,-121,-248,-283,-210,-163,-282,-7,8,-70,-278,-169,-50,-156,-79,-148,-164,-325
81597,160,-62,120,102,-137,316,-179,475,-32,-252,-26,-397,-73,-264,-65,-186,-213,-319,-258,-203,-275,-60,-57,-130,-324,-208,-74,-267,-213,-258,-269,-385
81598,160,-62,113,53,-118,292,-174,447,-34,-249,-100,-396,-38,-240,-44,-191,-147,-298,-251,-185,-199,-83,-94,-153,-318,-182,-72,-287,-261,-295,-308,-389
81599,134,-85,81,43,-134,289,-216,365,-20,-247,-111,-388,-36,-247,-1,-217,-174,-296,-252,-178,-187,-99,-71,-137,-313,-151,-42,-277,-223,-278,-260,-393
81600,189,-96,190,120,-127,259,-305,366,-9,-277,-123,-406,-7,-252,-96,-133,-279,-299,-261,-221,-449,-69,-40,-120,-336,-204,-113,-215,-193,-273,-276,-367
81601,227,-105,198,110,-136,260,-272,451,-8,-281,-82,-455,-25,-269,-132,-101,-268,-339,-254,-216,-404,-67,-64,-128,-332,-219,-99,-235,-205,-270,-261,-351
81602,211,-119,205,73,-135,260,-275,519,-26,-276,-106,-474,-43,-266,-76,-162,-235,-303,-238,-170,-327,-53,-50,-122,-316,-189,-77,-284,-214,-275,-252,-335
81603,225,-102,241,98,-117,265,-250,523,9,-261,-64,-473,23,-224,-85,-146,-243,-242,-178,-162,-316,-37,-22,-81,-260,-182,-60,-253,-193,-226,-236,-317
81604,204,-88,187,134,-123,269,-262,547,27,-265,-19,-429,37,-223,-80,-143,-238,-238,-187,-141,-295,-33,-54,-86,-251,-163,-62,-215,-175,-206,-230,-354
81605,175,-72,157,129,-117,297,-281,513,9,-241,-23,-385,17,-208,-30,-114,-210,-248,-180,-118,-274,-91,-13,-90,-236,-119,-81,-205,-151,-197,-200,-351
81606,228,0,190,119,-94,343,-206,404,14,-209,-40,-389,22,-197,-7,-66,-178,-240,-149,-99,-241,-79,17,-57,-210,-77,-27,-143,-109,-165,-134,-302
81607,152,-57,156,107,-126,328,-224,427,-3,-209,-52,-387,24,-192,15,-95,-215,-224,-124,-60,-226,-43,8,-23,-169,-56,9,-124,-56,-119,-79,-292
81608,139,-101,135,87,-128,344,-234,444,-24,-182,-77,-376,19,-189,68,-115,-218,-233,-124,-47,-210,-45,6,-19,-147,-36,19,-113,-33,-92,-84,-278
81609,187,-34,149,96,-127,378,-175,407,-6,-182,-19,-342,49,-172,65,-9,-148,-210,-109,-41,-161,29,7,-8,-128,-4,79,-85,-41,-75,-72,-214
81610,171,3,154,101,-134,378,-86,414,-5,-211,68,-352,53,-170,3,104,-141,-207,-110,-43,-145,91,-13,-16,-134,-4,89,-113,-90,-104,-76,-214
81611,175,-19,127,91,-136,356,-160,435,-10,-179,40,-424,51,-164,68,11,-215,-241,-111,-31,-133,96,-64,-31,-149,7,106,-172,-138,-136,-74,-184
81612,184,-22,127,130,-136,354,-132,361,25,-177,34,-456,187,-170,43,-124,-238,-287,-112,-46,-135,48,-89,-68,-170,-7,97,-185,-179,-153,-95,-228
81613,189,-8,99,139,-130,359,-109,371,44,-192,97,-432,231,-160,74,-119,-265,-266,-103,-17,-39,24,-98,-55,-154,0,113,-200,-202,-153,-84,-214
81614,251,0,270,106,-121,380,-133,552,-28,-170,33,-295,-43,-167,113,-109,-164,-186,-116,2,-23,75,13,-22,-131,60,200,-109,-111,-81,-29,-96
81615,269,3,319,131,-113,387,-89,637,-16,-199,-32,-245,-12,-171,54,19,-122,-176,-126,-59,-234,35,47,-6,-153,-49,78,-131,-134,-160,-120,-227
81616,262,10,223,144,-107,383,-138,560,23,-190,27,-387,92,-166,78,-15,-147,-230,-117,-51,-204,24,13,-14,-169,-58,0,-89,-97,-127,-119,-263
81617,282,41,242,123,-105,317,-107,554,19,-216,-111,-305,41,-179,67,-65,-114,-197,-115,-55,-167,76,66,-9,-171,-38,38,-126,-79,-107,-96,-209
81618,268,8,223,118,-151,316,-167,547,-20,-236,-87,-287,-6,-199,44,-62,-127,-203,-132,-63,-191,64,47,-30,-187,-50,54,-116,-80,-122,-104,-245
81619,262,28,222,132,-113,327,-163,580,7,-216,27,-320,62,-172,-7,42,-148,-182,-124,-76,-192,33,12,-21,-183,-80,17,-63,-53,-89,-98,-257
81620,259,28,246,158,-121,313,-173,555,5,-221,-20,-344,79,-170,-2,52,-213,-175,-122,-71,-231,-8,20,0,-191,-78,-14,-82,-27,-78,-103,-271
81621,262,23,232,117,-134,299,-135,469,-6,-242,-44,-389,40,-180,-39,9,-230,-237,-127,-79,-240,66,-15,-38,-198,-68,24,-163,-112,-147,-128,-258
81622,226,14,135,54,-130,339,-123,452,3,-215,50,-379,79,-155,24,-7,-158,-183,-100,-51,-193,60,21,-23,-171,-59,32,-149,-142,-188,-147,-272
81623,313,-14,275,135,-124,355,-171,555,28,-214,-3,-366,87,-162,33,-60,-212,-198,-107,-77,-237,-11,-21,-55,-193,-97,-53,-215,-191,-250,-203,-318
81624,298,1,228,143,-124,354,-134,500,0,-189,-71,-325,23,-152,55,-21,-173,-252,-121,-62,-211,56,-35,-67,-174,-62,4,-217,-195,-225,-170,-281
81625,270,-2,212,110,-141,365,-118,419,-31,-188,-44,-326,26,-162,70,-59,-163,-229,-129,-66,-207,24,-25,-62,-176,-61,-30,-177,-189,-215,-170,-261
81626,221,-5,206,93,-133,396,-94,446,-21,-183,22,-390,60,-163,25,-61,-171,-218,-119,-57,-198,-3,-12,-45,-177,-54,-44,-149,-163,-202,-150,-261
81627,213,-4,189,87,-126,386,-104,420,-6,-172,8,-396,82,-145,49,-10,-197,-178,-107,-51,-153,-14,-10,-20,-161,-38,27,-145,-144,-192,-146,-247
81628,221,-10,169,81,-132,381,-163,388,-9,-169,42,-301,20,-152,47,-27,-162,-201,-112,-43,-122,28,-12,-19,-154,-13,48,-115,-113,-160,-108,-238
81629,245,3,177,103,-125,377,-110,433,0,-173,12,-308,70,-144,29,-71,-127,-181,-95,-30,-143,89,62,-12,-152,-15,23,-35,-42,-106,-96,-221
81630,284,21,204,109,-118,383,-145,565,13,-150,-24,-271,106,-134,127,-133,-91,-138,-75,-8,-124,100,121,29,-147,-1,55,-29,-15,-91,-73,-178
81631,307,59,278,63,-118,416,-86,558,-20,-157,149,-231,61,-146,99,53,-34,-157,-99,-25,-115,127,112,36,-122,21,120,-12,16,-47,-15,-146
81632,258,22,259,99,-139,380,-44,516,-27,-179,132,-251,66,-162,39,91,-51,-143,-100,-24,-103,169,111,40,-128,26,158,4,38,-11,-5,-123
81633,232,-26,215,80,-146,346,-142,523,-15,-184,25,-252,82,-165,55,15,-47,-108,-96,-47,-147,122,152,46,-128,14,120,87,91,21,20,-118
81634,225,-18,174,58,-122,368,-131,442,-17,-169,52,-279,82,-151,69,42,-93,-83,-99,-44,-129,174,141,70,-116,17,164,146,137,56,60,-92
81635,226,-18,141,51,-130,373,-149,427,-37,-161,61,-322,42,-161,71,-13,-75,-126,-108,-45,-119,180,119,58,-105,20,185,85,111,65,58,-50
81636,247,-31,197,70,-135,345,-189,508,-45,-163,59,-258,61,-163,77,-92,-45,-123,-109,-51,-126,150,152,55,-113,14,165,33,102,42,34,-91
81637,278,17,290,74,-140,360,-139,507,-36,-157,32,-254,87,-154,98,-80,-40,-105,-90,-25,-90,204,176,66,-102,32,190,3,66,26,62,-54
81638,282,25,273,67,-147,369,-91,480,-24,-172,19,-247,84,-148,91,14,-3,-99,-86,-22,-68,224,156,64,-106,35,198,-21,48,24,72,-41
81639,272,24,235,57,-150,355,-94,482,-38,-204,38,-256,76,-155,81,33,10,-124,-108,-46,-65,236,133,35,-130,22,208,-30,6,10,15,-94
81640,240,19,235,49,-156,370,-87,492,-55,-195,54,-283,88,-156,116,-23,10,-137,-96,-38,-83,235,193,49,-142,14,215,2,12,6,27,-66
81641,272,29,261,81,-129,400,-103,492,-32,-158,108,-268,92,-132,162,104,-46,-126,-75,-18,-75,234,197,77,-115,13,216,-16,-10,-38,13,-112
