,Fp1,Fp2,F7,F3,Fz,F4,F8,FC5,FC1,FC2,FC6,T7,C3,Cz,C4,T8,TP9,CP5,CP1,CP2,CP6,TP10,P7,P3,Pz,P4,P8,PO9,O1,Oz,O2,PO10
41691,191,-328,820,-72,142,285,-260,479,-82,-155,270,143,90,-490,157,291,-105,-111,-84,461,186,-1357,-169,-194,-157,0,-53,-485,-88,-336,-159,6
41692,240,-326,863,-54,163,270,-236,517,-78,-142,278,223,46,-491,165,321,-79,-97,-79,456,175,-1311,-67,-168,-166,-54,-107,-468,-93,-389,-271,-351
41693,266,-382,818,-64,165,283,-267,456,-81,-137,322,259,27,-480,167,318,-6,-51,-64,466,202,-1252,-4,-149,-177,-38,-82,-510,-117,-396,-260,-235
41694,332,-426,768,-82,159,272,-294,348,-88,-142,316,212,60,-477,180,273,-32,66,-76,459,175,-1319,-35,-149,-199,-52,-131,-609,-143,-405,-289,-191
41695,358,-455,824,-56,163,200,-302,358,-86,-146,294,140,42,-470,170,304,17,-111,-71,465,184,-1414,-1,-137,-189,-55,-153,-541,-113,-366,-290,-226
41696,252,-405,823,-89,164,139,-303,425,-87,-160,337,145,56,-462,169,248,5,-174,-66,492,211,-1469,-3,-138,-149,-14,-120,-523,-87,-332,-243,-195
41697,240,-314,908,-131,160,194,-300,411,-72,-138,381,202,78,-451,189,191,-20,-74,-31,505,210,-1429,14,-110,-149,2,-145,-489,-52,-336,-212,-163
41698,244,-292,765,-63,135,276,-378,437,-78,-130,373,250,108,-442,177,172,-15,-63,-34,484,192,-1374,48,-86,-153,-7,-154,-301,-22,-274,-167,-14
41699,182,-238,562,-59,134,259,-395,437,-85,-139,381,246,86,-436,157,223,-8,-97,-32,476,219,-1323,-5,-74,-136,11,-94,-319,64,-173,-20,251
41700,75,-193,611,-120,113,229,-403,299,-113,-136,377,321,21,-477,165,283,-50,-139,-69,497,243,-1466,-105,-122,-125,14,-53,-469,26,-135,76,399
41701,124,-238,599,-170,106,216,-426,360,-97,-144,321,421,79,-455,163,356,-55,-123,-32,489,265,-1562,-95,-148,-150,21,-2,-347,-8,-211,-15,224
41702,293,-242,659,-209,119,170,-355,374,-107,-155,300,277,79,-473,146,417,-23,-154,-61,454,263,-1606,-72,-183,-207,-71,-128,-367,-140,-495,-406,-528
41703,393,-187,791,-161,121,95,-291,478,-121,-155,269,315,-40,-466,106,499,-24,-156,-57,474,249,-1494,-17,-171,-191,-58,-99,-344,-107,-481,-418,-497
41704,347,-146,701,-171,119,1,-270,331,-133,-173,297,523,-56,-451,122,456,-111,-136,-37,512,264,-1395,-43,-135,-138,19,-45,-257,20,-257,-108,14
41705,245,-211,742,-177,110,-3,-325,323,-94,-189,237,347,45,-423,124,255,-160,-31,-21,542,258,-1222,-59,-114,-110,55,-2,-358,24,-197,-19,141
41706,230,-231,749,-183,115,66,-311,343,-69,-169,254,71,89,-416,150,114,-106,-81,0,543,243,-1242,-50,-122,-93,56,32,-420,10,-222,-52,142
41707,217,-221,773,-163,128,12,-293,322,-71,-185,269,27,64,-446,129,99,-33,-172,-25,484,164,-1336,-26,-154,-135,6,-71,-342,-14,-363,-277,-43
41708,257,-221,850,-115,145,11,-290,385,-54,-178,268,110,74,-441,119,177,-109,-89,-23,503,135,-1320,11,-132,-151,-31,-157,-337,10,-300,-229,-95
41709,194,-250,869,-107,141,85,-301,419,-77,-172,311,225,38,-451,136,206,-239,-70,-35,489,149,-1255,-12,-139,-159,-24,-151,-396,-33,-294,-170,20
41710,86,-282,866,-90,113,56,-316,420,-87,-221,263,231,49,-478,107,222,-143,-87,-77,472,114,-1345,-74,-160,-179,-53,-194,-383,-67,-356,-259,-237
41711,151,-260,881,-72,122,84,-359,430,-72,-182,247,199,97,-451,134,303,47,-60,-37,518,177,-1316,-24,-93,-117,8,-100,-324,37,-277,-194,-204
41712,220,-264,802,-108,113,144,-328,462,-51,-180,265,194,142,-434,142,340,99,-30,17,519,195,-1316,74,-22,-98,25,-83,-256,135,-232,-193,-157
41713,239,-278,730,-87,107,112,-288,488,-56,-196,230,175,182,-426,119,307,97,30,45,522,168,-1278,94,11,-68,52,-60,-112,206,-181,-108,-169
41714,274,-275,728,-55,118,134,-235,457,-52,-182,220,168,169,-445,118,240,73,-37,39,519,173,-1303,0,-44,-78,27,-43,-85,130,-147,-44,-9
41715,229,-366,674,-11,142,172,-209,502,-58,-164,177,190,99,-437,136,181,75,-63,3,541,194,-1306,-56,-78,-94,7,8,-178,63,-239,-129,-16
41716,170,-398,594,12,135,204,-213,496,-51,-137,253,206,29,-429,187,269,11,-42,10,568,264,-1258,-44,-60,-62,83,228,-173,99,-154,40,224
41717,182,-340,575,-28,121,212,-248,404,-67,-151,309,210,17,-434,169,317,-18,-66,-7,530,247,-1317,-78,-88,-107,43,146,-328,29,-204,-51,149
41718,264,-239,648,-77,109,216,-320,410,-76,-147,339,299,58,-443,158,339,9,-66,-16,522,222,-1324,-33,-110,-142,10,-11,-461,-50,-293,-193,-35
41719,330,-181,704,-87,131,257,-275,426,-66,-149,346,347,84,-451,138,329,14,-34,-15,495,168,-1377,42,-118,-158,-29,-174,-391,-62,-350,-316,-340
41720,335,-276,751,-88,132,168,-245,439,-49,-155,289,396,118,-456,130,302,29,22,13,492,178,-1396,51,-84,-142,-41,-209,-315,-37,-315,-255,-213
41721,258,-429,776,-89,118,94,-215,408,-64,-171,282,390,92,-451,131,274,63,0,30,508,156,-1454,112,-33,-123,-17,-112,-195,21,-252,-184,-140
41722,260,-460,809,-88,125,213,-298,465,-75,-152,259,187,83,-472,125,325,52,-47,11,488,185,-1564,86,-41,-122,-2,-34,-94,59,-232,-192,-190
41723,293,-322,911,-144,126,244,-243,440,-93,-122,312,129,63,-486,157,435,-53,-68,-28,482,244,-1631,-118,-75,-155,1,-39,-417,11,-245,-148,-25
41724,342,-219,923,-160,139,189,-186,385,-97,-148,311,152,36,-494,132,379,-84,-79,-47,468,206,-1555,-94,-102,-175,-25,-37,-338,-30,-286,-165,50
41725,341,-178,889,-153,140,89,-246,377,-96,-160,311,306,27,-475,115,291,-78,62,-23,469,198,-1454,0,-66,-147,-11,-46,-204,-30,-278,-172,4
41726,339,-175,861,-111,131,84,-290,383,-83,-149,335,322,61,-473,162,328,-143,80,-10,484,248,-1444,60,-38,-142,14,4,-229,29,-249,-176,-130
41727,341,-199,866,-90,112,70,-252,462,-54,-163,332,218,85,-489,145,355,-66,-76,-2,488,262,-1521,160,-57,-131,15,-13,-214,40,-248,-178,-180
41728,346,-208,847,-94,146,104,-224,464,-30,-169,243,194,137,-456,110,350,-23,-31,18,499,250,-1446,95,-36,-121,30,-4,-162,75,-204,-103,-69
41729,294,-208,889,-17,146,126,-230,471,-29,-175,237,272,169,-471,96,257,-16,51,17,466,179,-1413,-14,-41,-147,-33,-23,-333,-28,-273,-115,-78
41730,286,-183,799,-11,146,154,-205,429,-53,-174,292,417,53,-500,96,261,-103,-64,-36,446,144,-1447,-154,-127,-191,-73,-79,-461,-123,-379,-168,-89
41731,309,-178,753,-70,153,214,-199,497,-93,-157,345,354,-50,-500,121,224,-66,-151,-67,459,192,-1532,-123,-147,-176,-41,-127,-465,-111,-356,-145,-59
41732,144,-180,764,20,150,148,-179,519,-79,-131,401,249,17,-488,172,154,-29,-83,-47,472,228,-1582,-37,-122,-161,-6,-102,-485,-41,-298,-90,-16
41733,74,-237,773,-13,167,91,-184,435,-64,-147,388,260,82,-468,164,104,-2,-73,1,493,222,-1467,26,-85,-131,29,-29,-273,47,-236,-61,69
41734,108,-279,729,-55,129,142,-205,468,-62,-163,323,277,136,-465,108,106,17,-42,17,491,174,-1338,85,-7,-102,53,26,48,173,-135,-22,139
41735,113,-302,661,-35,118,101,-267,455,-62,-180,244,357,153,-472,63,72,103,14,34,470,104,-1407,185,42,-125,-27,-109,58,180,-186,-138,-74
41736,170,-311,704,21,126,59,-313,463,-71,-191,216,325,96,-478,47,87,91,-23,-4,448,70,-1378,40,-5,-148,-53,-201,-111,122,-238,-182,-182
41737,268,-266,660,-31,161,100,-258,505,-85,-178,254,290,10,-474,60,197,22,-81,-23,435,88,-1326,-130,-91,-161,-79,-218,-454,-72,-348,-215,-120
41738,288,-287,606,-48,165,150,-383,445,-68,-164,245,255,30,-462,60,230,18,-96,-15,436,110,-1343,-120,-112,-171,-77,-242,-741,-214,-430,-223,-20
41739,295,-318,499,-86,150,79,-459,448,-73,-174,246,234,72,-459,54,258,59,-86,-27,451,127,-1391,-119,-105,-161,-54,-184,-479,-137,-363,-157,1
41740,355,-305,428,-81,173,81,-426,505,-63,-163,222,224,114,-471,60,264,33,-98,-17,463,131,-1447,-135,-139,-154,-30,-127,-424,-110,-315,-112,107
41741,353,-333,514,-98,125,77,-454,475,-76,-177,185,207,105,-486,71,201,-133,-114,-28,451,137,-1314,-154,-132,-168,-9,-61,-441,-79,-278,-74,103
41742,360,-304,665,-135,152,121,-352,470,-73,-172,179,231,76,-469,80,163,-4,-116,-22,450,165,-1297,-50,-94,-139,16,15,-325,-21,-214,-17,91
41743,347,-273,717,-183,157,181,-318,426,-81,-165,174,298,60,-474,88,121,89,-66,-23,450,133,-1368,18,-79,-156,-12,-44,-279,-11,-272,-123,-115
41744,289,-269,706,-154,100,107,-318,305,-127,-189,206,438,8,-490,96,206,52,-25,-40,467,201,-1347,96,-66,-140,41,94,-236,42,-231,-80,-43
41745,279,-220,755,-161,122,106,-278,367,-115,-149,244,475,24,-466,158,353,98,-29,-17,511,267,-1466,148,-57,-91,93,159,-117,102,-128,68,184
41746,200,-239,779,-148,129,158,-278,352,-95,-135,235,321,45,-449,149,347,44,-90,-6,525,268,-1441,103,-51,-84,115,132,-129,124,-82,134,250
41747,209,-260,745,-154,124,118,-268,371,-91,-153,251,175,53,-463,145,352,59,-72,-7,529,302,-1407,96,-50,-102,112,80,-230,61,-183,14,40
41748,237,-241,686,-96,135,130,-206,408,-97,-159,288,38,61,-461,139,379,-4,-83,-56,468,253,-1555,0,-143,-177,4,-111,-519,-157,-443,-306,-342
41749,224,-264,649,-96,142,184,-205,383,-107,-159,271,-63,44,-473,150,400,-39,-105,-59,478,270,-1570,-21,-152,-180,33,-96,-478,-127,-363,-213,-148
41750,221,-358,734,-116,138,138,-212,418,-113,-164,260,-21,23,-482,136,313,-78,-124,-41,476,266,-1406,-98,-151,-172,57,-10,-426,-63,-307,-130,11
41751,209,-355,734,-191,111,142,-260,433,-129,-191,254,69,5,-488,133,264,-76,-138,-58,485,254,-1359,-143,-177,-155,95,114,-487,-77,-267,12,232
41752,212,-298,661,-186,108,191,-324,405,-132,-158,248,116,39,-464,136,270,-61,-98,-35,530,307,-1343,-189,-172,-110,161,253,-335,23,-144,163,382
41753,237,-227,660,-90,117,171,-353,328,-115,-155,243,398,28,-471,113,218,-17,79,-10,517,253,-1353,-156,-113,-123,102,137,-247,49,-190,55,146
41754,236,-280,737,-47,122,177,-385,287,-117,-177,217,424,26,-498,95,122,-7,-90,-44,468,164,-1413,-72,-114,-170,16,-110,-344,-79,-425,-276,-231
41755,36,-426,507,-38,119,197,-444,536,-63,-180,157,33,186,-496,56,150,-62,-107,-15,453,162,-1445,20,-94,-168,-17,-92,-333,-81,-431,-229,-151
41756,-91,-422,462,-40,139,201,-385,484,-49,-174,153,4,164,-478,61,285,-110,-24,-14,471,203,-1464,166,-54,-131,-22,-21,-253,21,-337,-170,-141
41757,-2,-342,475,-39,136,100,-207,449,-81,-162,216,225,28,-450,105,278,-108,-24,-7,484,227,-1377,288,-37,-102,16,18,-250,99,-216,-84,-103
41758,109,-321,408,-58,116,87,-238,399,-77,-163,226,198,74,-461,91,126,-24,-53,-19,469,149,-1429,98,-65,-130,2,-89,-310,61,-238,-132,-173
41759,235,-283,485,-82,132,135,-299,358,-74,-161,225,92,127,-467,108,21,-48,-101,-13,496,168,-1471,-89,-87,-128,25,-11,-296,69,-210,-144,-79
41760,272,-277,536,-150,138,145,-273,301,-101,-162,236,88,51,-455,127,148,6,-158,-23,504,228,-1501,-156,-126,-125,25,104,-313,-1,-303,-216,8
41761,285,-290,535,-175,107,152,-294,322,-142,-175,260,110,-26,-482,115,228,66,-201,-49,473,184,-1589,-159,-157,-172,-26,-32,-415,-122,-438,-372,-274
41762,313,-302,541,-205,119,114,-414,271,-128,-177,245,132,9,-462,108,243,41,-184,-50,498,169,-1673,-96,-163,-158,-49,-197,-398,-121,-398,-349,-372
41763,303,-296,585,-216,120,97,-465,296,-103,-171,196,167,55,-440,97,190,73,-145,-13,498,158,-1385,-25,-127,-126,-27,-150,-148,6,-280,-212,-96
41764,222,-312,543,-217,101,141,-463,332,-111,-172,217,199,72,-454,93,162,5,-148,-4,463,129,-1412,-73,-119,-110,-13,-127,-210,69,-209,-175,-87
41765,202,-323,537,-184,121,115,-434,392,-82,-166,183,206,89,-443,98,203,48,-88,10,496,159,-1504,82,-28,-85,23,-81,87,208,-123,-136,-216
41766,195,-333,541,-166,119,53,-482,394,-62,-176,138,215,145,-410,91,194,63,-31,54,524,176,-1533,196,36,-43,43,-41,148,307,-46,-33,-167
41767,167,-336,534,-211,92,92,-452,321,-87,-172,169,212,143,-411,97,185,91,-62,54,532,177,-1591,153,12,-62,74,-18,113,260,-71,1,-3
41768,125,-335,543,-193,113,58,-405,280,-85,-170,103,116,93,-447,93,171,2,-159,-8,501,155,-1565,-46,-95,-107,62,-48,-275,108,-141,-3,100
41769,106,-369,562,-130,114,41,-408,316,-92,-174,93,96,97,-463,83,203,-191,-192,-48,462,154,-1550,-230,-231,-184,-11,-132,-977,-264,-444,-239,-84
41770,91,-383,567,-176,109,40,-343,305,-87,-160,199,107,122,-450,107,188,-129,-155,-42,488,218,-1526,-176,-192,-152,5,-38,-858,-225,-431,-260,-49
41771,28,-374,496,-189,100,53,-322,273,-87,-168,244,30,95,-454,127,136,-19,-189,-31,505,265,-1595,-78,-142,-112,74,85,-618,-131,-293,-88,229
41772,32,-374,452,-159,90,84,-361,295,-114,-162,272,29,79,-435,152,189,-32,-175,2,545,334,-1725,-80,-121,-77,119,164,-593,-66,-168,68,411
41773,93,-413,428,-210,66,72,-427,303,-130,-174,266,48,29,-437,146,206,-127,-216,-31,544,326,-1705,-207,-171,-98,124,124,-515,-76,-216,-91,63
41774,126,-398,447,-181,73,77,-386,378,-114,-166,277,174,40,-458,140,192,-233,-202,-38,488,251,-1785,-253,-228,-156,13,-51,-527,-174,-447,-486,-612
41775,35,-381,455,-174,74,61,-373,332,-91,-165,258,437,68,-446,143,112,-163,-126,-3,504,189,-1569,-90,-147,-117,3,-74,-483,-96,-354,-335,-397
41776,-194,-415,400,-92,70,47,-431,343,-79,-188,193,391,112,-436,99,65,-98,-78,-1,489,91,-1542,-74,-113,-132,-51,-185,-385,-92,-395,-415,-355
41777,-339,-442,146,-65,77,41,-435,370,-48,-191,142,292,139,-441,60,60,-25,-9,-1,484,64,-1545,-108,-84,-124,-70,-229,-411,-88,-431,-460,-376
41778,-236,-441,251,-83,94,42,-341,341,-55,-188,150,77,164,-432,46,115,11,-160,15,503,72,-1465,-141,-95,-107,-23,-198,-396,-78,-361,-317,-184
41779,-12,-506,381,-73,95,48,-303,379,-55,-179,149,-72,130,-411,91,159,32,-237,27,514,97,-1392,-106,-114,-98,-31,-178,-402,-59,-358,-315,-202
41780,117,-501,438,-113,106,151,-290,317,-65,-187,133,-75,146,-415,84,166,-37,-115,63,511,111,-1350,-41,-97,-80,-15,-137,-327,-18,-316,-264,-171
41781,138,-474,420,-209,71,194,-282,223,-103,-211,78,-47,146,-458,47,155,-152,-138,48,496,82,-1426,-73,-99,-93,-15,-115,-423,-53,-311,-211,-138
41782,185,-328,450,-235,78,183,-304,279,-72,-177,105,-66,247,-417,107,183,-135,-114,50,518,152,-1463,-64,-77,-81,-11,-116,-445,-45,-296,-181,-183
41783,147,-322,464,-223,89,159,-338,370,-68,-170,143,32,276,-415,108,155,-77,-109,56,534,190,-1503,-52,-75,-53,30,-82,-374,0,-258,-137,-126
41784,154,-347,462,-221,68,194,-351,323,-126,-176,169,248,71,-438,116,155,-68,-138,18,536,199,-1477,-35,-87,-65,35,-90,-346,10,-263,-155,-142
41785,175,-368,476,-176,90,208,-352,422,-129,-156,156,315,-1,-445,121,250,-144,-87,37,531,212,-1449,59,-62,-59,34,-97,-423,-47,-300,-170,-102
41786,146,-472,425,-164,104,176,-353,415,-82,-165,163,242,101,-449,117,198,-232,-60,24,522,195,-1423,100,-67,-79,33,-71,-587,-179,-355,-134,110
41787,66,-527,398,-175,95,179,-354,403,-70,-165,239,93,157,-432,150,170,-248,-22,30,520,175,-1458,85,-17,-63,28,-71,-440,-96,-295,-88,157
41788,29,-433,383,-203,80,135,-325,366,-86,-173,255,-103,156,-457,120,145,-285,-81,-3,485,124,-1506,-151,-99,-109,-15,-176,-644,-123,-355,-240,-220
41789,16,-349,447,-157,102,128,-304,359,-73,-165,283,-102,162,-477,100,152,-226,-113,-38,469,131,-1546,-167,-168,-158,-65,-236,-719,-222,-457,-415,-499
41790,59,-322,480,-151,129,143,-275,361,-61,-156,276,-2,143,-461,110,227,-109,-115,8,509,196,-1530,-95,-122,-119,-11,-131,-546,-144,-338,-289,-237
41791,97,-322,507,-186,117,150,-356,334,-90,-178,232,40,133,-469,80,180,-157,-105,3,522,136,-1516,-57,-109,-128,11,-136,-359,-18,-220,-127,-8
41792,104,-323,495,-180,124,157,-387,316,-92,-176,253,32,120,-481,102,198,-159,-127,-2,522,146,-1728,-38,-122,-127,7,-190,-266,39,-177,-81,10
41793,50,-325,419,-227,94,126,-396,261,-110,-176,258,56,68,-505,94,275,-135,-220,-51,496,160,-1819,-162,-199,-190,-41,-250,-469,-138,-383,-331,-373
41794,70,-326,467,-174,105,52,-210,287,-110,-177,241,94,80,-485,95,243,-324,-220,-66,470,132,-1592,-257,-263,-229,-91,-323,-814,-341,-634,-618,-672
41795,13,-456,462,-164,106,105,-283,288,-116,-172,197,129,75,-474,117,207,-386,-199,-54,473,162,-1552,-264,-272,-205,-26,-165,-828,-322,-533,-423,-294
41796,-43,-477,399,-153,100,158,-250,366,-100,-153,251,141,70,-467,142,121,-138,-213,-55,499,222,-1550,-252,-264,-190,18,-54,-598,-254,-458,-301,-127
41797,-100,-459,426,-185,102,161,-234,384,-101,-145,220,101,97,-463,141,113,-84,-174,-57,495,184,-1460,-185,-208,-183,0,-35,-475,-215,-433,-374,-308
41798,-87,-500,448,-160,109,200,-270,385,-91,-163,236,119,98,-471,130,217,-222,-147,-63,469,147,-1502,-168,-206,-181,-32,-90,-446,-170,-393,-397,-440
41799,1,-432,349,-165,116,258,-228,371,-79,-151,253,288,93,-459,155,326,-319,-141,-47,496,191,-1590,-169,-201,-183,-10,-85,-454,-124,-333,-274,-322
41800,41,-435,321,-145,124,242,-249,347,-85,-160,206,240,111,-480,117,338,-212,-115,-53,499,176,-1614,-185,-185,-182,-28,-172,-454,-73,-313,-233,-129
41801,-21,-427,248,-121,134,169,-262,368,-94,-176,185,136,121,-493,73,295,-31,-145,-59,487,176,-1600,-169,-180,-185,-62,-180,-518,-106,-374,-327,-150
41802,-61,-303,202,-169,157,136,-200,352,-76,-159,227,200,116,-485,128,264,22,-247,-58,534,211,-1485,-123,-182,-159,16,-14,-388,-64,-320,-285,-102
41803,-186,-359,320,-89,126,150,-207,293,-77,-182,251,136,165,-487,119,246,-70,-187,-48,500,193,-1473,-122,-180,-171,-4,-69,-376,-59,-315,-287,-145
41804,-183,-438,438,-74,109,154,-253,287,-76,-191,174,163,186,-500,95,202,-108,-102,-48,470,123,-1550,-91,-185,-191,-57,-197,-439,-60,-317,-293,-185
41805,-12,-394,557,-123,126,177,-318,240,-80,-165,140,340,157,-503,108,256,-83,-11,-55,498,99,-1535,-99,-166,-168,-11,-218,-400,-16,-269,-199,-82
41806,164,-315,564,-116,165,205,-277,366,-84,-138,193,240,121,-469,123,298,2,-187,-29,532,136,-1469,-15,-137,-127,2,-199,-331,38,-209,-153,-33
41807,171,-320,485,-140,142,226,-301,440,-87,-150,232,144,117,-476,128,234,-92,-185,-26,527,164,-1469,-11,-136,-139,-6,-92,-219,91,-162,-114,-85
41808,181,-314,461,-175,108,216,-286,458,-96,-177,246,172,135,-476,122,150,-299,-125,-35,504,159,-1514,0,-157,-160,-29,-94,-437,-9,-232,-140,-73
41809,219,-289,546,-165,155,242,-168,464,-64,-153,291,242,159,-459,148,208,-143,-56,1,539,174,-1484,109,-133,-135,7,-127,-501,-42,-278,-200,-113
41810,216,-298,586,-210,147,265,-184,363,-76,-136,289,351,166,-464,172,273,-21,-83,-7,561,198,-1494,110,-126,-131,30,-120,-390,-27,-274,-177,-63
41811,188,-315,544,-207,136,244,-225,338,-83,-164,268,195,201,-464,144,336,-9,-125,-21,532,190,-1633,-9,-148,-132,18,-145,-424,-52,-275,-165,-33
41812,193,-276,489,-117,173,193,-241,446,-46,-165,226,94,299,-450,140,336,-154,-110,20,549,187,-1490,-14,-140,-111,51,-70,-473,-49,-248,-144,-66
41813,215,-286,525,-140,144,209,-238,363,-81,-177,200,168,189,-475,147,223,-200,-128,-9,555,166,-1396,-40,-137,-123,50,-91,-390,-32,-239,-108,-118
41814,213,-247,554,-123,136,184,-232,470,-111,-177,218,172,106,-477,138,193,-58,-87,-4,561,157,-1459,-43,-115,-119,65,-92,-308,-6,-241,-106,-23
41815,131,-293,478,-117,144,182,-208,476,-89,-174,277,68,159,-449,171,185,18,-77,18,568,207,-1442,-77,-85,-79,110,-34,-102,120,-101,5,214
41816,89,-272,543,-141,161,199,-159,468,-86,-158,369,68,146,-435,218,198,54,-68,41,584,234,-1419,-83,-63,-62,99,-18,12,156,-66,3,68
41817,127,-262,561,-148,148,221,-122,514,-104,-157,367,122,145,-459,180,250,-32,-69,11,544,195,-1436,-134,-134,-128,32,-67,-357,-30,-284,-313,-358
41818,111,-305,428,-148,146,209,-150,541,-96,-162,343,197,170,-447,175,350,-80,-58,29,550,220,-1412,-100,-109,-112,61,15,-491,-55,-281,-248,-163
41819,114,-360,444,-116,159,204,-111,524,-86,-159,296,186,193,-469,175,388,-109,-82,0,543,209,-1433,-153,-139,-125,37,-64,-393,-62,-302,-209,-48
41820,63,-397,428,-111,161,150,-137,463,-78,-179,257,201,199,-453,165,361,-12,-21,34,544,181,-1390,-39,-87,-94,71,-126,-70,26,-231,-163,-48
41821,99,-337,524,-90,153,148,-212,365,-93,-185,214,218,162,-458,120,298,-3,-41,29,531,153,-1371,-59,-90,-99,36,-212,-340,-3,-236,-253,-290
41822,159,-267,555,-104,161,207,-201,343,-97,-160,219,300,132,-441,133,324,-9,-27,26,567,186,-1367,-60,-96,-85,17,-159,-352,37,-197,-192,-201
41823,59,-241,527,-89,173,206,-188,436,-72,-175,185,160,184,-458,149,322,4,-108,-2,553,158,-1339,-98,-130,-115,13,-148,-432,-55,-301,-286,-212
41824,-47,-276,407,-125,163,196,-152,459,-89,-173,263,116,166,-454,144,354,-101,-146,-17,558,215,-1404,-150,-151,-115,43,-105,-505,-84,-289,-272,-179
41825,24,-314,351,-89,151,230,-166,451,-94,-139,359,183,182,-436,200,444,-101,-137,2,594,265,-1538,-113,-145,-116,77,1,-517,-100,-312,-254,-95
41826,153,-304,338,-96,146,255,-209,418,-108,-125,343,130,176,-420,228,441,-75,-130,8,591,307,-1528,-76,-141,-94,110,133,-497,-58,-291,-241,-114
41827,203,-280,360,-225,105,270,-196,380,-122,-154,293,84,147,-452,210,408,-174,-118,-16,591,303,-1470,-83,-155,-114,89,100,-560,-75,-275,-243,-248
41828,271,-251,529,-260,115,289,-218,340,-118,-163,274,152,149,-472,207,398,-168,-127,-13,608,249,-1434,-32,-132,-121,62,-28,-585,-87,-262,-210,-129
41829,336,-313,588,-268,152,415,-273,290,-133,-112,349,315,115,-440,237,417,-64,-106,7,612,261,-1505,60,-72,-83,72,-76,-408,11,-228,-223,-65
41830,280,-350,537,-258,144,388,-221,256,-133,-112,347,345,95,-425,213,369,-113,-125,2,609,234,-1535,36,-93,-93,42,-56,-373,-29,-302,-321,-78
41831,190,-415,384,-243,124,213,-198,386,-101,-170,253,116,189,-444,149,246,-197,-101,11,569,198,-1414,34,-95,-109,22,-108,-410,-71,-308,-309,-78
41832,152,-374,238,-214,137,288,-162,413,-92,-164,223,120,192,-441,117,316,-193,-130,4,539,138,-1527,-12,-112,-123,-35,-243,-519,-103,-363,-406,-264
41833,134,-319,260,-203,120,260,-247,446,-92,-178,157,134,158,-446,118,216,-178,-28,-16,543,109,-1429,-64,-122,-137,-40,-229,-525,-80,-326,-317,-131
41834,212,-353,409,-146,111,218,-226,525,-84,-182,214,217,123,-448,143,29,-169,17,-17,540,101,-1353,6,-87,-118,-46,-227,-510,-53,-319,-315,-197
41835,279,-334,542,-188,128,220,-138,428,-100,-155,286,209,111,-452,164,71,-125,-157,-19,547,127,-1334,104,-84,-101,-29,-191,-407,-24,-274,-287,-180
41836,253,-312,639,-191,124,206,-111,424,-111,-165,317,151,122,-438,183,148,-189,-163,-10,562,159,-1286,2,-116,-140,-35,-175,-470,-104,-391,-421,-378
41837,232,-312,623,-158,123,170,-163,395,-111,-198,282,140,129,-463,122,174,-215,-153,-47,542,132,-1363,-36,-163,-161,-31,-189,-540,-133,-384,-373,-343
41838,213,-328,595,-150,112,135,-173,322,-87,-191,240,119,152,-454,119,240,-138,-146,-15,548,115,-1312,-94,-138,-130,2,-150,-351,-28,-233,-186,-137
41839,149,-294,426,-95,83,60,-208,340,-106,-195,151,75,138,-454,118,279,-144,-150,0,561,134,-1223,-93,-132,-110,5,-107,-272,57,-145,-70,3
41840,102,-280,405,-140,94,75,-228,329,-100,-191,128,127,153,-451,86,259,-90,-147,-25,540,128,-1280,-19,-129,-114,-20,-100,-129,54,-236,-221,-118
