,Fp1,Fp2,F7,F3,Fz,F4,F8,FC5,FC1,FC2,FC6,T7,C3,Cz,C4,T8,TP9,CP5,CP1,CP2,CP6,TP10,P7,P3,Pz,P4,P8,PO9,O1,Oz,O2,PO10
18744,590,603,1035,438,364,594,410,691,275,548,377,349,414,229,601,336,439,270,53,72,107,-294,248,453,225,217,414,40,184,-58,37,218
18745,601,609,1023,431,385,573,424,687,285,552,365,331,422,226,613,284,421,275,47,82,126,-305,253,447,247,259,416,102,212,-39,42,177
18746,597,618,1012,433,372,563,408,687,269,532,354,317,402,218,612,192,415,261,34,79,113,-320,259,432,232,260,409,106,201,-49,25,166
18747,616,634,1037,432,372,564,411,684,259,530,366,323,408,223,615,184,442,257,48,89,114,-286,262,442,258,252,436,106,227,-27,55,192
18748,583,610,1021,404,359,557,387,651,251,539,354,318,416,218,611,301,436,273,51,106,121,-301,279,450,262,278,432,168,253,-4,78,234
18749,563,587,970,388,355,543,355,644,244,514,323,326,398,205,592,353,432,274,33,83,100,-411,291,462,233,264,412,159,249,-17,75,225
18750,606,628,1006,429,391,550,394,679,267,545,352,376,420,221,616,202,480,308,52,98,120,-468,324,483,262,282,446,197,269,25,105,258
18751,609,646,1020,419,393,566,428,687,267,564,390,383,408,216,623,185,486,311,51,127,148,-340,332,483,285,298,466,204,275,21,103,267
18752,589,638,1008,412,385,582,464,683,259,555,406,384,418,230,661,471,529,307,59,138,206,-224,345,499,308,339,495,208,269,2,111,252
18753,567,616,1019,388,352,573,449,662,250,560,400,365,413,243,663,534,493,309,77,132,212,-230,343,493,304,335,487,213,262,-4,136,276
18754,530,586,998,363,343,574,439,663,241,562,386,371,419,234,655,424,481,312,88,141,220,-224,371,517,316,365,526,276,318,50,163,289
18755,554,555,999,358,354,568,427,661,242,557,372,369,405,226,647,364,480,317,74,115,208,-258,371,520,308,347,522,291,318,52,150,223
18756,552,568,988,378,353,563,407,653,216,544,380,360,391,211,633,342,400,288,54,94,190,-268,341,493,280,342,467,325,316,31,141,269
18757,533,575,987,370,363,574,417,673,222,558,382,368,388,198,632,368,408,278,37,98,180,-234,319,480,283,351,488,253,282,13,151,284
18758,551,593,999,401,386,604,444,703,265,585,396,384,386,225,647,327,488,314,59,119,153,-203,322,515,307,380,537,176,258,15,164,320
18759,578,594,1013,407,386,594,430,710,265,593,402,392,393,235,653,256,514,303,76,140,166,-170,332,526,334,397,563,197,292,52,212,343
18760,599,592,1026,407,385,598,419,716,261,577,403,413,418,224,655,310,542,314,78,141,190,-209,339,523,321,408,562,201,316,65,204,336
18761,607,598,1033,431,396,587,425,726,268,577,398,407,419,250,664,296,543,302,87,147,209,-249,341,536,318,410,579,234,331,77,202,304
18762,572,595,1025,425,383,595,404,716,240,577,366,393,419,243,661,186,517,279,87,135,209,-273,327,528,334,417,584,257,338,89,208,287
18763,540,581,997,412,376,575,387,701,257,567,358,362,412,246,642,289,447,274,77,142,236,-370,308,516,329,396,549,222,318,59,168,225
18764,524,588,979,406,342,582,392,695,255,553,373,361,403,238,650,420,452,284,83,129,225,-407,321,506,327,367,472,196,279,28,141,168
18765,546,592,998,401,351,588,424,701,256,547,377,365,429,247,658,439,460,311,85,129,199,-362,338,536,327,363,430,217,292,53,167,243
18766,560,607,1018,402,371,592,436,710,254,568,384,402,430,238,651,311,481,320,86,153,156,-299,345,551,334,363,439,207,328,75,193,305
18767,560,613,1018,403,366,605,445,693,237,569,397,401,431,241,641,244,462,324,94,138,164,-241,350,548,345,377,516,224,334,99,217,328
18768,538,584,990,396,349,591,411,679,234,555,369,391,418,245,655,301,481,314,106,145,173,-259,344,543,341,390,555,206,338,108,219,347
18769,526,574,992,388,365,566,421,678,226,549,360,395,412,244,647,409,482,309,79,142,172,-290,321,535,325,364,561,195,329,86,217,339
18770,493,540,970,357,326,543,390,626,214,539,343,341,394,244,622,375,402,273,56,116,133,-412,269,492,300,315,492,171,287,47,133,241
18771,457,501,947,333,318,530,365,631,220,548,326,324,405,250,643,328,417,267,75,123,131,-372,255,472,293,318,483,164,270,39,133,215
18772,437,487,949,332,326,516,362,631,230,551,329,319,401,258,629,335,408,283,84,123,140,-256,265,503,304,321,468,118,284,42,139,228
18773,422,495,924,313,313,508,364,614,229,530,334,300,398,258,622,334,399,253,77,114,145,-287,225,453,298,324,450,61,229,3,100,199
18774,419,511,936,308,313,504,361,614,232,542,339,304,415,258,643,343,404,262,74,129,167,-253,217,456,289,338,487,43,185,-14,126,220
18775,403,478,921,270,299,508,344,599,214,523,327,281,404,248,643,324,374,259,57,128,146,-299,227,456,271,332,480,104,219,9,117,205
18776,386,460,891,275,290,478,357,607,214,524,345,284,395,253,666,335,367,264,71,131,169,-282,236,466,287,330,500,132,243,13,81,184
18777,364,452,885,269,296,479,353,617,218,515,349,283,404,264,644,324,350,268,80,133,180,-282,218,489,293,340,499,109,240,28,127,210
18778,360,453,899,263,281,490,356,622,219,527,360,304,423,264,652,320,329,286,92,139,187,-394,210,488,281,339,521,99,243,27,119,250
18779,336,442,882,250,269,492,347,621,213,535,350,302,415,262,667,326,291,283,93,165,216,-337,234,507,309,348,556,150,273,59,140,279
18780,362,444,875,242,271,495,354,616,208,528,364,288,411,270,677,309,317,261,92,147,220,-258,192,491,303,342,538,57,217,23,117,230
18781,352,462,873,233,275,508,382,604,216,539,378,287,413,281,691,241,370,264,93,156,234,-307,220,495,318,357,550,110,239,45,144,207
18782,308,445,841,241,262,513,372,587,204,540,379,280,410,301,678,131,435,278,102,174,249,-327,252,504,329,359,505,150,281,62,152,238
18783,318,448,838,231,256,517,361,568,213,540,376,271,399,292,682,160,383,281,85,161,201,-343,242,507,322,334,433,151,274,32,136,205
18784,325,440,856,253,243,526,347,591,222,546,383,292,404,281,679,306,349,295,88,163,127,-407,248,512,334,325,389,207,282,52,140,190
18785,293,404,843,246,245,514,331,577,216,532,354,283,405,265,653,345,405,274,60,139,118,-454,253,485,332,326,396,220,287,39,120,187
18786,288,396,824,243,261,500,338,572,214,534,349,262,371,262,637,290,328,229,69,132,104,-390,190,468,303,299,358,55,240,21,115,173
18787,260,393,812,223,254,501,295,559,194,523,345,241,354,268,639,133,250,185,68,125,65,-328,137,435,299,272,310,-42,205,9,98,159
18788,232,375,784,198,255,503,301,546,172,523,337,219,336,266,625,-7,284,185,38,121,69,-351,140,436,279,261,326,-12,201,14,87,125
18789,191,344,752,186,251,492,302,527,183,517,352,173,328,270,596,102,224,176,53,112,82,-392,130,423,274,247,319,-2,198,-2,61,105
18790,163,334,736,173,239,483,313,494,188,515,349,176,311,262,590,301,265,158,50,99,89,-424,120,423,256,248,324,30,198,-15,47,125
18791,160,361,727,168,243,482,313,496,168,513,333,170,313,250,569,371,294,153,34,82,88,-461,92,407,249,229,298,19,178,-31,10,66
18792,176,366,718,178,253,497,341,500,191,524,346,160,329,253,580,333,275,171,50,92,71,-466,110,422,254,238,263,45,208,-26,28,42
18793,170,341,695,184,245,491,364,496,201,502,327,145,333,260,585,297,266,182,62,92,58,-471,138,444,273,244,243,107,253,-1,37,84
18794,151,365,698,176,251,481,377,491,187,493,333,165,322,238,588,251,227,130,48,74,56,-455,127,417,270,232,331,140,249,13,55,111
18795,160,362,699,170,245,489,385,500,180,493,344,180,316,238,587,247,262,140,33,76,68,-429,126,414,270,251,370,113,259,18,58,92
18796,179,371,721,175,245,498,388,496,188,513,339,179,324,260,601,292,285,146,39,99,100,-425,95,419,282,275,335,3,227,18,71,122
18797,186,394,730,193,251,486,366,502,197,507,335,181,326,239,599,184,353,115,51,96,111,-467,97,417,277,284,320,20,239,44,107,161
18798,169,388,724,188,260,480,369,498,212,512,361,167,336,265,631,35,294,125,47,124,157,-476,110,423,289,314,363,62,275,77,148,181
18799,160,357,712,181,251,471,373,477,207,498,359,158,317,260,619,95,232,118,38,108,156,-416,90,415,265,308,355,27,230,31,110,145
18800,154,355,695,170,246,489,357,468,197,506,332,173,306,255,611,196,280,127,36,129,160,-317,109,452,271,321,406,85,284,71,157,199
18801,164,365,703,180,248,475,340,491,195,506,338,172,326,272,615,251,354,160,41,113,152,-385,125,440,274,330,410,98,306,69,160,205
18802,144,351,685,188,230,471,312,457,200,495,331,151,308,279,604,319,359,162,51,97,136,-427,157,452,281,313,430,135,306,89,174,183
18803,113,308,670,156,206,454,325,442,178,492,303,132,281,256,582,324,296,140,27,89,85,-405,152,457,290,311,439,135,305,88,176,220
18804,113,313,704,159,233,463,331,464,171,492,332,145,301,271,604,324,313,158,45,105,109,-371,164,485,319,340,469,153,329,131,202,294
18805,140,295,712,162,214,451,338,473,180,493,334,170,321,265,600,333,332,175,64,139,187,-393,172,513,365,367,506,180,372,189,249,300
18806,135,294,711,154,216,439,343,493,178,501,355,178,328,258,605,236,321,181,60,142,199,-366,186,504,356,379,509,147,376,198,254,278
18807,158,303,725,178,244,450,363,488,184,500,361,198,344,279,643,258,315,189,91,167,216,-359,195,523,372,419,459,183,413,212,262,284
18808,171,304,724,178,233,460,376,477,188,509,377,196,330,267,648,391,288,195,97,176,225,-368,208,548,397,423,476,251,446,260,315,345
18809,175,333,735,164,223,493,382,480,195,523,382,184,320,266,636,441,244,191,87,166,210,-247,209,536,391,439,531,279,476,266,334,325
18810,154,312,747,175,226,469,359,488,183,512,369,168,313,259,622,372,250,170,78,143,179,-205,183,533,373,411,555,243,443,230,295,289
18811,193,325,771,194,238,494,387,501,188,508,375,181,310,246,628,386,293,158,55,144,164,-216,156,512,372,385,500,120,377,194,264,350
18812,211,356,784,186,235,497,366,508,208,522,373,191,337,268,622,393,289,159,53,140,156,-215,162,507,355,375,473,5,332,179,257,342
18813,214,354,767,204,255,492,371,520,217,527,367,199,345,275,624,374,311,192,77,131,163,-223,180,514,361,371,490,77,371,193,261,301
18814,189,343,759,213,251,473,387,511,216,499,371,198,328,271,619,360,315,205,78,131,150,-225,199,530,349,343,493,170,396,197,262,312
18815,179,372,739,205,254,484,406,497,210,510,383,195,329,275,611,382,219,196,78,139,171,-209,194,542,366,354,534,120,403,199,269,335
18816,167,341,706,191,241,485,370,509,211,489,367,191,346,273,609,288,237,198,95,135,143,-260,198,540,362,355,524,151,420,207,261,313
18817,160,330,741,219,254,460,344,527,224,508,341,211,359,289,592,179,274,212,85,119,117,-307,204,544,360,355,485,176,446,186,256,268
18818,154,333,750,216,258,445,313,525,235,515,311,210,349,270,578,218,316,200,94,110,123,-333,199,543,343,336,425,148,416,176,227,251
18819,138,338,745,222,253,452,308,520,231,494,306,206,377,275,589,281,266,193,117,116,132,-325,148,538,338,324,385,71,345,132,197,240
18820,158,353,756,226,253,436,327,550,230,489,296,217,382,278,595,206,321,207,110,136,143,-293,163,556,342,338,375,68,363,139,212,258
18821,150,346,747,233,269,435,329,540,236,486,295,220,382,295,598,122,350,228,127,142,149,-295,182,561,361,343,397,99,390,181,209,246
18822,145,330,763,239,254,439,333,546,242,498,307,233,382,306,600,254,316,236,136,159,141,-323,186,568,389,366,432,108,379,184,246,229
18823,137,311,774,224,222,414,302,535,230,487,275,242,389,285,596,368,325,242,144,169,91,-343,181,569,376,364,486,142,407,210,287,272
18824,155,293,779,230,242,399,295,548,234,478,279,258,397,282,587,352,357,266,151,154,105,-308,216,575,391,373,499,204,459,246,288,325
18825,194,306,786,252,263,425,295,576,259,476,282,278,422,278,585,311,381,267,147,152,96,-311,224,579,397,383,441,179,431,208,263,273
18826,193,301,787,263,262,418,311,580,262,484,269,288,419,276,586,284,439,286,140,144,97,-328,213,570,388,358,385,142,412,209,249,285
18827,170,276,783,254,251,415,297,582,250,488,274,273,421,291,600,273,448,295,152,149,104,-324,237,584,381,365,411,175,433,233,282,303
18828,135,266,780,262,266,432,298,576,254,494,292,271,433,307,615,286,370,283,149,174,127,-385,228,582,373,395,460,177,412,218,280,313
18829,144,290,784,260,266,439,333,593,264,524,307,293,446,315,626,307,410,301,157,182,136,-420,241,609,394,402,485,200,427,215,276,329
18830,108,253,752,239,233,415,313,565,244,501,290,289,437,322,613,210,417,311,140,165,140,-312,249,585,399,390,491,269,426,231,282,298
18831,106,265,771,234,228,417,325,576,252,494,301,279,412,306,629,0,384,312,133,160,142,-252,233,553,363,384,477,238,423,197,256,239
18832,114,283,774,240,227,456,346,590,253,526,348,277,401,307,663,92,354,305,113,159,188,-286,239,550,341,396,518,175,395,192,246,271
18833,101,265,767,232,227,454,353,576,239,527,347,283,390,296,645,475,383,286,87,161,233,-247,222,528,343,402,484,165,377,182,241,281
18834,79,241,773,232,243,457,338,594,264,536,323,315,413,303,656,537,447,299,118,175,252,-233,278,568,371,415,485,295,436,201,281,263
18835,68,217,754,228,226,437,303,574,251,529,304,302,424,314,654,409,387,316,127,188,257,-325,283,576,374,427,496,351,456,239,287,304
18836,53,205,709,201,201,418,305,528,231,526,300,273,391,293,644,384,317,256,85,161,222,-302,239,526,354,399,476,249,394,175,235,216
18837,42,200,713,198,197,412,295,542,216,524,309,254,376,298,637,235,304,233,84,134,179,-236,173,499,324,371,411,62,290,122,233,287
18838,73,240,746,223,238,433,333,581,256,553,334,299,395,325,649,107,393,275,119,166,202,-273,228,522,335,403,413,113,350,187,284,358
18839,69,262,773,235,240,444,320,595,258,544,326,303,417,326,670,127,391,298,128,181,209,-346,267,561,353,434,430,194,433,222,312,337
18840,67,253,760,233,232,447,317,588,255,529,338,298,414,303,657,278,433,300,123,176,182,-224,273,590,377,441,458,240,457,250,336,372
18841,59,268,745,222,238,477,352,593,248,525,350,315,420,309,670,423,483,312,136,176,188,-145,288,598,389,449,476,292,475,282,377,383
18842,67,264,757,233,232,469,364,594,247,539,349,341,455,318,677,465,485,343,166,216,206,-173,304,631,416,477,526,322,519,330,425,429
18843,56,255,762,228,227,462,361,601,235,533,366,368,487,316,680,485,497,366,195,237,233,-123,353,648,447,494,573,340,547,352,444,453
18844,30,250,760,201,221,456,378,596,205,530,364,375,459,311,680,463,471,362,182,211,248,-127,336,631,402,465,556,307,526,317,419,407
18845,13,245,759,209,218,453,385,613,215,518,371,394,452,300,688,491,465,363,160,211,245,-124,342,628,387,461,542,343,546,313,394,373
18846,-18,211,729,188,209,448,347,582,218,517,354,366,436,303,661,444,443,339,138,204,214,-242,328,602,368,441,506,385,525,280,343,345
18847,-25,198,732,197,191,444,333,588,223,541,339,362,431,302,664,388,486,348,128,194,226,-336,322,618,355,425,556,411,527,262,345,362
18848,-5,202,727,202,220,466,343,580,220,554,354,369,430,309,694,328,541,355,121,190,309,-208,318,595,363,465,691,307,498,245,332,343
18849,-13,211,722,165,219,475,347,576,209,538,367,360,402,297,688,331,516,346,101,178,320,-174,303,564,351,440,664,178,418,179,285,326
18850,5,222,744,200,220,469,343,583,211,534,356,376,414,304,676,264,554,351,100,172,236,-181,327,575,344,406,502,223,419,164,276,378
18851,4,232,741,179,226,479,362,573,192,543,365,361,399,309,670,131,491,317,115,168,190,-218,308,569,316,369,438,217,431,161,248,307
18852,-21,245,744,190,217,487,364,590,219,553,367,362,415,321,671,235,481,330,126,173,238,-251,335,574,312,362,476,306,459,156,244,358
18853,-31,200,744,213,217,486,357,593,214,552,369,367,420,323,683,364,526,339,119,171,255,-213,342,573,306,371,468,318,445,132,235,342
18854,-16,183,719,193,214,475,345,580,200,552,368,358,412,302,679,436,522,330,111,175,238,-168,338,566,302,357,397,282,412,106,206,337
18855,-36,201,743,202,206,471,341,590,204,537,360,376,418,301,678,358,471,349,121,163,224,-225,326,569,315,366,426,223,393,116,213,325
18856,-25,218,734,191,211,488,359,590,184,537,378,363,417,300,691,290,443,337,110,174,191,-221,322,578,326,393,536,217,401,138,210,295
18857,-15,202,727,195,235,504,374,600,200,554,389,341,416,311,701,422,449,352,122,188,180,-213,338,591,329,392,519,217,394,110,221,323
18858,-48,197,719,196,213,502,340,590,205,561,383,351,418,319,677,417,492,348,136,163,174,-260,311,573,314,362,467,245,391,99,196,397
18859,-51,162,721,211,226,500,331,614,204,566,380,365,425,330,698,310,431,341,146,170,225,-300,316,582,320,384,621,257,354,102,193,381
18860,-52,170,727,209,230,493,355,623,216,549,388,369,432,333,719,355,324,323,148,203,308,-260,309,573,339,424,790,191,320,77,204,306
18861,-44,187,732,198,210,481,342,578,216,550,397,356,435,330,707,235,296,316,130,199,326,-164,265,541,315,423,772,158,288,38,183,186
18862,-14,202,762,216,233,465,341,630,211,545,383,369,426,333,699,113,341,335,135,182,248,-175,258,544,300,379,517,167,262,32,181,319
18863,-8,197,741,206,228,477,344,630,236,546,356,350,405,315,682,111,458,307,131,176,179,-174,283,540,289,340,373,241,279,53,176,413
18864,-19,188,736,222,217,466,328,615,234,530,338,350,417,309,654,226,487,288,120,174,187,-176,273,536,301,359,402,221,269,43,156,301
18865,-34,178,738,213,216,440,323,608,226,521,328,330,410,311,652,415,476,302,133,183,226,-243,249,539,314,362,387,185,256,37,160,334
18866,-34,163,744,218,221,436,311,618,231,536,335,305,432,333,671,309,438,299,143,201,225,-171,245,526,324,385,379,152,227,32,156,404
18867,-34,161,749,229,208,421,305,614,221,516,324,308,439,347,670,338,408,284,155,195,205,-181,256,544,327,386,396,152,259,61,174,380
18868,-16,170,740,240,208,425,307,617,234,508,315,340,444,358,657,490,448,301,182,207,166,-210,258,549,337,402,463,155,281,86,196,314
18869,-18,158,731,206,204,429,307,584,219,503,323,313,425,344,643,529,416,290,179,198,173,-241,236,536,341,391,522,93,261,51,163,368
18870,-57,128,698,179,189,414,304,566,220,477,318,294,417,336,624,464,383,275,151,171,201,-206,246,508,329,377,536,100,256,53,169,361
18871,-59,154,682,192,201,430,325,548,231,506,346,312,426,357,656,418,401,253,150,182,223,-199,243,535,342,408,529,257,313,114,207,303
18872,-44,184,700,183,224,449,344,544,222,516,343,297,413,353,663,458,403,243,142,202,219,-265,251,539,337,402,515,309,325,123,203,394
18873,-34,183,688,175,215,440,352,539,222,525,366,276,388,334,668,542,387,236,128,208,245,-163,198,504,320,408,511,210,305,93,177,338
18874,-25,194,689,182,229,451,362,536,225,519,368,292,387,323,686,541,423,238,128,199,261,-189,182,517,315,415,542,128,276,79,176,280
18875,-2,224,720,200,235,474,366,554,239,532,375,326,410,339,677,484,477,257,140,211,276,-239,249,544,342,463,627,152,294,113,228,387
18876,-28,189,711,200,224,473,368,554,247,520,384,341,414,335,681,357,378,281,153,210,256,-50,274,552,331,432,531,234,349,138,246,442
18877,-38,168,734,205,222,462,334,559,233,516,365,362,425,341,696,150,368,288,175,205,245,-59,261,554,331,423,455,229,355,131,228,418
18878,-42,150,700,206,216,439,327,550,245,517,367,335,427,363,691,175,492,306,175,225,297,-135,307,585,351,432,434,304,383,173,257,398
18879,-72,124,699,201,221,441,305,574,246,523,365,339,436,368,738,456,533,321,181,245,323,-101,318,600,367,445,460,236,357,159,264,449
18880,-63,116,700,174,195,412,276,561,239,511,320,323,449,377,692,546,533,316,190,219,253,-120,327,599,354,428,443,197,348,139,249,427
18881,-88,105,699,189,181,396,264,569,240,496,291,320,451,361,687,555,509,328,186,204,220,-114,329,600,360,434,514,258,370,158,249,390
18882,-81,88,743,196,177,409,280,576,231,506,306,336,434,341,692,540,442,317,177,197,169,-114,315,576,348,401,537,194,329,103,221,384
18883,-97,51,706,192,182,403,250,568,242,500,309,331,434,346,684,507,397,320,169,206,184,-126,344,594,334,420,550,275,366,148,244,369
18884,-113,70,682,186,199,407,263,564,246,530,312,347,448,372,675,482,396,335,175,219,204,-146,338,587,360,430,548,353,404,180,255,365
18885,-155,48,629,138,177,381,275,492,210,497,306,274,399,345,662,501,435,287,136,187,188,-162,298,546,322,395,490,330,377,145,211,319
18886,-137,59,632,147,190,402,297,502,219,501,337,249,400,356,695,480,462,256,129,200,230,-160,271,521,319,403,502,219,346,150,228,323
18887,-123,82,639,152,192,396,301,529,221,509,328,280,403,360,687,471,523,281,144,198,219,-252,282,538,338,402,536,165,331,150,236,322
18888,-144,57,654,163,178,386,262,526,214,498,319,295,408,349,676,294,499,279,150,204,187,-189,281,537,343,414,538,161,317,124,225,369
18889,-139,38,621,135,175,394,282,503,219,479,313,272,399,343,666,154,474,277,144,204,183,-104,295,550,343,409,527,195,350,142,246,371
18890,-121,58,632,137,191,386,273,503,224,488,319,303,404,354,672,433,520,307,156,210,195,-196,315,570,379,412,556,221,372,176,275,390
18891,-144,55,615,118,178,379,304,509,203,488,329,300,399,340,685,569,502,282,160,217,221,-165,318,579,383,416,560,244,368,176,260,408
18892,-153,46,632,118,174,385,335,520,199,512,337,297,389,360,694,524,459,273,155,220,225,-61,291,555,378,404,549,269,385,193,249,392
18893,-159,35,645,121,190,383,320,511,203,497,345,294,366,366,697,523,482,260,159,222,220,-67,253,551,369,406,544,170,358,165,228,368
