,Fp1,Fp2,F7,F3,Fz,F4,F8,FC5,FC1,FC2,FC6,T7,C3,Cz,C4,T8,TP9,CP5,CP1,CP2,CP6,TP10,P7,P3,Pz,P4,P8,PO9,O1,Oz,O2,PO10
84722,-19,244,405,-50,-112,462,340,449,168,13,403,-37,413,108,359,138,60,-49,3,-132,245,371,23,228,283,207,376,70,357,299,203,262
84723,14,308,367,-10,-96,452,332,515,162,0,310,-1,424,91,318,113,65,-38,15,-167,201,339,27,217,272,177,370,89,348,265,154,135
84724,104,377,388,36,-69,435,352,553,180,13,329,24,440,90,334,136,-1,-59,3,-161,205,321,-7,207,260,155,393,17,307,234,116,21
84725,34,217,396,-26,-89,476,144,553,156,4,382,-6,409,84,331,90,-33,-78,-11,-167,185,268,-18,190,248,135,381,-17,270,199,92,68
84726,87,121,458,-45,-102,526,60,545,140,10,356,14,415,88,324,10,9,-46,1,-170,176,205,45,204,224,130,311,-39,281,207,91,93
84727,106,249,509,-37,-101,579,169,483,134,19,388,7,403,87,326,-143,-6,-57,-9,-181,176,164,33,206,209,126,253,-113,256,176,57,59
84728,173,381,481,-78,-68,478,374,382,130,8,391,18,382,78,338,53,-18,-66,-8,-186,192,189,0,188,222,136,270,-152,228,136,41,82
84729,274,447,466,-105,-67,321,487,395,142,-9,323,49,412,101,313,275,4,-50,29,-182,182,223,47,195,241,129,294,-79,246,170,70,115
84730,269,473,552,-68,-68,284,491,380,150,-13,269,102,425,113,295,238,31,9,26,-184,125,237,78,222,269,110,279,13,277,203,94,108
84731,235,486,563,-80,-83,300,514,359,140,-30,270,50,413,85,285,107,23,-33,0,-200,108,236,19,203,226,103,260,-14,249,169,77,116
84732,214,485,586,-80,-98,311,523,310,132,-22,242,6,407,91,294,2,-24,-69,7,-189,171,253,-1,193,219,105,274,-46,236,175,71,109
84733,208,504,631,-104,-94,290,480,268,125,-10,278,-28,373,98,299,-6,-10,-85,14,-190,178,241,-25,177,225,92,247,-56,222,140,13,82
84734,217,529,620,-117,-110,298,384,253,123,-25,305,2,372,83,288,148,-69,-104,5,-203,130,223,-74,156,223,84,239,-79,174,117,1,83
84735,215,503,516,-114,-108,325,302,341,149,-27,314,81,380,79,215,199,-154,-105,-8,-252,-1,128,-132,131,167,-2,138,-83,107,32,-61,-54
84736,58,311,475,-74,-94,401,283,387,138,-27,336,61,369,59,214,110,-157,-155,-65,-280,-17,71,-201,76,138,-29,104,-225,62,-9,-116,-90
84737,-97,140,475,-72,-110,445,324,319,119,-25,311,-29,331,36,232,-12,-110,-182,-85,-282,6,65,-188,66,119,-22,120,-220,89,16,-86,-11
84738,-7,67,406,-124,-108,392,410,260,117,-29,221,-123,329,54,203,-97,-191,-213,-65,-277,-32,48,-205,73,124,-31,98,-232,102,30,-61,-30
84739,-36,78,375,-98,-109,317,354,320,145,-54,139,-128,334,65,197,-120,-179,-195,-54,-275,-23,69,-168,89,139,-33,69,-185,124,13,-82,-191
84740,-75,235,392,-37,-100,302,337,402,166,-42,152,-105,371,75,234,-54,-155,-163,-38,-244,43,103,-152,102,158,1,127,-123,131,19,-75,-166
84741,-1,371,367,-54,-102,330,361,442,157,-28,245,-145,371,104,272,-1,-133,-173,-27,-206,81,139,-137,93,193,57,183,-114,152,65,-45,-37
84742,133,458,464,-23,-95,344,394,410,156,-20,255,-129,365,90,242,29,-138,-177,-38,-210,50,81,-146,93,167,21,112,-186,118,58,-68,-148
84743,202,358,555,-81,-92,328,372,308,127,-27,173,-126,339,63,223,34,-138,-184,-52,-225,39,122,-156,101,172,37,149,-197,108,65,-44,-108
84744,197,160,528,-91,-89,291,303,247,108,-32,178,-168,308,51,207,-24,-211,-237,-86,-242,33,82,-227,45,151,24,127,-305,73,0,-92,-117
84745,170,175,517,-67,-80,422,197,236,131,3,265,-197,313,53,239,-61,-285,-250,-93,-244,24,-14,-263,43,137,-1,84,-324,47,-24,-131,-217
84746,109,204,430,-99,-116,538,127,197,110,12,285,-221,294,55,270,-33,-295,-244,-101,-235,59,61,-267,31,137,23,150,-327,36,-11,-106,-155
84747,84,267,366,-120,-118,469,128,206,96,-6,289,-216,312,49,252,-51,-251,-231,-89,-239,51,82,-254,56,144,27,127,-260,75,15,-85,-137
84748,83,333,406,-91,-105,427,109,234,103,0,362,-221,323,62,255,-59,-249,-219,-67,-199,33,28,-242,66,158,19,133,-239,68,23,-78,-140
84749,86,293,392,-145,-115,384,136,217,117,-23,236,-209,320,74,236,-116,-213,-215,-59,-222,2,2,-234,73,154,20,110,-276,58,15,-88,-127
84750,144,307,450,-97,-109,333,165,263,140,-26,153,-147,370,69,212,-91,-174,-172,-31,-205,21,25,-196,113,193,34,103,-263,95,36,-76,-71
84751,184,434,513,-89,-71,355,233,266,153,-30,221,-132,377,86,231,-47,-216,-151,-26,-187,49,26,-186,121,215,47,116,-240,114,31,-76,-72
84752,155,462,513,-76,-69,350,233,275,158,-41,163,-87,378,87,219,-41,-250,-142,-17,-183,49,74,-153,150,213,56,144,-205,136,78,-50,-24
84753,167,449,482,-78,-85,368,176,270,137,-26,150,-94,371,81,218,-63,-216,-156,-12,-185,31,25,-138,142,219,27,105,-233,124,65,-44,-96
84754,175,489,412,-104,-85,328,119,263,134,-34,223,-140,370,84,209,-67,-208,-159,-10,-189,44,9,-150,129,218,15,102,-231,111,41,-68,-116
84755,144,394,298,-82,-91,288,239,302,139,-43,206,-123,371,89,224,-57,-220,-141,-11,-181,61,105,-162,137,239,51,177,-212,122,70,-28,-22
84756,140,252,348,-71,-88,352,309,319,154,-41,165,-114,373,100,234,-35,-187,-142,1,-163,54,117,-143,148,244,50,194,-178,160,92,-4,-5
84757,197,228,448,-68,-90,381,328,347,141,-31,150,-113,362,91,217,-81,-164,-155,-10,-182,40,34,-133,131,228,21,114,-137,145,49,-49,-171
84758,202,400,514,-51,-85,364,318,358,136,-40,136,-94,362,103,228,-234,-171,-163,-29,-210,59,49,-128,123,220,12,83,-177,122,11,-77,-199
84759,175,455,538,-61,-100,379,321,301,136,-27,186,-82,368,109,254,-218,-161,-160,-16,-187,77,108,-157,114,209,21,128,-163,125,25,-57,-65
84760,179,518,531,-61,-75,388,333,267,129,-19,211,-83,377,100,233,-51,-159,-162,-17,-204,60,85,-176,81,202,-1,101,-176,75,17,-96,-87
84761,188,562,504,-55,-73,326,357,291,153,-45,187,-82,356,91,193,60,-169,-163,-29,-229,-48,36,-132,92,205,-39,41,-161,85,25,-96,-106
84762,161,547,476,-43,-83,283,394,313,153,-37,146,-61,377,92,183,-3,-154,-156,-24,-232,-55,-5,-130,113,210,-25,30,-111,137,42,-81,-134
84763,154,519,430,-63,-76,273,359,352,138,-56,136,9,379,74,174,-41,-201,-153,-39,-244,-46,14,-166,66,186,-52,35,-182,94,9,-116,-140
84764,85,441,364,4,-92,226,282,502,165,-74,80,89,419,58,131,-107,-195,-138,-43,-263,-96,-11,-169,65,151,-83,-21,-215,74,-27,-150,-189
84765,-8,364,367,45,-103,284,258,572,169,-67,83,33,419,65,136,-153,-207,-164,-55,-279,-98,-50,-184,72,137,-81,-16,-198,77,-19,-126,-194
84766,-53,333,407,84,-93,316,266,532,172,-51,142,-39,409,55,184,-157,-174,-139,-56,-268,-71,-50,-176,68,158,-57,-3,-194,85,-8,-106,-167
84767,54,320,368,84,-67,304,255,539,188,-41,181,-81,412,77,187,-146,-147,-138,-47,-256,-45,3,-163,76,162,-41,12,-188,98,1,-99,-150
84768,2,290,348,60,-69,302,242,549,196,-63,153,-91,404,65,180,-126,-176,-161,-37,-246,-53,-30,-161,74,164,-35,10,-204,95,19,-91,-165
84769,-119,314,416,14,-93,310,291,440,161,-76,151,-57,389,34,199,-93,-257,-164,-55,-244,-22,33,-189,80,173,-18,75,-188,123,50,-48,-72
84770,30,348,494,-17,-73,375,414,351,148,-48,244,-19,386,59,239,-49,-245,-159,-33,-206,31,101,-178,91,189,34,126,-192,141,58,-50,-58
84771,189,332,572,-36,-59,400,402,270,153,-33,273,-72,383,91,273,5,-147,-140,8,-197,60,49,-114,103,226,51,105,-134,150,69,-38,-150
84772,197,165,572,-103,-85,411,320,200,139,-23,250,-188,371,88,265,-5,-98,-134,10,-163,90,83,-115,133,256,87,143,-79,181,110,-8,-64
84773,227,209,583,-148,-99,363,292,159,125,-21,260,-186,341,87,271,-47,-121,-140,6,-150,103,110,-127,143,255,100,160,-85,190,131,9,-9
84774,225,317,576,-147,-87,289,234,197,123,-38,234,-175,368,94,272,-43,-149,-136,17,-146,94,90,-115,155,267,106,156,-131,182,143,37,-47
84775,187,330,549,-117,-71,297,230,240,150,-33,232,-171,388,73,247,-45,-121,-164,5,-161,77,130,-124,161,244,83,142,-120,192,135,12,-58
84776,193,342,520,-84,-66,324,279,266,138,-21,256,-157,387,75,261,0,-125,-149,7,-167,84,165,-118,179,243,87,183,-140,178,122,13,7
84777,219,368,516,-72,-74,333,274,261,138,-32,256,-126,371,62,248,18,-120,-143,-25,-190,94,95,-111,142,235,79,180,-152,152,106,3,-7
84778,226,444,524,-61,-76,346,255,286,153,-29,258,-123,387,82,278,49,-85,-139,-1,-165,112,127,-94,164,271,125,212,-67,232,171,66,92
84779,98,358,441,-71,-99,391,281,293,127,-40,300,-145,372,63,272,20,-108,-156,-11,-155,131,184,-121,151,246,128,246,-59,213,177,63,154
84780,-109,215,341,-40,-115,360,67,340,134,-36,215,-149,382,73,270,16,-61,-126,-5,-143,118,222,-68,168,269,133,277,39,235,209,99,83
84781,-156,-48,215,3,-122,484,-14,455,137,-31,220,-150,400,75,248,17,-86,-146,0,-163,110,140,-66,169,256,125,266,26,212,176,67,-11
84782,-60,-183,221,23,-112,514,92,447,146,-14,252,-138,370,64,242,-5,-165,-193,-25,-204,73,9,-168,98,216,68,189,-233,108,83,-4,-44
84783,35,4,293,-37,-79,453,87,320,131,-16,304,-145,334,74,246,-81,-139,-198,-46,-204,33,46,-170,94,211,72,144,-190,126,89,-21,-11
84784,104,186,370,-52,-64,540,64,293,124,-18,319,-56,343,58,248,-88,-155,-180,-39,-203,9,14,-167,107,192,55,84,-184,142,97,-7,-88
84785,136,419,375,-49,-79,393,217,368,142,-56,258,75,387,51,267,-44,-120,-122,-8,-186,57,49,-119,154,233,101,135,-114,210,162,65,-80
84786,148,475,435,-23,-108,310,179,391,139,-84,214,114,411,50,283,-144,-115,-98,-8,-175,118,140,-119,139,231,93,207,-207,170,112,20,-112
84787,143,451,487,-8,-103,303,235,463,163,-71,168,59,422,60,291,-122,-96,-93,-14,-169,150,145,-105,140,224,106,230,-248,122,54,-48,-217
84788,53,410,288,29,-97,293,251,558,194,-51,172,-86,457,90,278,59,-43,-100,14,-164,130,114,-68,151,250,130,259,-221,155,94,-18,-186
84789,-48,405,198,70,-97,271,293,541,180,-76,185,-138,424,77,219,147,-10,-134,-6,-197,25,118,-83,134,225,77,186,-225,178,101,7,-92
84790,61,370,365,96,-82,300,329,453,187,-84,188,-76,418,76,223,0,-40,-126,-16,-218,-17,135,-99,124,213,47,92,-182,174,108,6,-29
84791,152,374,490,32,-81,336,341,392,173,-82,173,-49,392,49,221,-228,-78,-136,-16,-217,44,117,-104,103,189,42,98,-127,178,101,-1,-58
84792,257,467,590,-29,-67,284,376,336,166,-84,170,-60,398,53,223,-280,-73,-140,-20,-213,46,91,-103,118,208,48,95,-120,174,78,-21,-53
84793,244,470,562,-50,-51,287,359,279,163,-70,197,-98,378,75,225,48,-79,-148,-15,-200,63,170,-113,117,222,67,123,-121,164,94,-20,23
84794,233,404,591,-59,-71,286,330,248,152,-59,209,-113,359,59,239,203,-104,-160,-5,-192,60,185,-123,106,208,76,164,-90,172,115,-2,70
84795,233,385,609,-85,-73,301,341,191,150,-44,216,-131,358,53,233,115,-166,-179,-39,-192,8,161,-164,99,206,58,137,-158,144,83,-3,36
84796,203,411,545,-106,-87,279,361,177,140,-42,232,-139,346,68,252,46,-230,-203,-41,-186,57,163,-193,104,226,86,159,-160,155,121,17,5
84797,163,395,495,-107,-80,260,318,202,132,-48,198,-119,339,79,253,-13,-224,-207,-11,-185,75,162,-172,120,216,97,177,-108,201,157,39,17
84798,157,361,481,-101,-84,233,241,197,139,-62,139,-177,350,70,237,-32,-207,-216,2,-190,77,166,-176,122,215,108,187,-133,170,141,44,47
84799,128,352,441,-93,-78,238,264,198,142,-66,143,-250,357,71,230,23,-218,-225,-14,-189,70,177,-204,96,210,99,184,-215,131,115,10,35
84800,81,320,417,-87,-84,237,330,225,150,-60,126,-231,354,70,205,19,-216,-219,-18,-212,39,172,-199,103,207,82,166,-195,115,105,1,11
84801,4,220,378,-83,-96,253,280,257,154,-67,127,-213,364,47,208,-54,-202,-197,-12,-212,26,95,-178,119,209,67,143,-159,138,106,18,27
84802,2,103,298,-147,-100,287,122,274,155,-86,102,-232,372,64,202,-41,-213,-188,-13,-211,31,97,-169,136,226,83,178,-124,200,153,67,111
84803,-76,-8,247,-112,-106,325,-40,275,150,-59,165,-282,365,54,196,-80,-252,-215,-20,-210,21,48,-190,123,229,90,141,-165,176,159,71,54
84804,-343,-220,83,-13,-105,518,-139,307,146,-15,244,-306,351,51,203,-108,-262,-238,-35,-209,1,11,-219,93,189,65,108,-197,120,125,37,32
84805,-743,-450,-172,22,-84,647,-157,374,151,-1,283,-265,350,59,211,-124,-264,-252,-69,-219,-16,-31,-243,75,188,49,90,-244,93,85,-17,44
84806,-596,-405,-218,106,-92,680,-160,481,172,6,248,-273,367,46,217,-140,-295,-260,-90,-235,-16,-10,-255,41,154,35,82,-268,72,81,-57,4
84807,-92,-155,2,44,-84,567,-35,441,162,-22,117,-234,351,34,207,-172,-289,-242,-80,-254,-7,-58,-242,53,148,28,59,-267,88,74,-32,-77
84808,76,92,232,-7,-93,363,61,388,147,-48,83,-181,370,53,237,-298,-205,-200,-51,-219,39,-85,-198,95,190,60,54,-169,155,97,-5,-185
84809,122,356,432,-57,-107,222,-1,293,140,-45,196,-88,383,72,262,-140,-155,-171,-30,-182,105,22,-168,119,210,81,94,-161,148,106,2,-162
84810,250,442,574,-85,-110,254,56,280,128,-41,261,79,394,76,262,144,-151,-109,-5,-179,85,75,-117,137,210,91,117,-151,176,123,25,-129
84811,300,484,658,-136,-132,225,167,190,114,-75,230,117,369,68,234,173,-114,-89,3,-201,4,104,-71,165,231,92,159,-104,222,165,58,-47
84812,350,567,650,-153,-111,178,262,207,108,-63,171,9,383,92,211,39,-8,-81,-13,-184,56,152,-15,211,258,111,192,-11,283,224,114,48
84813,316,570,586,-144,-91,193,345,260,112,-47,149,-37,391,69,228,54,21,-68,-8,-168,89,168,-9,203,281,137,252,8,325,271,162,111
84814,262,539,540,-113,-66,202,408,287,130,-34,140,-57,382,69,258,65,3,-77,-14,-159,99,218,-32,179,275,139,274,-24,300,248,164,109
84815,228,491,499,-121,-48,214,371,281,125,-53,175,-98,368,60,260,81,-47,-114,-43,-165,118,221,-95,145,229,131,257,-94,210,197,109,73
84816,207,448,481,-146,-75,228,282,246,126,-54,153,-97,352,45,263,56,-69,-121,-43,-160,118,222,-113,148,238,138,278,-63,243,246,152,159
84817,172,408,493,-106,-77,248,255,250,141,-41,164,-91,339,52,267,29,-60,-140,-41,-168,120,174,-117,143,237,130,269,-73,228,233,117,109
84818,170,409,489,-99,-63,274,292,263,133,-39,180,-59,347,53,242,22,-67,-159,-54,-175,100,139,-129,105,220,116,217,-119,202,177,85,66
84819,120,373,438,-125,-66,293,245,250,133,-40,198,-57,353,50,255,61,-94,-146,-55,-174,136,234,-122,132,234,138,284,-72,241,242,156,170
84820,52,326,393,-151,-92,286,200,223,123,-32,217,-88,321,59,266,48,-157,-165,-53,-172,137,208,-130,148,241,134,320,-65,254,265,170,174
84821,13,304,371,-154,-91,310,227,239,123,-38,209,-81,351,51,264,66,-164,-150,-30,-149,149,192,-122,167,248,162,310,-36,276,288,193,164
84822,-36,232,318,-123,-96,315,249,302,114,-33,211,-92,368,53,283,49,-149,-136,-30,-142,155,189,-90,174,279,203,322,-3,300,314,212,202
84823,-72,170,249,-92,-83,339,270,354,111,-33,210,-212,363,39,277,58,-159,-177,-32,-157,161,128,-118,152,266,183,280,-42,284,269,154,71
84824,-59,162,257,-87,-81,388,211,325,130,-10,244,-261,362,51,301,95,-139,-188,-41,-140,170,152,-137,140,243,171,297,-105,259,217,140,43
84825,-111,107,156,-71,-91,409,85,335,147,-12,217,-218,371,55,305,98,-136,-172,-37,-144,159,133,-147,162,248,174,320,-111,255,246,140,91
84826,-88,113,145,-93,-80,377,139,310,144,-26,220,-195,357,36,286,42,-168,-164,-27,-149,138,135,-132,172,259,147,287,-79,273,240,150,94
84827,-51,224,188,-105,-93,369,206,282,143,-21,258,-141,368,45,294,53,-117,-122,0,-166,140,233,-72,197,279,174,328,0,305,269,167,170
84828,-47,289,241,-111,-97,328,258,315,136,-19,271,-80,390,69,277,74,-75,-84,0,-172,148,221,-22,232,270,168,309,68,335,268,156,151
84829,0,259,369,-100,-89,344,232,313,141,-25,249,-67,390,75,296,133,-65,-81,0,-161,172,251,-26,229,277,183,327,35,334,287,181,156
84830,36,241,382,-105,-76,335,277,330,131,-29,270,-62,385,90,303,161,-101,-109,0,-157,195,283,-88,198,273,192,365,-25,289,264,156,160
84831,43,300,371,-97,-80,343,283,382,153,-36,285,-20,408,83,288,116,-76,-101,2,-161,177,267,-85,181,264,169,376,-32,272,253,133,203
84832,38,342,366,-66,-90,329,291,474,181,-45,237,77,435,79,283,114,-22,-53,22,-145,181,288,-41,209,276,181,367,8,294,265,146,184
84833,-50,231,353,8,-84,383,295,458,155,-40,265,4,417,72,295,133,-18,-73,2,-132,194,304,-53,206,243,169,391,17,289,239,140,122
84834,-95,262,323,17,-81,398,288,414,160,-26,282,-46,407,71,327,-161,3,-83,-3,-116,233,290,-47,200,247,168,433,42,295,251,144,195
84835,-72,213,327,13,-80,327,243,472,146,-40,241,-32,431,81,313,-262,17,-44,3,-137,251,302,-16,201,254,180,420,39,310,279,165,273
84836,8,176,472,37,-73,368,285,486,173,-24,226,50,445,84,325,127,-5,-47,6,-130,264,317,-3,224,256,191,447,1,322,292,189,280
84837,91,269,552,-18,-69,375,330,463,163,-23,283,128,439,89,302,430,7,-34,-1,-155,175,302,13,197,241,143,414,-56,295,244,133,210
84838,120,323,591,-25,-71,360,353,408,150,-45,260,88,428,88,258,353,23,-45,-7,-171,62,237,-6,165,197,102,311,-120,239,178,65,97
84839,128,229,558,-76,-91,478,342,350,131,-20,359,-12,381,74,290,146,-17,-114,-34,-196,101,151,-70,129,161,93,255,-96,221,131,35,65
84840,109,21,574,-99,-100,516,282,368,105,-6,312,-7,369,74,289,180,-3,-119,-44,-190,115,162,-73,115,170,98,269,-110,193,120,33,52
84841,126,-2,615,-47,-92,430,275,392,114,-12,238,60,394,98,278,202,26,-74,-29,-167,153,254,-41,125,197,120,343,-140,197,157,58,144
84842,180,109,604,-102,-90,378,276,374,105,-21,319,69,383,87,282,104,-4,-73,-52,-180,127,189,-36,135,189,100,301,-83,216,147,42,112
84843,252,418,619,-123,-78,291,328,367,123,-32,292,82,388,95,283,136,3,-48,-19,-164,123,202,-50,150,212,102,286,24,238,158,62,133
84844,194,487,608,-96,-81,311,373,352,136,-33,289,66,386,75,287,155,-9,-72,-16,-159,131,219,-63,160,217,89,267,11,233,159,38,157
84845,192,502,596,-77,-68,284,378,373,140,-46,283,70,385,75,279,126,-12,-81,-20,-185,96,207,-66,149,202,84,244,-13,205,117,-2,137
84846,160,512,596,-49,-73,279,407,370,143,-38,255,73,387,78,260,108,-9,-109,-47,-189,84,205,-122,103,177,58,234,-50,135,62,-62,80
84847,140,506,558,-49,-79,286,413,387,147,-51,237,110,402,93,252,99,-51,-110,-42,-199,78,174,-136,88,168,61,218,-32,138,54,-39,63
84848,139,433,550,-60,-90,296,348,355,147,-46,269,119,396,75,250,89,-113,-112,-47,-201,91,196,-156,85,156,52,242,-104,136,47,-40,123
84849,107,339,520,-77,-77,369,347,344,150,-33,264,98,356,44,259,68,-155,-132,-69,-217,99,224,-179,66,148,39,261,-135,117,45,-58,145
84850,99,322,465,-79,-86,375,325,321,151,-42,254,-41,353,49,258,37,-120,-161,-77,-224,103,178,-210,42,132,53,235,-177,88,4,-96,29
84851,40,296,399,-91,-97,345,214,327,148,-38,285,-105,361,56,277,16,-77,-130,-44,-214,88,111,-138,101,172,68,215,-67,156,58,-43,9
84852,-19,242,371,-83,-89,397,133,375,152,-34,330,-75,389,66,280,69,-61,-101,-28,-207,101,144,-105,133,196,67,207,16,201,93,-21,30
84853,11,204,401,-42,-106,431,162,465,158,-50,302,6,417,60,236,85,-47,-104,-26,-208,74,145,-135,104,187,56,181,-184,131,48,-53,12
84854,-7,156,437,-3,-95,401,144,502,177,-35,300,46,435,66,245,40,-62,-105,-19,-207,66,87,-121,91,173,39,157,-363,83,3,-76,-5
84855,-42,136,376,-15,-96,401,153,414,155,-23,310,-26,405,72,255,83,-122,-108,-18,-201,90,81,-114,95,178,57,181,-316,107,21,-75,-20
84856,6,213,423,-13,-76,314,217,396,152,-40,240,-36,417,67,238,100,-48,-95,-4,-201,93,71,-59,123,201,66,190,-235,164,59,-43,-36
84857,17,226,478,25,-73,361,329,432,170,-15,252,10,440,108,272,109,-20,-52,22,-169,135,99,19,184,232,128,238,-52,264,160,32,68
84858,72,291,503,-19,-90,330,378,410,173,-35,255,59,445,100,279,122,-6,-28,37,-142,153,102,29,218,273,152,275,82,318,225,111,92
84859,89,334,494,-50,-102,315,392,409,159,-41,250,55,443,97,291,196,-31,-29,39,-124,188,147,-1,211,301,179,351,118,334,242,157,-32
84860,13,313,482,-76,-112,311,473,366,123,-20,276,-2,400,104,315,170,-33,-89,8,-122,221,166,-87,177,283,194,435,3,265,201,91,-184
84861,-5,296,456,-59,-101,357,475,395,137,1,316,39,405,116,351,181,-32,-99,24,-86,260,260,-86,186,284,238,497,-39,253,212,113,56
84862,78,313,486,-92,-90,406,367,439,146,13,338,160,407,136,379,-12,-28,-74,35,-77,291,236,-76,172,299,222,412,-121,224,200,93,137
84863,119,254,575,-105,-102,425,323,438,119,22,332,182,426,126,366,-36,17,-37,32,-76,258,237,11,183,310,205,338,-133,250,207,87,219
84864,50,112,530,-85,-103,508,264,375,104,58,409,14,414,136,401,221,52,-46,53,-70,278,345,79,224,332,235,396,-166,271,245,152,283
84865,117,93,548,-90,-105,580,265,350,109,65,441,1,396,126,367,341,50,-35,48,-79,226,323,110,227,319,220,428,-173,303,266,162,154
84866,192,193,643,-69,-101,504,337,348,111,29,431,37,415,142,381,272,11,-33,53,-66,254,327,68,247,341,255,508,-143,292,262,157,81
84867,189,286,637,-63,-106,427,430,349,86,4,353,54,402,128,389,285,36,-43,48,-61,264,333,43,225,359,266,437,-114,281,262,153,268
84868,229,382,633,-30,-69,378,497,408,127,21,351,99,453,157,401,323,115,-6,73,-24,280,383,47,272,398,283,380,34,340,309,214,421
84869,221,452,625,-29,-80,399,552,412,131,15,380,114,448,146,399,214,84,-14,61,-43,267,391,4,236,362,254,335,63,316,249,169,299
84870,203,494,666,-16,-95,357,541,441,132,-3,320,128,444,134,369,197,38,-17,75,-48,247,408,-31,229,366,260,358,51,337,268,172,286
84871,207,489,680,-7,-88,343,491,451,119,-5,316,152,457,139,368,185,-27,-17,66,-50,254,399,-51,236,368,263,369,38,318,274,182,287
