,Fp1,Fp2,F7,F3,Fz,F4,F8,FC5,FC1,FC2,FC6,T7,C3,Cz,C4,T8,TP9,CP5,CP1,CP2,CP6,TP10,P7,P3,Pz,P4,P8,PO9,O1,Oz,O2,PO10
218215,-6,126,-273,201,93,542,77,-296,272,45,361,-121,390,576,345,346,-610,136,248,398,219,508,353,260,320,671,664,201,192,401,281,522
218216,-14,106,-267,195,77,526,49,-310,249,43,335,-133,387,552,310,300,-658,155,235,392,210,490,363,276,355,673,683,257,228,444,312,511
218217,32,150,-209,228,76,573,102,-243,277,75,387,-89,421,559,361,329,-633,181,269,425,258,534,421,299,398,715,729,361,294,503,364,555
218218,88,203,-144,256,87,601,138,-229,283,91,406,-61,424,597,408,330,-554,218,284,438,282,560,451,321,409,736,760,414,336,521,365,525
218219,111,233,-140,254,86,615,178,-232,265,75,442,-63,425,565,418,324,-580,217,274,445,288,571,444,309,400,731,732,384,346,512,361,522
218220,150,261,-117,261,118,628,194,-228,271,88,479,-42,424,598,446,403,-574,222,283,481,347,623,461,325,428,794,792,264,317,513,370,586
218221,159,277,-104,271,139,622,212,-220,286,81,484,-12,429,597,455,445,-498,238,274,490,354,639,457,360,448,797,823,256,291,530,395,592
218222,146,284,-102,256,139,629,236,-237,283,83,476,7,420,596,473,435,-505,251,284,513,354,645,483,354,469,792,803,289,302,544,403,618
218223,139,255,-120,251,130,625,240,-236,273,101,482,8,406,613,481,376,-496,234,291,513,360,672,449,334,474,797,796,275,287,537,432,664
218224,89,211,-149,247,117,581,156,-259,256,86,436,0,400,589,450,328,-501,217,315,513,338,601,456,338,483,802,815,352,323,582,451,647
218225,68,198,-155,229,130,574,113,-310,251,59,429,-15,399,579,428,287,-511,196,313,506,302,524,449,330,472,765,768,328,305,534,403,550
218226,36,161,-213,205,98,566,100,-366,218,57,391,-63,380,563,396,267,-582,218,256,457,238,482,388,320,455,726,663,261,261,474,352,519
218227,52,209,-186,226,129,606,136,-296,243,65,393,-45,415,572,410,315,-555,231,288,452,242,522,429,344,460,735,664,277,290,513,362,526
218228,41,238,-164,224,141,591,130,-287,236,59,395,-68,406,560,394,337,-523,199,273,457,216,537,432,340,433,740,679,248,270,476,353,529
218229,62,245,-147,244,162,607,153,-259,258,71,413,-62,420,565,397,339,-528,203,283,444,232,524,461,326,430,745,697,199,223,461,363,540
218230,88,250,-138,245,156,637,157,-246,258,90,425,-34,430,604,437,304,-555,239,321,450,257,544,443,350,457,769,733,297,301,567,405,575
218231,62,208,-170,229,134,618,118,-260,246,56,414,-40,408,563,380,253,-575,202,282,442,229,536,420,308,410,736,670,254,263,523,348,526
218232,57,223,-174,242,132,595,111,-255,255,68,391,-67,396,541,358,247,-546,210,262,418,184,522,402,286,386,709,650,208,194,454,290,476
218233,65,237,-172,232,139,600,152,-261,265,83,419,-62,391,574,376,303,-528,224,269,426,199,521,418,290,378,696,652,214,179,436,264,412
218234,45,208,-139,241,134,573,146,-276,262,59,376,-84,397,553,326,303,-532,230,260,412,166,540,446,290,377,680,641,228,178,422,258,451
218235,56,214,-126,241,127,595,146,-312,265,73,400,-110,380,560,344,286,-544,182,253,419,176,547,359,273,355,677,648,256,202,443,256,500
218236,56,197,-175,226,125,569,102,-330,262,64,372,-110,353,552,348,285,-562,150,252,397,187,539,340,256,325,652,637,171,167,388,218,462
218237,73,232,-167,220,123,547,91,-323,248,57,319,-46,379,557,347,266,-602,178,273,392,179,549,396,276,341,647,654,197,179,388,241,475
218238,80,240,-129,243,120,584,118,-333,257,68,371,-55,399,556,416,270,-593,214,279,403,204,546,428,290,328,658,692,221,195,420,282,488
218239,127,278,-80,271,156,614,169,-291,277,56,442,-53,417,554,401,354,-509,254,284,410,206,606,421,321,347,670,700,280,212,435,290,506
218240,176,303,-85,279,142,606,183,-267,265,37,484,-39,415,553,345,365,-498,235,290,396,189,650,400,321,336,656,718,311,242,447,323,542
218241,170,313,-69,275,137,600,219,-251,276,43,444,-16,441,553,386,362,-538,246,286,393,211,634,454,346,354,659,738,315,286,496,333,515
218242,139,282,-100,242,145,574,216,-248,286,42,421,-40,448,566,377,346,-545,251,290,395,215,653,476,342,360,655,751,337,305,510,332,527
218243,112,269,-136,254,136,608,218,-268,281,73,465,-27,448,583,400,322,-518,229,315,402,233,621,469,339,370,656,711,339,275,459,327,546
218244,81,246,-147,221,126,594,192,-301,283,78,462,-64,417,552,365,314,-544,208,273,394,209,624,422,301,351,646,687,323,236,422,278,544
218245,78,258,-155,210,132,574,195,-309,258,59,435,-89,396,546,360,314,-590,178,245,388,208,619,406,285,329,657,691,332,244,453,265,492
218246,103,276,-156,234,139,605,180,-287,256,70,436,-76,406,550,385,328,-571,183,253,393,208,610,413,262,309,656,701,222,195,396,247,462
218247,93,258,-151,241,142,620,162,-263,284,102,390,-81,424,546,369,291,-573,162,268,390,222,608,372,247,342,662,677,212,168,382,286,518
218248,73,239,-180,243,141,595,126,-254,301,88,371,-64,450,568,360,279,-542,227,284,416,225,577,401,273,360,678,662,264,185,416,299,521
218249,54,225,-174,246,128,592,109,-262,287,79,376,-43,440,579,374,298,-596,191,271,403,210,609,356,263,349,670,683,226,179,409,292,457
218250,31,229,-212,196,116,597,113,-323,286,67,391,-62,417,583,347,295,-679,175,274,391,216,608,330,247,339,666,678,167,161,389,297,440
218251,21,229,-280,166,110,602,130,-374,288,73,397,-69,397,579,359,279,-668,207,289,409,233,587,328,253,326,656,648,209,207,422,305,449
218252,29,251,-258,192,132,627,183,-344,275,56,406,-121,380,557,379,299,-685,179,278,387,229,538,315,234,312,613,601,182,138,351,237,441
218253,77,264,-214,208,129,623,216,-351,282,55,410,-136,373,560,373,328,-698,149,260,369,196,519,313,216,301,614,600,165,141,354,232,465
218254,69,270,-257,203,90,591,200,-380,252,46,379,-173,349,526,349,296,-716,106,240,346,144,490,268,174,257,581,581,84,83,322,173,407
218255,30,229,-285,178,81,553,142,-392,263,46,358,-184,340,528,339,279,-740,103,235,362,149,468,230,177,270,587,604,42,60,292,182,364
218256,4,248,-328,197,96,576,177,-392,284,59,377,-157,378,560,387,293,-741,134,248,382,171,484,290,218,327,610,615,94,123,355,226,320
218257,0,247,-318,207,101,602,170,-368,267,50,392,-134,373,562,384,263,-705,153,255,377,177,445,297,227,321,625,554,178,166,367,234,374
218258,15,243,-288,197,102,600,158,-329,250,48,384,-134,366,538,352,254,-661,151,244,374,162,439,312,232,310,613,549,249,218,390,250,393
218259,27,272,-259,243,119,608,192,-302,282,74,390,-129,386,544,372,252,-643,147,241,389,186,496,340,235,320,608,568,248,208,412,239,374
218260,43,247,-238,249,129,619,181,-317,280,53,396,-151,367,527,382,164,-661,130,227,377,169,461,307,213,295,598,516,143,122,331,160,350
218261,10,194,-271,239,107,605,146,-321,283,51,376,-163,385,512,382,198,-672,134,237,389,162,485,279,224,278,620,535,222,198,387,187,367
218262,-16,184,-278,247,122,587,121,-299,299,57,384,-153,413,537,399,284,-667,138,259,419,195,505,316,252,323,663,595,351,264,475,247,472
218263,52,225,-249,245,142,621,163,-263,279,78,404,-114,424,553,426,306,-649,171,296,425,220,534,367,273,343,668,628,321,248,484,275,540
218264,93,267,-211,275,146,643,202,-232,303,92,430,-83,430,542,435,317,-662,199,282,425,242,574,353,261,337,644,621,179,194,412,213,481
218265,101,273,-193,302,155,620,217,-247,297,84,452,-75,414,556,444,333,-640,197,261,433,247,592,333,256,338,642,614,163,133,359,160,396
218266,71,262,-184,281,145,617,208,-251,284,87,447,-89,422,576,448,340,-616,203,289,447,267,603,389,289,364,685,662,305,256,446,263,471
218267,47,271,-195,266,154,612,239,-246,282,75,465,-116,423,563,477,383,-643,198,282,451,290,623,405,297,354,705,677,294,247,459,258,498
218268,58,294,-193,274,149,606,259,-274,272,88,452,-121,417,565,490,403,-678,200,256,450,286,632,402,275,336,696,702,176,154,374,252,511
218269,65,280,-235,255,125,587,237,-311,247,83,412,-110,391,552,491,385,-702,168,247,456,274,629,372,231,297,670,709,152,151,355,224,504
218270,63,258,-259,226,129,597,202,-312,262,91,433,-127,380,563,531,364,-724,148,258,474,299,635,315,230,339,710,708,210,184,397,270,560
218271,76,294,-230,244,143,606,224,-283,270,97,500,-110,407,591,454,478,-662,161,290,490,304,677,370,274,392,724,756,225,218,464,295,548
218272,64,308,-215,274,140,622,269,-292,288,90,520,-98,433,590,465,452,-607,189,295,489,264,672,395,297,400,729,689,252,243,478,299,558
218273,105,302,-183,270,120,625,261,-261,298,99,454,-49,442,585,470,409,-607,222,313,473,289,659,394,321,414,732,671,293,283,482,319,585
218274,95,295,-177,268,131,620,270,-237,301,98,455,-27,434,591,444,393,-578,225,324,487,273,671,383,332,410,725,675,275,288,474,343,584
218275,90,267,-179,272,125,613,238,-243,283,112,479,-46,412,589,454,371,-577,211,315,494,251,665,398,320,411,750,664,292,293,475,336,582
218276,86,251,-203,255,117,624,193,-248,282,98,514,-88,412,601,471,335,-617,192,324,504,252,624,394,315,434,765,678,306,292,489,366,619
218277,32,247,-235,243,104,602,164,-265,268,81,419,-96,391,589,445,310,-620,227,312,497,246,624,399,306,443,767,696,333,318,529,385,638
218278,38,256,-205,254,128,613,198,-278,246,88,411,-90,411,596,477,335,-623,223,329,500,254,632,413,326,442,758,697,317,368,524,371,543
218279,29,237,-180,238,116,623,209,-279,254,83,443,-63,390,599,455,336,-598,194,321,486,249,637,426,313,403,744,667,261,326,503,347,526
218280,45,220,-191,236,115,606,228,-255,269,85,438,-38,399,583,431,322,-575,216,290,476,226,621,420,298,377,732,649,176,184,394,245,519
218281,43,217,-194,230,126,596,166,-242,283,68,407,-41,424,591,441,246,-539,246,299,471,234,598,443,295,392,749,681,247,181,390,304,544
218282,87,262,-140,278,136,596,171,-254,301,69,424,-17,442,610,472,290,-499,265,330,483,254,677,473,337,402,764,713,333,300,483,369,590
218283,85,283,-110,310,174,632,219,-220,316,103,434,-27,449,630,486,354,-553,278,346,476,295,699,492,348,406,799,725,385,374,514,383,588
218284,69,234,-123,286,136,600,172,-195,313,91,413,-25,454,629,466,306,-544,285,356,482,276,648,495,359,437,785,732,396,394,510,376,554
218285,63,213,-157,267,146,585,121,-217,306,89,380,-48,463,618,453,238,-498,279,344,487,261,578,490,361,415,780,678,355,368,517,350,535
218286,27,205,-212,242,130,566,125,-261,289,71,357,-36,429,597,444,198,-535,254,307,462,235,593,436,326,383,747,660,245,261,453,320,568
218287,54,197,-178,261,122,560,114,-243,277,78,353,-25,410,607,415,230,-615,269,297,447,198,543,445,299,366,725,628,175,193,373,298,550
218288,49,231,-182,274,132,560,116,-246,279,90,361,-26,413,610,425,263,-610,258,304,452,203,585,421,306,381,735,625,194,190,360,286,525
218289,42,242,-213,291,132,567,139,-234,273,92,364,-28,434,625,403,219,-573,229,307,459,191,597,413,310,377,700,632,224,205,376,267,470
218290,46,218,-186,278,129,572,122,-221,275,86,346,-20,447,607,405,240,-562,249,324,441,225,572,466,319,375,694,663,229,207,383,237,457
218291,22,201,-164,289,116,574,112,-236,296,104,364,-25,447,615,399,271,-620,259,304,433,209,545,405,314,386,678,650,186,189,371,230,438
218292,-19,202,-257,231,94,570,116,-308,261,73,355,-63,409,602,386,244,-667,201,272,411,184,521,296,277,363,642,598,223,191,351,236,438
218293,-42,165,-286,185,78,560,88,-357,247,56,317,-103,389,582,367,205,-699,175,271,398,142,494,310,278,354,658,580,207,212,373,247,459
218294,-44,162,-229,208,82,558,91,-336,248,74,309,-112,371,587,362,222,-705,174,279,419,137,491,366,305,379,665,580,219,251,414,258,439
218295,-34,181,-250,186,77,585,114,-333,248,92,359,-124,359,594,384,230,-698,161,273,435,164,509,360,293,374,686,599,191,266,440,272,432
218296,10,214,-218,209,102,607,155,-310,251,98,387,-90,378,598,432,256,-666,201,294,456,234,540,389,330,411,730,685,220,326,489,321,487
218297,26,194,-189,214,91,586,143,-289,234,89,369,-82,385,591,412,234,-636,201,291,429,210,512,436,335,415,706,662,258,362,526,355,484
218298,33,198,-178,206,76,575,120,-267,230,77,358,-93,379,598,407,224,-611,205,272,417,180,505,421,318,386,682,619,225,325,478,343,501
218299,14,231,-187,231,95,604,138,-239,256,85,376,-90,386,619,431,260,-622,228,307,442,229,483,443,323,377,695,677,266,325,473,306,474
218300,0,218,-181,248,101,596,127,-253,267,75,354,-68,370,584,386,186,-624,219,282,391,149,463,410,308,342,631,543,292,320,393,203,324
218301,20,203,-185,252,93,558,96,-248,251,59,343,-75,398,562,376,133,-697,209,251,361,121,456,404,294,326,602,431,247,289,375,184,385
218302,3,207,-203,239,96,556,71,-267,244,47,353,-84,373,546,385,183,-721,180,245,364,145,470,382,265,305,597,491,164,235,347,181,381
218303,0,184,-218,218,92,557,75,-265,247,58,316,-119,357,536,377,121,-662,173,229,354,104,480,320,251,284,593,505,117,208,332,185,363
218304,-47,146,-271,178,74,529,37,-274,255,50,323,-120,345,552,414,112,-619,176,253,336,141,520,338,235,275,614,522,101,172,291,160,371
218305,-46,153,-205,192,68,534,114,-253,252,30,398,-79,389,567,359,241,-604,206,264,365,188,586,403,279,299,636,601,155,186,335,211,436
218306,-22,156,-174,194,63,536,106,-257,241,45,435,-86,383,586,407,248,-595,203,244,388,220,605,392,275,296,641,617,172,211,358,222,453
218307,-5,188,-230,185,69,544,149,-270,244,39,365,-131,359,573,405,223,-603,116,223,371,220,601,347,231,280,647,598,171,189,345,206,422
218308,-32,170,-290,164,54,529,104,-294,252,30,319,-164,329,557,348,229,-621,73,208,360,191,566,331,214,258,647,581,211,181,344,202,423
218309,-51,151,-274,188,66,540,84,-295,256,41,302,-159,354,559,353,273,-651,151,227,361,197,598,326,201,249,661,618,196,185,357,223,454
218310,-93,156,-305,189,51,529,111,-322,266,48,341,-207,348,553,381,268,-692,148,205,343,204,596,290,168,246,643,619,118,109,312,176,384
218311,-112,134,-331,159,41,515,107,-352,258,50,349,-193,350,553,390,276,-706,147,200,366,214,586,335,184,255,644,590,197,186,379,228,429
218312,-67,166,-268,168,51,521,85,-351,251,56,353,-155,353,567,397,280,-664,128,217,381,203,577,365,198,246,643,592,171,173,380,238,423
218313,-43,171,-256,161,39,529,111,-317,240,58,358,-182,342,563,411,307,-656,102,205,384,225,592,288,170,248,665,626,63,85,286,164,406
218314,-65,161,-288,150,18,524,119,-320,201,52,379,-206,311,550,406,273,-707,76,175,382,230,577,229,148,227,659,633,61,48,262,158,416
218315,-93,160,-265,153,32,553,118,-297,210,57,413,-200,310,541,433,305,-709,66,168,389,232,548,209,134,226,675,608,3,17,257,154,379
218316,-107,148,-269,144,34,549,102,-303,218,77,371,-195,309,548,423,271,-689,95,187,403,246,571,238,153,249,668,611,43,68,267,158,367
218317,-79,149,-254,132,35,549,116,-293,222,76,371,-175,336,537,432,266,-637,115,186,418,226,587,309,197,268,688,627,111,144,328,198,418
218318,-48,167,-258,147,50,581,115,-285,228,88,422,-158,336,532,448,261,-661,117,216,420,251,595,310,182,268,703,669,156,194,415,248,470
218319,-14,164,-252,169,60,613,137,-303,236,86,453,-118,347,527,459,276,-593,156,235,424,266,625,384,238,303,722,683,187,230,467,319,546
218320,17,205,-203,202,83,634,205,-234,255,76,445,-79,366,558,474,368,-549,195,253,446,316,668,425,271,339,756,749,211,263,487,352,574
218321,52,258,-132,227,87,673,212,-210,271,100,499,-55,404,576,489,381,-530,246,272,496,311,719,408,307,357,782,789,264,295,498,384,622
218322,13,232,-156,209,77,640,181,-232,238,96,488,-81,393,548,469,384,-518,224,264,484,273,744,410,301,366,803,751,312,343,533,426,644
218323,-7,204,-184,197,71,633,188,-247,231,70,444,-91,374,541,465,399,-522,216,269,480,284,713,442,308,370,809,762,353,405,575,467,682
218324,-3,211,-186,190,56,628,214,-266,246,65,479,-75,382,547,494,402,-508,205,268,481,327,738,444,318,382,811,801,279,383,571,459,641
218325,11,217,-198,213,72,659,237,-260,258,79,475,-64,389,564,493,397,-477,213,270,485,338,740,442,307,386,787,728,268,358,544,385,505
218326,-24,214,-249,202,77,659,250,-252,251,80,460,-72,374,570,499,410,-456,190,274,502,342,763,450,303,395,795,710,265,353,557,354,481
218327,-31,220,-229,179,58,628,233,-284,230,83,474,-96,358,622,505,407,-479,168,272,507,337,736,399,302,407,812,735,260,311,540,324,504
218328,-35,224,-235,188,50,637,234,-288,237,105,465,-121,362,642,518,416,-556,198,293,512,342,746,384,295,425,819,750,280,315,545,344,556
218329,-59,202,-235,182,67,630,205,-299,222,97,459,-158,365,639,489,415,-604,168,275,522,316,795,385,271,394,804,737,236,258,516,348,579
218330,-71,202,-254,160,50,582,179,-333,222,102,459,-165,329,639,458,385,-642,134,245,515,288,763,363,255,375,787,696,180,251,496,345,503
218331,-86,162,-308,130,37,551,158,-381,195,85,431,-219,305,646,432,333,-661,75,218,482,259,700,279,212,329,742,645,119,204,453,319,480
218332,-92,133,-311,131,45,564,126,-368,226,93,422,-197,316,650,439,311,-618,95,232,505,249,676,236,214,345,745,662,149,204,432,302,496
218333,-92,120,-277,127,21,548,91,-375,209,67,385,-205,304,621,437,286,-622,91,232,478,230,659,279,205,335,723,634,161,187,391,269,480
218334,-75,91,-254,136,11,545,96,-373,212,58,380,-200,327,617,451,287,-646,75,238,484,251,656,282,206,341,732,628,170,176,410,275,517
218335,-77,128,-236,162,42,585,148,-341,234,96,415,-199,337,635,487,313,-632,56,233,496,270,676,295,230,383,743,649,143,207,445,315,540
218336,-48,167,-211,174,51,571,168,-327,228,97,370,-216,349,619,473,254,-610,87,224,477,220,674,286,215,368,712,639,107,157,404,277,479
218337,-66,147,-261,155,28,561,139,-355,206,94,373,-226,332,594,475,204,-615,60,234,448,186,617,189,187,322,674,571,80,117,341,180,372
218338,-49,139,-259,140,46,576,146,-361,229,81,405,-205,323,591,419,250,-638,56,219,423,164,597,206,173,308,639,544,76,131,309,143,343
218339,-30,177,-234,157,54,576,151,-340,249,74,354,-212,347,608,367,281,-650,79,233,423,183,675,245,188,321,658,587,126,177,374,174,410
218340,-73,153,-289,150,35,561,138,-347,237,72,328,-226,344,612,382,196,-617,77,233,412,171,633,239,183,310,664,579,151,173,368,187,369
218341,-74,172,-257,171,41,568,91,-332,240,84,398,-197,380,631,416,165,-606,140,258,439,159,613,309,220,341,668,562,168,207,374,166,365
218342,-74,152,-246,171,53,598,105,-330,241,94,407,-200,362,627,415,203,-571,117,259,447,167,682,331,219,342,661,577,204,183,327,161,382
218343,-59,162,-227,184,51,609,151,-317,258,84,364,-208,364,628,387,216,-535,82,274,454,199,730,313,233,351,684,581,192,195,329,133,380
218344,-52,142,-251,183,34,569,132,-326,248,65,357,-196,378,631,392,234,-607,92,281,459,214,685,274,250,362,680,578,172,189,358,145,391
218345,-63,112,-282,173,17,552,93,-316,261,57,359,-217,371,660,402,274,-605,104,275,453,194,683,266,234,345,686,625,162,177,344,159,404
218346,-93,110,-275,169,2,534,99,-328,260,52,343,-214,367,650,391,314,-593,95,281,459,202,669,298,255,354,667,617,169,203,327,152,401
218347,-97,129,-255,145,10,543,127,-314,261,65,363,-171,368,631,400,320,-588,92,284,451,205,652,276,248,350,664,597,104,132,272,127,407
218348,-85,147,-258,170,39,537,135,-299,269,67,360,-142,374,639,399,320,-589,114,269,462,203,686,289,232,366,688,613,98,108,292,144,419
218349,-64,156,-250,198,39,545,114,-292,277,99,368,-122,403,663,429,328,-597,149,281,486,208,698,344,277,377,714,650,162,138,327,185,468
218350,-63,137,-240,148,35,516,73,-301,268,77,335,-100,389,651,408,285,-585,163,283,467,202,679,376,283,368,704,639,163,158,340,173,412
218351,-78,96,-250,145,42,522,84,-273,262,61,346,-125,386,628,426,248,-596,140,264,441,193,687,329,261,374,701,596,168,190,379,183,418
218352,-94,112,-250,145,36,544,109,-272,274,89,365,-152,391,625,455,280,-562,151,260,470,235,721,325,276,383,722,655,172,192,396,252,496
218353,-85,114,-241,132,20,549,127,-275,267,97,375,-144,377,612,409,296,-518,141,267,457,230,735,381,266,368,706,624,187,207,366,222,497
218354,-79,135,-179,155,16,564,154,-271,258,76,392,-101,398,592,419,320,-513,169,255,447,239,768,409,299,377,696,637,181,190,326,170,451
218355,-59,135,-174,156,24,540,139,-300,242,80,375,-107,373,575,416,310,-520,138,262,423,241,760,374,277,350,688,662,178,205,367,200,473
218356,-43,165,-175,176,53,552,174,-286,252,97,411,-61,383,604,431,344,-491,159,273,445,258,777,399,303,387,730,700,220,258,416,246,528
218357,-40,154,-220,153,38,565,154,-298,237,81,402,-69,380,594,423,250,-498,168,269,448,250,778,468,332,415,742,736,291,309,475,303,579
218358,-39,122,-207,138,24,546,102,-317,242,66,362,-112,378,576,386,236,-508,163,257,427,236,759,409,309,382,723,758,265,309,470,309,561
218359,-61,122,-196,145,24,509,63,-325,228,40,331,-127,353,559,366,250,-533,157,223,395,196,728,331,263,312,680,686,154,261,407,237,509
218360,-77,88,-242,138,24,490,63,-331,231,38,313,-130,346,568,350,208,-527,165,209,368,145,698,353,260,301,620,568,139,201,373,185,472
218361,-87,78,-278,143,12,506,70,-313,245,41,323,-137,335,548,337,232,-534,131,194,342,136,666,320,250,269,607,561,111,149,333,144,393
218362,-79,101,-240,159,42,529,107,-348,246,60,351,-147,356,562,368,281,-489,123,197,375,164,731,353,271,267,652,609,136,170,361,177,439
218363,-108,110,-272,116,37,508,91,-378,201,49,303,-189,320,546,353,244,-471,120,195,350,160,723,351,254,230,619,620,142,132,318,161,459
218364,-107,106,-276,124,0,492,40,-369,200,12,278,-170,320,545,330,210,-459,124,179,353,132,725,326,245,242,624,589,152,173,340,203,485
