,Fp1,Fp2,F7,F3,Fz,F4,F8,FC5,FC1,FC2,FC6,T7,C3,Cz,C4,T8,TP9,CP5,CP1,CP2,CP6,TP10,P7,P3,Pz,P4,P8,PO9,O1,Oz,O2,PO10
28720,215,480,236,224,-54,-322,77,243,-110,255,213,91,332,-126,582,315,-43,90,56,125,277,359,239,331,160,395,206,-169,154,127,345,20
28721,211,503,224,175,-58,-260,126,238,-112,233,162,118,307,-125,548,313,-22,79,36,105,267,337,272,322,147,374,172,-149,151,86,313,-29
28722,217,513,217,170,-53,-225,133,230,-126,241,119,95,310,-111,552,297,-41,53,12,104,242,269,196,307,151,361,118,-225,98,25,276,-78
28723,201,470,225,167,-47,-234,118,231,-113,233,108,112,313,-117,533,222,-47,56,15,88,219,224,142,300,149,347,70,-296,47,-9,235,-108
28724,205,423,245,181,-58,-214,135,229,-114,214,121,114,330,-113,533,154,-24,77,48,109,214,133,162,326,162,351,86,-188,126,48,243,-71
28725,216,417,259,186,-53,-232,156,237,-117,215,159,76,354,-109,553,167,20,102,81,118,225,187,209,372,197,371,81,-104,199,107,313,-48
28726,205,428,244,167,-62,-249,144,232,-121,193,142,60,347,-115,553,160,47,97,84,105,204,239,212,358,198,359,71,-43,217,118,326,-62
28727,202,443,270,196,-82,-254,135,281,-109,210,110,138,371,-95,567,152,44,112,102,123,227,254,252,379,215,383,116,19,241,151,366,6
28728,245,471,312,219,-57,-232,126,309,-93,211,122,201,385,-101,551,156,40,120,124,137,236,236,284,398,217,379,104,-2,242,165,357,-18
28729,272,453,307,229,-54,-196,124,333,-82,203,110,206,390,-121,537,198,45,160,108,109,213,246,336,400,188,369,91,76,259,187,365,-36
28730,283,466,331,252,-51,-189,117,375,-75,219,147,194,422,-115,536,243,53,177,104,95,204,292,351,392,183,341,88,17,190,148,320,-34
28731,254,394,329,275,-55,-230,80,393,-78,189,126,196,401,-132,507,195,38,149,67,46,192,293,308,356,132,311,75,-133,101,68,268,-46
28732,246,378,303,285,-40,-318,48,391,-69,194,102,127,391,-144,504,182,-25,112,46,30,198,331,254,317,119,303,84,-231,61,48,263,-61
28733,274,393,293,282,-60,-280,-3,355,-89,188,97,90,362,-155,484,117,-62,77,39,14,171,283,217,282,93,280,72,-292,54,41,255,-105
28734,301,400,302,307,-28,-223,20,356,-67,210,139,132,366,-145,523,141,-19,62,17,24,189,189,216,272,62,285,98,-272,54,42,265,-172
28735,249,406,247,264,-31,-234,-15,315,-75,196,124,136,341,-158,519,131,-38,18,-15,21,196,262,192,236,69,293,167,-236,83,86,299,-76
28736,216,425,244,250,-44,-255,-14,296,-70,174,36,128,326,-163,476,68,-71,29,-1,5,141,230,167,260,61,247,68,-259,99,106,297,-73
28737,215,424,228,263,-35,-263,-19,304,-48,194,-8,121,331,-166,447,23,-62,34,0,-35,86,42,163,266,56,200,-93,-218,83,32,196,-247
28738,180,431,228,267,-58,-300,-6,298,-44,182,0,105,338,-156,431,92,3,24,-4,-33,80,104,194,267,73,208,-116,-116,85,40,190,-185
28739,158,414,234,262,-64,-303,-11,272,-59,163,-11,69,327,-189,416,30,-3,5,-27,-35,73,179,196,237,40,206,-77,-114,84,29,180,-171
28740,254,404,230,247,-38,-311,2,256,-68,159,-4,42,311,-174,419,-45,29,7,-29,-25,68,196,213,231,53,221,-77,-94,80,20,182,-145
28741,252,434,203,239,-40,-358,-41,243,-72,170,26,57,318,-158,419,-37,44,33,-7,-7,83,217,231,258,84,234,-55,-139,106,59,220,-131
28742,230,439,170,222,-52,-287,-42,201,-92,184,40,67,304,-168,432,37,-15,22,14,9,102,208,246,272,107,267,-30,-157,137,92,274,-131
28743,243,496,175,226,-39,-261,7,217,-90,184,18,89,335,-154,458,134,36,60,18,20,107,178,328,311,119,273,-37,-278,102,71,240,-154
28744,266,536,185,224,-16,-241,52,241,-83,202,67,97,326,-145,474,203,38,80,34,37,114,159,317,341,140,284,-16,-201,146,105,245,-132
28745,277,536,215,217,-37,-243,74,243,-104,216,86,83,318,-134,491,233,24,74,41,42,130,171,291,347,141,313,27,-29,161,83,229,-106
28746,218,490,224,224,-49,-250,69,270,-129,221,110,81,352,-105,516,235,73,100,50,91,176,275,312,358,171,345,72,24,214,149,304,-42
28747,196,469,259,238,-27,-212,91,308,-96,234,130,129,391,-98,558,252,68,133,79,134,232,318,317,403,227,405,124,74,270,223,405,-9
28748,201,432,274,276,-34,-201,79,322,-89,246,148,125,390,-102,558,240,-29,119,93,128,240,305,237,397,232,422,145,-137,211,165,363,-55
28749,186,444,254,286,-47,-227,38,342,-115,241,204,134,377,-100,566,193,-13,121,89,136,224,255,221,383,213,412,125,-245,186,154,337,-60
28750,209,473,255,275,-57,-245,40,366,-98,241,186,129,374,-105,567,179,-15,104,81,134,223,243,228,379,210,412,106,-235,209,184,374,30
28751,231,450,223,252,-61,-235,13,323,-103,233,98,84,358,-110,539,139,-28,64,51,101,185,271,240,344,182,384,75,-213,209,177,389,20
28752,237,427,196,219,-64,-204,34,311,-89,259,104,115,321,-93,532,155,-23,48,27,84,162,218,270,338,154,350,66,-112,179,127,352,-64
28753,220,428,216,202,-79,-219,25,287,-117,247,131,89,315,-101,545,154,-68,40,7,73,179,167,261,317,130,339,56,-118,190,139,336,-78
28754,117,414,195,165,-81,-224,7,270,-145,242,140,64,288,-128,526,11,-95,17,-9,59,153,192,224,282,104,320,50,-115,210,151,333,-77
28755,99,384,166,166,-82,-250,-27,248,-144,219,113,17,272,-140,468,-21,-144,-14,-55,6,111,146,115,213,57,246,1,-203,120,63,266,-130
28756,141,319,158,147,-95,-245,-49,210,-154,207,73,-126,242,-156,453,89,-166,-85,-91,-6,116,207,-15,162,15,245,23,-358,24,21,266,-37
28757,129,289,133,118,-89,-238,-33,157,-144,211,26,-73,231,-146,451,183,-176,-100,-78,-3,111,208,-18,173,30,279,59,-349,73,94,318,22
28758,128,355,146,174,-68,-285,-20,165,-104,207,24,25,285,-118,436,211,-129,-62,-49,14,101,230,47,205,51,298,52,-248,141,156,388,7
28759,111,309,161,172,-79,-296,-22,157,-120,186,7,26,283,-120,428,207,-87,-59,-42,2,110,266,74,224,65,288,71,-119,169,183,397,-8
28760,120,317,155,153,-82,-263,20,161,-134,206,55,10,276,-131,476,237,-114,-48,-32,4,140,315,70,227,67,280,84,-164,134,124,303,-109
28761,151,358,152,145,-56,-262,26,193,-126,230,101,-24,282,-125,508,180,-109,-23,-24,48,169,273,99,273,90,310,93,-164,160,92,283,-161
28762,124,348,125,138,-62,-334,23,172,-145,221,78,-89,281,-101,497,166,-187,-33,-9,58,169,310,91,291,123,349,112,-164,207,159,328,-98
28763,116,376,102,129,-62,-419,50,168,-136,215,66,34,302,-111,514,164,-166,5,2,66,165,220,138,299,155,331,61,-202,159,141,323,-123
28764,83,369,99,91,-100,-268,19,139,-159,216,95,43,274,-118,523,171,-172,-12,-5,79,171,219,165,289,152,336,56,-166,173,161,338,-121
28765,100,412,140,104,-81,-256,23,135,-155,239,109,20,272,-113,527,214,-114,-4,-2,102,201,328,203,322,178,380,100,-122,206,175,382,-54
28766,170,455,151,109,-91,-232,53,135,-143,230,121,55,272,-100,544,220,-45,14,25,131,215,190,258,367,199,386,87,-88,242,214,401,-43
28767,186,484,151,104,-95,-233,102,173,-129,230,132,33,292,-92,572,254,11,34,53,143,257,193,309,392,237,409,127,-64,293,285,471,-1
28768,163,485,188,152,-98,-316,103,236,-131,224,127,39,330,-97,561,222,7,104,63,146,255,258,302,398,259,433,134,-22,314,324,492,35
28769,152,440,220,230,-77,-303,87,303,-99,235,89,85,366,-80,553,180,-6,114,98,167,266,315,327,429,285,452,186,-23,372,397,550,140
28770,194,440,239,244,-57,-281,83,326,-97,224,81,147,362,-95,531,165,-16,76,65,109,236,301,301,400,245,406,135,-154,297,303,486,29
28771,198,435,216,216,-58,-281,57,297,-130,218,113,170,338,-112,528,197,-20,70,36,96,220,279,308,379,209,377,113,-137,285,274,459,-63
28772,188,466,212,230,-48,-297,49,280,-122,216,83,67,324,-131,510,171,-123,25,18,79,192,209,235,319,177,347,86,-128,233,228,419,-97
28773,150,428,199,249,-42,-327,5,271,-100,203,3,23,326,-140,507,126,-112,23,2,46,196,206,212,308,152,335,96,-96,206,174,376,-59
28774,103,404,172,243,-38,-380,-43,267,-103,194,-9,3,308,-138,520,99,-81,6,-2,62,197,197,201,304,147,327,93,-91,202,183,396,-35
28775,61,363,158,200,-53,-286,-77,250,-120,203,22,-24,293,-140,494,94,-115,-17,-8,35,182,179,137,276,127,335,49,-70,189,185,384,-52
28776,98,354,152,202,-64,-255,-91,245,-128,196,-4,26,282,-148,481,93,-204,-25,-42,23,155,168,74,255,107,306,0,-178,151,117,316,-148
28777,96,370,121,177,-64,-294,-78,221,-129,191,-3,22,291,-130,502,108,-154,-11,-47,28,145,190,75,230,84,269,-47,-248,100,32,219,-235
28778,156,378,146,161,-73,-311,-59,147,-153,187,3,-85,239,-141,504,134,-187,-68,-64,21,148,185,37,180,60,259,-36,-318,26,-18,172,-248
28779,232,386,182,173,-61,-313,-25,120,-156,183,14,-83,231,-146,486,60,-189,-82,-49,39,150,133,44,194,62,285,17,-351,55,72,298,-147
28780,184,384,115,122,-81,-320,-7,95,-155,182,6,-69,212,-139,472,12,-190,-106,-57,38,145,152,13,172,47,275,15,-366,36,18,238,-282
28781,170,390,69,105,-101,-327,-5,87,-169,176,20,-67,192,-100,479,79,-194,-119,-48,36,140,195,18,189,52,277,62,-321,68,51,261,-227
28782,167,381,85,109,-92,-337,6,63,-182,164,-9,-78,193,-122,453,57,-201,-97,-67,21,87,126,94,199,47,249,-29,-243,110,58,226,-238
28783,155,367,105,132,-83,-331,-15,97,-170,173,-40,3,228,-108,441,-25,-104,-38,-41,16,43,44,241,228,46,232,-155,-263,89,45,179,-267
28784,150,347,93,146,-83,-358,-52,100,-191,156,-26,-9,206,-111,403,-77,-145,-55,-55,17,10,53,191,204,40,226,-162,-423,30,33,217,-248
28785,119,348,82,132,-102,-397,-89,76,-200,151,-69,-83,193,-128,385,-120,-187,-85,-49,9,-10,19,124,192,26,224,-169,-379,53,53,228,-248
28786,126,366,62,123,-107,-465,-108,92,-184,165,-126,-119,204,-126,385,-121,-247,-104,-51,11,-19,-40,49,179,22,207,-178,-360,57,45,208,-298
28787,123,316,46,124,-95,-373,-141,89,-161,167,-112,-124,241,-124,392,-98,-264,-97,-29,21,21,-14,44,197,40,245,-130,-231,97,82,260,-260
28788,55,243,-4,97,-123,-385,-169,56,-174,159,-138,-176,207,-142,378,-98,-340,-143,-67,-7,10,-35,-67,162,35,252,-132,-317,26,47,248,-252
28789,40,183,-11,104,-130,-425,-219,74,-166,151,-169,-190,182,-151,357,-65,-386,-177,-117,-29,2,-45,-131,111,7,214,-139,-494,-52,12,218,-259
28790,25,188,-37,88,-136,-401,-255,66,-166,136,-181,-213,173,-149,325,-68,-423,-203,-125,-51,-37,-70,-163,68,-16,192,-208,-501,-64,-26,186,-348
28791,1,230,-81,87,-139,-479,-313,16,-165,130,-204,-259,155,-142,310,-60,-464,-251,-142,-52,-41,-108,-210,43,-33,196,-218,-557,-121,-34,183,-375
28792,14,225,-76,101,-121,-551,-352,10,-156,109,-204,-278,131,-150,302,-108,-490,-288,-167,-66,-60,-137,-234,21,-49,162,-209,-587,-146,-52,154,-377
28793,15,199,-63,96,-114,-446,-319,16,-153,126,-193,-280,141,-137,313,-147,-477,-266,-158,-55,-56,-104,-209,43,-28,174,-188,-521,-93,-8,169,-345
28794,-6,194,-83,95,-106,-459,-331,-1,-165,116,-219,-259,131,-142,294,-166,-445,-263,-140,-62,-72,-191,-139,73,-26,162,-240,-397,-28,14,162,-399
28795,8,216,-82,91,-100,-452,-275,0,-172,122,-205,-216,149,-130,311,-152,-403,-221,-123,-50,-72,-133,-65,115,-14,183,-242,-350,2,32,164,-420
28796,-6,230,-72,91,-85,-433,-230,0,-170,145,-202,-229,137,-117,305,-157,-359,-206,-106,-57,-73,-117,-28,129,-2,168,-224,-342,11,46,179,-393
28797,-57,242,-94,70,-94,-452,-252,-23,-170,131,-211,-254,111,-141,277,-141,-304,-208,-116,-61,-78,-97,-53,112,15,180,-209,-279,15,77,230,-319
28798,-9,258,-66,82,-89,-425,-212,-2,-189,111,-185,-230,104,-153,291,-103,-359,-241,-130,-78,-54,-155,-178,67,-15,149,-193,-625,-126,-14,199,-285
28799,36,225,-47,109,-97,-404,-193,19,-176,111,-127,-177,140,-142,314,-276,-312,-194,-119,-56,-54,-121,-84,113,3,164,-207,-487,-45,47,219,-266
28800,47,263,-14,137,-82,-365,-182,67,-146,118,-108,-119,162,-143,308,-280,-236,-146,-88,-63,-57,-27,56,159,38,144,-207,-322,43,98,205,-315
28801,95,299,17,126,-72,-355,-199,105,-146,116,-73,-27,212,-150,328,-117,-167,-48,-45,-74,-37,-9,155,230,46,162,-158,-177,136,171,254,-277
28802,168,353,40,129,-57,-369,-203,116,-134,131,8,-46,225,-141,358,81,-111,-19,-41,-34,7,77,203,251,71,193,-102,-105,149,166,267,-247
28803,135,363,43,156,-57,-359,-180,124,-149,143,5,-46,210,-142,377,148,-117,-47,-50,-29,16,190,152,219,70,201,-76,-172,60,71,245,-171
28804,132,370,64,160,-49,-352,-184,166,-126,144,-13,51,229,-121,397,180,-156,-23,-15,-19,45,206,147,252,86,242,-21,-197,127,146,305,-177
28805,186,372,109,164,-47,-399,-143,146,-116,164,14,137,222,-130,411,255,-183,-31,-23,-8,83,266,67,222,100,254,16,-409,45,83,274,-275
28806,214,336,152,186,-46,-362,-43,158,-122,179,15,114,244,-139,456,279,-162,-62,-37,23,147,350,62,211,93,282,101,-507,-48,27,271,-140
28807,161,272,110,179,-45,-309,-29,147,-126,189,9,42,255,-127,466,275,-142,-34,-23,40,167,280,151,253,124,320,107,-290,52,134,356,-23
28808,120,242,81,141,-85,-319,-29,119,-131,186,-12,-38,237,-126,450,227,-175,-53,-18,38,150,176,121,247,133,305,38,-334,69,139,361,-77
28809,87,281,57,111,-112,-381,-66,115,-144,172,-64,-68,222,-130,408,142,-215,-86,-46,11,85,146,59,220,102,273,0,-345,58,115,327,-125
28810,75,306,67,114,-96,-389,-84,111,-136,162,-68,-55,230,-126,398,76,-175,-103,-46,-9,47,-11,60,206,78,213,-79,-387,35,65,259,-248
28811,21,283,0,93,-100,-372,-107,79,-151,165,-78,-36,234,-114,385,52,-229,-113,-50,4,21,6,15,185,82,214,-77,-439,-29,42,271,-243
28812,-36,273,-49,83,-120,-382,-122,72,-163,151,-76,-73,219,-120,367,38,-283,-126,-48,-15,9,8,3,184,71,209,-76,-455,-19,67,298,-208
28813,-40,252,-80,49,-128,-385,-156,47,-168,139,-93,-61,222,-138,343,-41,-231,-104,-44,-27,-4,13,135,193,47,203,-87,-402,16,50,272,-163
28814,2,262,-76,61,-127,-379,-144,58,-157,146,-86,-51,234,-138,332,-161,-239,-95,-49,-30,-33,9,168,203,51,191,-113,-333,30,67,280,-171
28815,-32,225,-117,54,-122,-408,-155,52,-162,131,-146,-76,222,-128,318,-270,-254,-95,-31,-45,-57,-22,163,209,64,170,-146,-251,89,108,301,-226
28816,-31,171,-128,48,-119,-399,-178,20,-161,127,-166,-89,235,-120,320,-187,-255,-94,-32,-42,-49,21,121,235,72,190,-130,-261,97,87,259,-260
28817,0,229,-48,67,-140,-358,-125,46,-175,146,-104,-67,255,-128,348,-62,-267,-90,-47,-31,-15,35,63,242,65,198,-119,-289,79,61,196,-294
28818,45,327,6,121,-102,-329,-37,113,-169,154,-42,-55,246,-122,392,53,-190,-46,0,24,57,138,117,279,119,269,-17,-235,167,143,298,-168
28819,89,393,62,124,-77,-318,-37,169,-165,158,-25,11,282,-122,428,153,-137,0,6,30,114,198,147,319,123,297,35,-177,211,203,355,-124
28820,109,409,68,155,-58,-317,-18,202,-135,172,28,69,310,-98,460,215,-95,40,25,62,152,216,176,346,149,336,60,-187,199,202,355,-121
28821,98,406,88,174,-78,-320,25,193,-131,167,38,-24,288,-115,486,229,-119,10,27,60,173,220,151,330,156,345,70,-174,212,217,371,-125
28822,86,374,83,170,-81,-349,21,198,-133,161,24,-32,297,-94,478,158,-159,4,16,61,158,187,153,331,114,324,28,-70,236,213,325,-182
28823,77,364,70,186,-75,-399,27,207,-127,186,60,-1,321,-80,471,169,-100,-5,24,55,161,184,171,312,128,321,39,-26,219,181,289,-159
28824,70,367,37,178,-66,-392,4,187,-112,202,41,-2,301,-66,479,154,-72,-40,32,72,167,160,189,310,142,349,66,-49,226,185,301,-91
28825,22,339,32,145,-99,-350,-24,168,-141,191,0,-50,281,-88,470,61,-168,-58,-6,39,112,148,116,269,87,292,13,-270,99,89,245,-128
28826,8,282,11,129,-129,-339,-55,133,-163,184,23,-64,265,-89,473,41,-226,-78,-8,26,88,82,80,223,72,270,-3,-351,40,52,212,-231
28827,-17,250,-9,94,-132,-357,-99,87,-165,192,63,-81,264,-87,503,-6,-244,-98,-9,42,103,55,18,191,54,279,1,-372,3,46,181,-291
28828,-40,248,-27,55,-147,-357,-117,82,-178,210,42,-108,251,-88,498,-12,-259,-112,-18,48,121,127,-27,186,58,278,51,-452,-56,-13,136,-309
28829,-67,236,-50,36,-150,-327,-132,75,-166,223,-26,-91,258,-77,493,60,-273,-108,-8,63,139,123,-19,187,61,266,53,-459,-88,-72,102,-340
28830,-34,235,-13,59,-141,-386,-121,98,-141,203,-41,-68,246,-74,467,56,-302,-107,-10,46,120,71,-10,190,38,263,-46,-493,-108,-60,137,-253
28831,-35,193,-21,43,-176,-400,-127,99,-180,190,-68,-67,225,-88,432,-21,-360,-102,-35,18,73,56,0,189,36,238,-116,-478,-74,-18,144,-242
28832,-61,213,-8,27,-176,-386,-113,115,-171,156,-78,-42,264,-98,435,42,-344,-50,-4,29,70,64,36,232,66,241,-107,-445,-31,9,161,-295
28833,-37,258,24,49,-155,-398,-96,141,-157,155,-59,-15,295,-71,472,136,-317,-26,25,61,101,102,37,261,92,275,-60,-375,16,56,228,-242
28834,-10,255,38,76,-152,-403,-66,142,-176,171,-31,9,293,-83,474,133,-255,8,16,66,140,138,53,271,109,311,-26,-274,50,76,261,-196
28835,-8,299,35,64,-163,-371,-53,140,-181,156,6,5,293,-79,487,116,-272,1,27,88,158,142,63,274,116,315,-42,-361,44,65,280,-201
28836,-5,297,68,47,-160,-393,-84,153,-180,162,-19,9,284,-87,494,91,-261,-1,40,78,145,84,96,286,127,314,-27,-324,64,65,272,-196
28837,-5,269,57,43,-153,-416,-99,147,-180,184,-40,-5,303,-93,479,105,-285,4,49,63,125,45,82,295,147,308,-39,-318,90,101,307,-190
28838,-10,246,52,64,-131,-399,-105,143,-155,177,-34,-2,315,-83,480,64,-248,35,35,84,119,70,105,322,153,301,-47,-301,120,140,342,-197
28839,-26,263,48,98,-135,-378,-93,143,-167,179,-9,4,307,-81,468,-36,-231,23,38,85,111,136,109,309,147,294,-29,-280,125,164,357,-128
28840,-70,295,53,83,-135,-358,-99,162,-158,188,-4,13,336,-61,474,-101,-183,41,73,84,105,100,154,326,157,305,-55,-222,140,150,345,-159
28841,-67,317,28,76,-141,-365,-166,144,-155,191,-1,-26,325,-67,474,-34,-227,14,46,64,75,91,112,266,136,261,-91,-337,45,18,199,-322
28842,-31,278,-25,73,-141,-433,-167,144,-157,173,-19,-19,321,-64,484,45,-235,17,64,64,66,95,160,299,154,253,-93,-262,104,87,254,-314
28843,-44,301,-38,46,-140,-413,-129,113,-177,180,-33,-74,335,-72,468,61,-210,20,69,79,69,64,197,315,149,269,-79,-126,205,176,321,-289
28844,-50,311,-1,61,-123,-350,-119,65,-185,196,-28,-138,308,-78,482,50,-257,-44,36,85,72,28,94,251,117,252,-99,-294,91,95,230,-330
28845,-82,284,-42,-5,-149,-330,-131,56,-185,210,-73,-72,277,-90,475,-1,-279,-95,-5,41,6,-110,-15,186,76,196,-213,-481,-77,-38,122,-378
28846,-120,277,-55,-7,-152,-327,-137,33,-196,214,-78,-79,267,-92,461,-52,-297,-122,-27,49,-16,-154,-55,173,76,196,-222,-406,-33,-17,137,-385
28847,-107,242,-28,34,-173,-314,-187,18,-208,225,-107,-155,225,-97,435,-120,-343,-131,-33,22,-26,-70,-67,146,39,187,-205,-386,-18,10,157,-325
28848,-129,255,-52,19,-192,-345,-209,48,-228,216,-118,-159,211,-97,405,-134,-326,-139,-47,14,-18,-23,-62,139,27,173,-183,-453,-71,-40,106,-302
28849,-144,249,-45,-4,-182,-383,-215,69,-221,199,-126,-141,186,-118,383,-111,-334,-148,-69,-34,-64,-80,-59,125,-3,120,-223,-454,-117,-134,13,-415
28850,-98,248,-75,31,-149,-406,-195,35,-202,179,-106,-155,196,-125,377,-74,-349,-152,-74,-25,-26,-50,-34,136,3,136,-171,-428,-60,-44,108,-286
28851,-53,274,-88,30,-145,-469,-157,18,-202,151,-122,-135,203,-130,373,-81,-328,-109,-69,-2,1,-82,-23,140,28,179,-120,-481,-72,-22,178,-181
28852,14,314,-7,87,-118,-488,-103,53,-168,153,-74,-144,226,-129,398,-61,-273,-88,-53,-3,-5,-83,-23,172,35,188,-99,-461,-91,-50,128,-212
28853,39,318,17,96,-116,-354,-71,55,-171,166,-38,-142,234,-143,426,-28,-267,-82,-43,3,20,-18,-25,193,40,195,-89,-391,-40,-51,57,-346
28854,64,277,28,129,-117,-297,-64,91,-147,165,-62,-107,256,-119,450,-57,-221,-69,-8,27,59,59,15,228,73,231,-90,-361,15,10,108,-339
28855,78,275,47,142,-82,-277,-39,112,-144,183,-36,-71,272,-91,457,37,-163,-46,6,53,90,23,55,261,99,249,-87,-286,63,17,136,-309
28856,64,305,31,145,-76,-292,-66,122,-144,182,-10,-75,257,-96,472,84,-242,-48,5,72,106,61,34,265,116,300,-43,-312,85,80,202,-228
28857,89,356,67,136,-95,-306,-67,152,-155,191,-6,-84,240,-115,473,116,-306,-72,-20,58,103,104,-6,220,88,285,-27,-465,-16,33,184,-241
28858,71,370,76,106,-85,-316,-108,149,-166,186,-4,-100,248,-114,476,112,-301,-58,-28,55,123,42,10,225,81,277,-28,-416,-38,-18,146,-258
28859,78,367,69,105,-108,-326,-147,145,-173,183,-1,-102,260,-124,459,58,-284,-54,-21,54,111,74,18,214,82,294,-28,-348,-7,8,177,-217
28860,42,335,39,94,-123,-343,-178,144,-175,185,-25,-113,241,-124,446,-6,-324,-112,-48,31,67,35,-14,174,36,251,-74,-310,-18,-39,150,-268
28861,29,342,34,115,-113,-365,-202,142,-171,183,-68,-98,240,-104,446,-3,-360,-102,-59,14,58,-9,18,169,31,244,-109,-257,-1,-40,155,-303
28862,32,316,27,115,-102,-373,-180,152,-174,185,-100,-90,239,-85,425,-57,-362,-91,-49,6,23,-36,21,158,10,221,-126,-385,-60,-83,90,-348
28863,14,253,3,103,-116,-399,-185,153,-171,172,-172,-89,231,-111,414,-184,-362,-97,-70,-4,16,-39,-33,147,-16,189,-142,-499,-90,-109,98,-329
28864,28,222,37,146,-112,-444,-178,175,-141,159,-181,-43,243,-136,388,-226,-370,-77,-68,-25,-3,-137,-43,145,-18,170,-169,-491,-107,-111,83,-390
28865,62,182,71,175,-96,-436,-158,175,-140,141,-168,-104,244,-130,383,-121,-350,-86,-69,-23,7,-34,-1,149,-4,182,-128,-420,-49,-59,144,-275
28866,85,178,78,157,-89,-346,-145,146,-148,129,-138,-122,261,-114,408,-65,-227,-91,-57,-29,1,-10,144,194,14,194,-98,-45,106,40,205,-209
28867,116,272,108,157,-87,-371,-151,162,-122,161,-96,-101,255,-145,422,-15,-94,-82,-49,-33,19,43,221,220,10,193,-54,48,100,3,159,-241
28868,129,405,91,166,-79,-352,-104,129,-130,175,-22,-96,228,-132,434,96,-249,-106,-58,7,59,115,96,164,7,197,-39,-466,-87,-84,90,-240
28869,144,526,121,169,-67,-341,-70,122,-106,179,-24,-61,241,-99,446,84,-228,-88,-33,35,76,92,75,177,38,212,-47,-615,-79,-74,82,-295
