,Fp1,Fp2,F7,F3,Fz,F4,F8,FC5,FC1,FC2,FC6,T7,C3,Cz,C4,T8,TP9,CP5,CP1,CP2,CP6,TP10,P7,P3,Pz,P4,P8,PO9,O1,Oz,O2,PO10
35461,193,223,408,-1163,-130,642,-52,191,-135,-321,209,11,256,105,-1186,112,174,167,162,-137,-144,105,153,-121,-82,-72,258,-326,107,-62,-50,-254
35462,188,196,415,-1164,-124,640,-107,199,-140,-338,215,-1,247,118,-1199,98,138,149,140,-130,-121,113,101,-137,-87,-61,293,-340,83,-72,-55,-238
35463,168,195,384,-1169,-124,645,-96,148,-160,-346,209,15,215,107,-1209,207,116,115,128,-140,-131,110,74,-184,-94,-79,288,-355,58,-94,-65,-245
35464,177,216,429,-1152,-116,656,-80,175,-128,-288,229,59,218,140,-1201,341,119,142,170,-119,-112,146,98,-144,-66,-56,293,-351,74,-71,-70,-210
35465,98,183,386,-1183,-137,643,-117,133,-140,-329,188,14,197,115,-1235,336,80,113,150,-131,-133,127,63,-162,-93,-65,245,-362,59,-80,-49,-220
35466,94,176,334,-1212,-149,645,-113,111,-156,-345,181,-19,187,84,-1282,297,39,93,132,-171,-179,79,63,-187,-127,-79,163,-370,62,-100,-46,-284
35467,110,173,322,-1200,-153,632,-131,101,-163,-358,171,-26,183,108,-1301,264,42,67,113,-183,-190,47,42,-192,-136,-109,153,-393,53,-107,-64,-324
35468,78,130,297,-1208,-161,620,-149,93,-184,-379,150,-65,161,79,-1318,188,64,53,106,-177,-204,58,20,-216,-138,-124,171,-399,40,-102,-41,-304
35469,102,169,311,-1219,-157,649,-91,113,-155,-343,178,-52,178,84,-1281,126,60,68,122,-160,-196,51,15,-195,-135,-110,157,-388,54,-110,-47,-295
35470,152,208,325,-1190,-134,668,-64,119,-145,-357,197,-40,182,97,-1247,204,60,53,127,-131,-173,57,7,-200,-124,-83,202,-395,53,-110,-47,-278
35471,134,195,333,-1193,-126,664,-101,137,-131,-303,191,-32,203,95,-1229,206,60,85,132,-142,-158,67,32,-187,-88,-55,230,-361,64,-92,-41,-270
35472,102,187,328,-1180,-132,636,-129,125,-134,-326,178,-47,207,106,-1247,198,43,85,129,-148,-170,83,35,-166,-69,-49,253,-366,71,-82,-18,-240
35473,102,199,330,-1157,-132,637,-109,122,-134,-324,195,-49,211,119,-1232,211,34,88,152,-115,-137,138,48,-151,-49,-21,278,-362,93,-58,49,-229
35474,77,175,322,-1164,-152,617,-67,134,-156,-344,174,-11,227,108,-1263,119,36,105,168,-132,-155,91,98,-144,-51,-19,211,-353,104,-41,2,-228
35475,89,181,344,-1156,-159,611,-60,164,-137,-343,170,53,236,99,-1269,39,61,151,177,-122,-194,104,163,-134,-36,-41,178,-351,108,-39,34,-182
35476,170,230,359,-1121,-128,666,-12,185,-106,-301,239,64,271,111,-1236,80,97,158,219,-116,-156,152,122,-115,-47,-22,250,-304,133,-27,26,-199
35477,173,226,377,-1135,-129,678,-5,175,-129,-310,235,-4,254,116,-1263,175,97,134,193,-116,-118,184,75,-131,-57,-20,261,-292,136,-28,25,-181
35478,153,221,367,-1134,-133,657,-17,154,-127,-307,212,-121,246,129,-1231,207,114,129,198,-110,-112,201,101,-122,-54,-37,280,-307,122,-26,59,-196
35479,153,199,339,-1151,-153,654,-40,143,-122,-317,190,-172,233,117,-1257,210,116,105,192,-128,-164,141,87,-155,-81,-76,228,-334,119,-59,-9,-236
35480,159,202,339,-1165,-155,635,-76,168,-135,-317,166,-89,246,105,-1274,219,47,125,191,-133,-205,73,85,-133,-88,-85,221,-342,107,-66,-15,-239
35481,157,194,349,-1150,-140,618,-92,182,-124,-323,155,-80,279,120,-1254,262,-86,134,162,-146,-204,94,107,-126,-89,-74,274,-317,109,-41,2,-182
35482,152,234,372,-1144,-135,642,-77,185,-111,-316,194,-52,288,119,-1243,279,256,135,177,-136,-155,155,120,-115,-80,-61,316,-281,147,-22,2,-153
35483,182,251,400,-1128,-116,666,-45,194,-106,-311,224,26,262,111,-1236,278,222,151,181,-115,-150,148,163,-89,-70,-43,315,-229,180,2,23,-168
35484,222,296,406,-1111,-114,698,-7,212,-101,-299,238,38,264,111,-1215,264,199,176,197,-131,-145,164,204,-83,-58,-26,279,-211,199,14,34,-189
35485,221,274,417,-1133,-121,688,7,186,-124,-305,269,43,261,123,-1215,236,203,172,193,-122,-121,163,222,-88,-62,-21,269,-289,162,-32,40,-178
35486,212,257,403,-1131,-117,714,37,174,-119,-291,286,47,257,122,-1180,117,149,160,183,-98,-80,205,189,-86,-59,14,307,-271,158,-17,54,-174
35487,227,294,415,-1101,-101,721,44,185,-116,-265,272,47,280,135,-1169,137,134,167,181,-94,-96,215,157,-95,-39,18,364,-272,146,2,81,-156
35488,199,280,404,-1146,-136,701,42,187,-149,-327,243,24,257,117,-1185,235,147,133,159,-115,-122,189,136,-132,-76,-16,325,-305,95,-52,31,-189
35489,188,236,391,-1155,-140,667,-15,201,-137,-340,209,31,243,107,-1207,264,156,128,153,-131,-134,182,151,-116,-91,-36,304,-290,120,-30,64,-177
35490,183,228,357,-1138,-123,676,-4,188,-125,-318,199,0,235,99,-1213,269,146,126,152,-124,-142,167,128,-130,-83,-40,305,-297,126,-41,58,-173
35491,187,258,360,-1117,-104,684,13,181,-109,-294,212,7,251,110,-1210,154,152,141,154,-105,-131,159,147,-119,-56,-13,280,-277,152,-6,78,-198
35492,204,260,424,-1081,-109,725,15,209,-108,-270,245,4,265,125,-1191,53,143,153,169,-97,-122,168,153,-110,-54,-1,315,-283,168,16,86,-188
35493,209,239,390,-1073,-119,721,-1,201,-115,-308,248,-90,247,103,-1211,170,106,118,152,-112,-104,183,138,-127,-81,9,356,-299,166,8,83,-174
35494,189,246,396,-1104,-122,713,10,197,-130,-298,256,-175,241,91,-1177,297,110,116,154,-108,-72,207,118,-141,-61,49,369,-306,149,12,72,-166
35495,198,269,405,-1112,-111,719,33,188,-130,-307,267,-37,233,113,-1147,350,149,143,165,-64,-54,219,164,-115,-50,45,394,-267,174,30,110,-141
35496,197,247,419,-1088,-106,720,-3,212,-130,-312,246,22,235,109,-1182,281,145,144,135,-99,-82,201,153,-124,-63,17,361,-286,156,5,80,-186
35497,180,233,382,-1108,-110,712,-46,198,-139,-293,233,3,230,106,-1200,205,124,138,142,-127,-113,120,158,-125,-74,13,318,-336,137,0,76,-217
35498,134,230,346,-1135,-132,694,-87,164,-153,-299,204,-8,200,101,-1214,158,115,121,137,-114,-104,119,164,-135,-81,3,324,-347,151,16,130,-155
35499,122,197,314,-1159,-129,675,-120,132,-153,-315,182,-7,212,105,-1219,58,102,78,135,-123,-115,111,98,-144,-80,15,329,-311,159,46,138,-169
35500,149,185,322,-1157,-120,682,-92,144,-145,-319,178,-94,218,101,-1197,-19,78,72,121,-134,-103,71,82,-163,-89,-19,270,-335,142,12,102,-182
35501,157,166,353,-1158,-134,657,-72,173,-173,-325,180,-202,219,95,-1248,-44,111,96,115,-142,-145,49,118,-155,-97,-61,157,-348,99,-56,-13,-254
35502,200,225,362,-1130,-123,678,-28,161,-142,-272,228,-27,229,103,-1253,-46,166,153,154,-114,-159,50,199,-127,-58,-32,185,-337,100,-33,0,-327
35503,167,215,349,-1125,-148,666,-40,155,-146,-304,204,11,219,104,-1261,83,117,135,137,-122,-171,49,171,-141,-58,-38,245,-365,104,-32,23,-266
35504,167,208,352,-1128,-138,677,-31,168,-148,-311,202,17,228,101,-1290,149,78,96,144,-122,-183,58,83,-143,-61,-25,257,-333,114,-33,18,-263
35505,136,178,322,-1143,-136,674,-70,148,-148,-317,152,37,223,99,-1317,130,44,97,136,-137,-188,51,31,-148,-71,-29,228,-345,91,-55,-18,-270
35506,118,148,297,-1167,-145,636,-89,115,-147,-323,110,-73,220,95,-1347,181,29,96,124,-132,-186,38,48,-167,-71,-38,213,-380,56,-96,-52,-329
35507,123,129,339,-1161,-130,623,-115,118,-136,-318,122,-131,241,129,-1311,182,62,94,155,-105,-169,21,71,-136,-42,-8,204,-367,91,-75,5,-304
35508,145,136,347,-1156,-143,616,-165,111,-148,-354,146,-102,217,118,-1298,141,8,88,185,-99,-171,-1,60,-134,-42,-21,217,-383,101,-63,-6,-275
35509,132,146,319,-1162,-136,623,-171,134,-139,-331,139,-72,226,103,-1298,192,-18,77,185,-116,-196,12,26,-160,-63,-42,234,-416,55,-114,-29,-299
35510,111,135,295,-1154,-143,619,-167,127,-138,-351,101,-86,217,102,-1333,199,19,72,161,-156,-246,-1,28,-177,-109,-82,147,-425,19,-187,-116,-422
35511,106,119,273,-1142,-144,605,-153,117,-137,-348,96,-101,197,88,-1332,172,38,71,150,-145,-243,-11,50,-174,-121,-84,137,-424,32,-169,-132,-389
35512,98,123,278,-1155,-137,612,-118,123,-150,-333,107,-106,208,86,-1319,187,15,44,126,-138,-214,-11,67,-164,-102,-86,141,-438,27,-146,-120,-373
35513,84,160,296,-1149,-128,638,-135,137,-145,-322,128,-100,216,102,-1285,224,19,68,129,-133,-182,20,76,-152,-81,-56,148,-426,32,-139,-74,-364
35514,65,153,284,-1189,-149,650,-144,101,-171,-345,138,-120,198,77,-1267,260,-10,50,121,-126,-167,25,41,-168,-100,-49,215,-438,17,-147,-55,-348
35515,99,152,293,-1195,-127,650,-113,107,-164,-297,161,-82,203,101,-1241,252,49,66,156,-94,-113,65,61,-139,-53,-3,246,-409,40,-117,-48,-325
35516,115,164,311,-1186,-121,632,-95,130,-161,-296,158,-64,216,103,-1250,123,62,60,158,-132,-159,60,64,-173,-71,-42,150,-409,25,-163,-102,-346
35517,92,164,291,-1174,-141,637,-106,126,-166,-333,145,-106,196,74,-1282,91,10,49,132,-159,-206,59,39,-200,-87,-74,157,-431,2,-205,-140,-362
35518,123,163,303,-1172,-125,663,-80,137,-148,-327,159,-89,205,87,-1307,178,1,71,149,-133,-208,4,80,-166,-77,-74,173,-418,8,-180,-144,-340
35519,143,163,325,-1160,-109,654,-115,166,-161,-312,135,-73,236,103,-1301,207,12,84,165,-140,-184,-19,115,-144,-55,-61,199,-394,30,-136,-99,-297
35520,134,159,321,-1166,-113,670,-102,164,-154,-327,154,-46,255,95,-1274,145,28,99,173,-117,-168,22,83,-138,-44,-43,199,-370,60,-133,-61,-230
35521,137,159,319,-1172,-115,687,-84,168,-140,-329,165,28,262,120,-1280,9,136,122,192,-110,-175,49,116,-119,-43,-61,182,-318,85,-107,-92,-286
35522,169,193,374,-1152,-116,690,-74,204,-143,-311,169,30,262,107,-1256,-6,158,151,193,-98,-177,71,143,-93,-57,-55,158,-304,82,-115,-113,-371
35523,162,195,377,-1154,-92,708,-79,225,-128,-290,220,31,279,124,-1248,-3,160,174,199,-89,-143,97,149,-98,-38,-14,180,-296,99,-103,-79,-339
35524,121,170,330,-1177,-111,696,-82,196,-141,-266,248,-3,272,122,-1267,14,78,131,161,-91,-99,43,144,-122,-47,-40,167,-377,50,-142,-129,-358
35525,92,154,327,-1172,-135,664,-95,157,-143,-311,210,-33,245,100,-1278,88,34,117,170,-87,-130,41,130,-123,-35,-24,190,-360,75,-123,-82,-290
35526,62,125,318,-1167,-145,641,-89,161,-140,-319,178,-34,269,104,-1249,176,30,136,168,-94,-109,31,124,-99,-28,-11,239,-314,87,-96,-49,-243
35527,63,159,330,-1163,-126,661,-42,198,-121,-305,203,-56,292,119,-1219,278,64,155,189,-55,-89,83,122,-84,-4,11,284,-314,96,-96,-19,-238
35528,51,151,328,-1180,-126,650,-95,180,-127,-333,184,-52,276,104,-1228,268,31,124,159,-94,-119,52,89,-116,-27,-17,238,-360,59,-142,-64,-306
35529,32,116,304,-1184,-142,632,-151,180,-138,-332,172,-70,269,119,-1237,195,9,118,150,-99,-134,17,64,-114,-55,-63,203,-410,22,-175,-125,-316
35530,-5,89,277,-1179,-148,641,-154,172,-140,-314,154,-109,258,108,-1235,149,12,105,141,-119,-145,47,79,-113,-65,-60,202,-407,46,-167,-124,-328
35531,21,89,286,-1189,-128,642,-103,160,-136,-300,155,-133,254,127,-1241,169,34,73,156,-82,-130,43,91,-122,-66,-53,217,-395,39,-163,-140,-356
35532,-9,90,244,-1198,-139,638,-94,145,-141,-290,168,-124,228,139,-1236,151,23,75,177,-101,-129,27,71,-153,-62,-53,215,-422,11,-187,-157,-374
35533,6,117,252,-1185,-158,650,-79,158,-143,-286,179,-189,223,126,-1243,169,11,77,158,-108,-142,51,42,-150,-59,-70,175,-415,7,-177,-139,-371
35534,15,114,242,-1209,-165,628,-91,145,-165,-331,181,-127,235,106,-1275,177,6,81,152,-110,-158,41,35,-150,-81,-90,174,-426,-6,-183,-143,-359
35535,34,120,251,-1195,-174,639,-116,146,-146,-324,173,-25,266,132,-1243,109,74,128,162,-114,-161,53,60,-138,-93,-74,191,-401,5,-164,-116,-340
35536,67,133,298,-1179,-134,651,-94,168,-115,-314,199,-54,287,141,-1198,194,100,146,189,-96,-154,58,89,-127,-72,-60,200,-380,2,-169,-86,-318
35537,66,133,289,-1191,-140,644,-81,149,-129,-300,192,-27,264,136,-1199,249,71,108,181,-112,-173,71,94,-147,-96,-65,218,-370,4,-159,-104,-323
35538,64,145,301,-1185,-140,655,-47,170,-142,-285,196,-5,246,119,-1182,308,41,98,176,-114,-157,84,86,-148,-80,-73,223,-390,10,-147,-127,-342
35539,111,200,306,-1153,-124,688,3,192,-109,-261,242,0,263,141,-1170,340,86,168,207,-71,-116,118,168,-87,-37,-43,218,-388,48,-119,-74,-313
35540,78,224,303,-1147,-112,728,-7,184,-103,-258,257,1,294,131,-1167,335,81,180,216,-64,-81,127,157,-71,-21,0,254,-406,79,-92,-34,-265
35541,49,132,277,-1147,-153,685,-61,161,-119,-292,224,-101,274,125,-1172,309,39,113,217,-65,-75,78,44,-104,-31,-13,269,-427,56,-93,-28,-299
35542,52,95,290,-1165,-149,658,-74,169,-125,-288,185,-218,278,123,-1197,319,43,115,196,-73,-99,105,73,-110,-27,-6,283,-402,35,-99,-36,-302
35543,49,109,321,-1162,-133,678,-59,188,-133,-298,196,-16,285,146,-1179,336,100,144,192,-76,-96,110,107,-84,-15,-4,290,-386,72,-81,-38,-288
35544,49,111,278,-1195,-156,659,-50,162,-164,-308,190,3,253,125,-1221,326,111,126,163,-73,-113,84,102,-76,-36,-25,263,-354,40,-127,-116,-329
35545,35,92,277,-1222,-171,625,-78,171,-158,-294,173,-14,278,109,-1248,283,128,141,162,-87,-135,119,113,-116,-67,-41,283,-329,57,-169,-148,-291
35546,18,66,262,-1225,-159,628,-74,125,-159,-297,182,-8,262,124,-1225,213,83,114,151,-88,-106,128,93,-149,-67,-30,301,-382,58,-157,-77,-307
35547,7,43,275,-1231,-154,633,-139,116,-157,-289,186,-29,233,130,-1217,54,42,98,138,-83,-103,135,79,-163,-63,-43,252,-410,30,-150,-102,-301
35548,-18,31,244,-1220,-175,620,-165,110,-175,-280,168,-59,205,115,-1233,-201,52,81,137,-107,-123,119,75,-176,-84,-36,211,-411,31,-152,-101,-306
35549,-27,46,237,-1209,-158,642,-132,102,-158,-280,180,-19,221,123,-1207,-150,53,98,135,-95,-111,102,103,-179,-86,-8,246,-368,63,-115,-50,-288
35550,-22,56,271,-1184,-137,648,-119,141,-123,-269,237,28,254,131,-1192,139,60,120,163,-77,-89,126,138,-120,-53,0,295,-347,75,-98,-45,-247
35551,7,81,300,-1182,-144,641,-103,186,-121,-259,240,70,253,127,-1207,303,66,164,180,-70,-77,80,170,-103,-49,-2,304,-367,77,-92,-39,-283
35552,-16,17,287,-1185,-167,610,-139,186,-145,-307,211,84,271,125,-1226,335,141,167,182,-89,-75,60,148,-103,-46,-29,281,-341,89,-99,-33,-326
35553,0,62,292,-1172,-161,622,-141,180,-137,-309,200,18,270,120,-1257,293,158,143,191,-103,-95,120,126,-116,-45,-26,278,-351,101,-93,-30,-328
35554,18,75,296,-1160,-162,626,-90,168,-122,-291,202,-86,276,121,-1247,276,120,131,192,-99,-96,125,137,-96,-42,-12,264,-365,74,-102,-78,-322
35555,15,60,281,-1185,-185,583,-93,147,-141,-315,163,-76,257,122,-1251,288,90,128,191,-119,-90,108,170,-94,-47,-7,261,-353,83,-97,-69,-296
35556,39,42,317,-1184,-156,594,-117,170,-115,-295,166,16,280,138,-1248,271,115,168,208,-103,-85,135,210,-74,-30,-4,284,-331,95,-77,-28,-282
35557,64,8,298,-1204,-163,595,-138,176,-124,-314,179,2,285,129,-1222,222,134,156,179,-105,-93,121,153,-95,-40,-2,286,-339,80,-96,-22,-288
35558,83,-2,309,-1208,-160,597,-145,163,-139,-314,170,4,263,132,-1215,218,128,146,156,-123,-95,112,123,-104,-64,-17,297,-325,65,-104,-63,-278
35559,58,37,302,-1188,-115,652,-113,182,-112,-284,188,7,290,156,-1232,262,143,182,187,-98,-99,56,148,-96,-79,-23,283,-313,84,-101,-58,-264
35560,49,121,323,-1169,-117,673,-121,193,-114,-286,223,-22,274,143,-1216,323,117,149,162,-122,-94,51,119,-127,-117,-45,267,-336,49,-147,-82,-267
35561,52,124,325,-1168,-130,663,-144,176,-111,-324,252,-29,255,117,-1211,356,82,131,138,-119,-116,110,125,-153,-132,-58,238,-364,14,-161,-97,-261
35562,58,101,345,-1165,-127,650,-100,198,-105,-301,257,5,272,128,-1211,291,113,158,139,-123,-90,132,130,-148,-119,-49,222,-359,28,-136,-46,-214
35563,39,121,317,-1160,-117,656,-53,187,-105,-271,265,3,274,135,-1193,228,112,140,138,-126,-71,135,108,-165,-129,-47,220,-380,0,-168,-94,-266
35564,33,113,301,-1178,-145,670,-33,176,-118,-283,265,-2,241,133,-1227,298,106,131,118,-121,-97,107,88,-175,-137,-88,148,-393,-15,-203,-145,-313
35565,27,101,351,-1191,-170,642,-39,172,-137,-292,230,5,241,108,-1248,369,114,166,107,-121,-113,98,117,-166,-139,-71,133,-399,0,-169,-125,-321
35566,56,121,351,-1171,-137,664,-53,217,-127,-288,215,29,283,135,-1207,404,158,188,176,-90,-79,123,173,-93,-93,-14,196,-325,78,-88,-37,-287
35567,82,159,348,-1182,-145,669,-48,213,-128,-299,252,-42,298,140,-1194,386,131,179,180,-61,-69,130,149,-77,-63,-13,229,-319,89,-84,-41,-300
35568,64,160,329,-1168,-145,672,-22,210,-122,-283,237,-32,304,135,-1190,326,121,178,181,-76,-68,166,135,-91,-81,-16,213,-345,73,-96,-60,-277
35569,55,134,306,-1155,-155,660,-39,222,-128,-301,211,-37,314,120,-1185,225,106,181,169,-94,-75,166,133,-96,-77,-31,222,-344,62,-99,-64,-256
35570,39,130,346,-1156,-162,680,-31,221,-121,-326,231,-142,304,132,-1185,233,83,144,150,-98,-68,134,125,-90,-81,-37,238,-368,91,-81,-52,-251
35571,77,157,340,-1153,-146,671,-41,193,-133,-292,247,-201,286,110,-1183,255,92,122,141,-115,-82,115,130,-117,-94,-53,221,-358,73,-85,-46,-269
35572,100,143,348,-1129,-137,681,-36,221,-101,-270,265,-46,288,132,-1156,249,142,150,193,-81,-83,122,162,-74,-72,-17,236,-308,94,-93,-19,-277
35573,74,127,349,-1117,-141,700,-14,225,-94,-274,268,0,284,169,-1160,209,106,164,196,-85,-79,139,165,-71,-47,-23,256,-315,93,-118,-84,-280
35574,45,92,337,-1126,-144,690,-36,248,-95,-278,243,34,289,154,-1176,201,67,180,188,-98,-59,158,233,-81,-36,-35,278,-314,89,-101,-73,-252
35575,21,87,316,-1154,-170,672,-86,191,-115,-268,232,34,282,128,-1185,218,104,170,173,-91,-69,128,224,-90,-57,-22,293,-300,105,-75,-33,-228
35576,77,119,360,-1149,-146,688,-49,216,-119,-300,259,1,265,139,-1192,253,144,149,150,-85,-62,140,160,-100,-53,-3,300,-284,109,-76,-27,-196
35577,100,132,354,-1144,-134,688,-34,211,-106,-278,250,3,255,131,-1190,284,143,164,166,-93,-54,175,157,-102,-53,0,282,-281,98,-84,-27,-190
35578,99,134,326,-1150,-153,684,-27,170,-141,-297,236,22,250,132,-1211,146,132,146,163,-91,-75,147,159,-113,-60,-30,258,-281,96,-99,-33,-201
35579,87,145,335,-1169,-138,678,-25,187,-141,-284,221,10,255,137,-1203,59,138,140,143,-105,-85,156,173,-112,-62,-42,272,-236,122,-74,-15,-224
35580,66,159,341,-1163,-150,674,-20,198,-128,-284,246,19,244,132,-1186,200,125,128,145,-98,-89,155,149,-117,-57,-43,289,-284,104,-81,-23,-186
35581,101,178,363,-1145,-129,695,-4,211,-116,-282,277,77,274,140,-1175,327,137,151,162,-99,-55,144,139,-121,-43,-27,301,-284,88,-107,-50,-228
35582,162,226,401,-1096,-104,702,30,266,-81,-250,279,133,297,152,-1182,344,142,190,191,-89,-66,180,188,-94,-39,-24,284,-250,109,-79,-69,-300
35583,116,176,375,-1105,-129,667,-12,269,-90,-273,219,109,288,139,-1229,388,156,194,184,-113,-115,161,203,-107,-67,-51,244,-292,96,-79,-76,-303
35584,103,151,337,-1114,-143,659,-36,256,-107,-302,202,15,286,131,-1251,421,172,176,159,-120,-118,176,190,-120,-57,-51,254,-301,88,-89,-76,-280
35585,115,194,314,-1110,-128,673,-31,244,-102,-298,205,-218,291,121,-1250,406,152,139,118,-120,-128,189,108,-153,-71,-66,225,-318,60,-114,-91,-306
35586,164,211,368,-1092,-126,700,-25,254,-95,-270,227,-79,297,124,-1223,411,180,142,143,-94,-106,160,126,-145,-61,-35,244,-305,72,-107,-80,-258
35587,162,153,401,-1075,-121,674,-35,247,-109,-276,225,96,286,111,-1233,368,189,147,129,-122,-111,154,128,-138,-66,-47,244,-331,29,-139,-108,-262
35588,115,150,370,-1104,-115,691,-40,248,-107,-292,244,35,268,112,-1255,354,178,131,125,-130,-110,138,140,-159,-88,-65,245,-308,33,-126,-95,-248
35589,126,184,366,-1123,-115,692,-31,230,-116,-297,274,43,277,134,-1246,361,176,131,152,-111,-85,164,139,-153,-67,-50,276,-301,68,-113,-85,-250
35590,126,164,336,-1128,-125,683,-48,199,-125,-276,265,26,271,133,-1245,233,109,115,174,-111,-94,154,119,-142,-73,-60,245,-316,52,-142,-110,-261
35591,90,117,327,-1145,-144,677,-165,207,-117,-291,218,2,256,128,-1237,147,103,105,144,-121,-117,112,103,-139,-87,-72,209,-332,40,-148,-102,-268
35592,76,106,327,-1142,-126,666,-175,203,-126,-310,210,1,259,114,-1214,161,62,97,127,-118,-98,128,80,-166,-85,-70,241,-351,26,-138,-93,-255
35593,91,136,322,-1165,-130,653,-121,218,-102,-295,229,17,262,132,-1191,206,83,120,124,-128,-94,161,104,-154,-61,-68,263,-328,58,-132,-91,-241
35594,107,135,328,-1161,-133,649,-53,222,-109,-297,238,58,286,128,-1188,298,151,143,144,-122,-52,191,144,-132,-24,-55,298,-289,73,-89,-48,-205
35595,120,159,337,-1184,-139,662,1,210,-124,-291,231,52,289,127,-1227,351,155,118,115,-103,-58,197,111,-158,-59,-47,280,-336,38,-132,-95,-253
35596,104,177,354,-1181,-140,670,-15,237,-99,-265,247,57,296,156,-1223,336,170,145,171,-92,-51,191,129,-118,-44,-12,289,-325,60,-109,-67,-247
35597,106,210,359,-1169,-157,680,-1,237,-105,-278,270,35,296,159,-1203,292,189,151,203,-91,-67,201,156,-100,-31,-12,283,-289,94,-63,-43,-203
35598,150,262,384,-1158,-123,707,73,232,-107,-261,277,18,290,163,-1206,192,183,160,187,-78,-65,204,161,-96,-18,-18,265,-304,95,-74,-42,-218
35599,161,219,377,-1148,-150,703,15,223,-125,-253,264,17,282,152,-1229,141,181,163,175,-87,-64,198,136,-120,-13,-24,249,-308,85,-100,-48,-203
35600,155,213,377,-1160,-124,723,11,224,-113,-243,298,61,309,187,-1185,158,230,187,206,-69,-57,217,156,-91,18,6,280,-279,124,-52,-17,-150
35601,120,201,379,-1167,-135,710,34,200,-98,-248,300,38,295,184,-1165,148,211,172,195,-54,-62,202,168,-82,30,12,284,-272,129,-44,22,-177
35602,71,175,354,-1184,-164,693,28,185,-114,-268,298,22,278,165,-1149,280,179,150,175,-57,-36,246,158,-100,23,27,298,-265,124,-40,36,-147
35603,99,197,335,-1169,-154,697,39,210,-128,-263,313,-27,276,187,-1154,398,163,139,165,-33,-23,258,145,-97,15,29,335,-292,116,-25,34,-126
35604,68,153,313,-1178,-177,678,29,184,-150,-275,304,-80,262,176,-1145,452,159,129,145,-43,-32,243,154,-138,13,33,345,-298,102,-21,21,-96
35605,18,91,266,-1214,-187,654,-14,162,-164,-276,270,-110,251,155,-1156,338,105,121,108,-82,-54,228,119,-141,-13,26,315,-328,78,-68,-2,-152
35606,29,167,281,-1204,-175,693,38,167,-153,-284,288,-129,244,159,-1143,216,99,76,107,-63,-56,248,51,-165,-34,6,342,-342,44,-103,-30,-220
35607,20,170,249,-1231,-169,717,11,106,-161,-237,308,-112,189,157,-1166,287,95,29,101,-52,-27,249,12,-218,-58,-8,301,-328,19,-110,-61,-226
35608,29,126,259,-1221,-149,699,-33,92,-164,-233,293,-89,199,176,-1169,375,101,43,86,-60,-55,209,27,-230,-71,-21,239,-360,4,-145,-63,-249
35609,45,133,257,-1221,-162,695,-27,112,-162,-245,291,-123,211,163,-1193,433,101,40,75,-61,-67,199,87,-227,-68,-25,244,-401,-6,-155,-86,-274
35610,22,149,229,-1234,-178,695,5,108,-152,-243,278,-160,213,160,-1196,452,74,51,78,-63,-79,200,89,-213,-68,-18,252,-392,-21,-156,-94,-251
