,Fp1,Fp2,F7,F3,Fz,F4,F8,FC5,FC1,FC2,FC6,T7,C3,Cz,C4,T8,TP9,CP5,CP1,CP2,CP6,TP10,P7,P3,Pz,P4,P8,PO9,O1,Oz,O2,PO10
19271,-167,137,-179,180,369,378,-625,-148,39,47,-4,-499,-152,-3,-135,-37,5,-173,74,-16,-450,-105,-150,273,68,67,-12,-329,-331,-320,-386,-365
19272,-174,178,-161,180,385,391,-620,-127,55,19,-8,-471,-123,0,-126,-35,101,-160,86,-13,-439,0,-113,294,53,81,-8,-286,-296,-303,-358,-335
19273,-171,155,-163,187,384,410,-619,-123,51,38,7,-456,-133,-10,-141,-36,56,-144,84,-4,-434,94,-88,317,53,89,20,-276,-267,-270,-332,-310
19274,-155,164,-145,233,394,404,-603,-95,74,78,26,-419,-108,-4,-104,-41,65,-99,124,29,-395,100,-68,340,106,139,50,-245,-236,-250,-305,-288
19275,-167,166,-146,213,397,423,-608,-96,92,84,28,-438,-97,7,-100,-91,80,-100,132,42,-385,26,-56,381,133,172,61,-213,-208,-209,-280,-279
19276,-176,194,-150,225,389,433,-622,-111,74,75,14,-455,-89,11,-99,-213,42,-111,142,43,-387,63,-67,377,142,175,39,-208,-189,-195,-279,-298
19277,-184,191,-156,217,373,409,-617,-112,56,58,-1,-447,-78,4,-89,-332,4,-128,142,17,-408,149,-75,356,132,161,1,-198,-186,-200,-263,-323
19278,-199,166,-157,220,377,429,-599,-108,90,63,21,-420,-76,16,-92,-342,52,-96,153,24,-389,216,-56,379,139,167,2,-169,-165,-172,-233,-301
19279,-186,164,-160,211,378,432,-603,-126,82,60,16,-440,-83,13,-106,-177,66,-105,160,35,-386,177,-50,388,157,171,32,-151,-151,-159,-231,-305
19280,-173,193,-143,232,379,419,-587,-111,74,46,17,-439,-76,11,-88,32,123,-107,147,45,-375,144,-58,393,168,177,38,-198,-161,-172,-229,-280
19281,-207,189,-160,233,370,391,-600,-104,72,44,19,-451,-76,30,-79,92,175,-78,172,53,-372,156,-29,420,165,181,66,-156,-146,-150,-226,-244
19282,-227,152,-187,227,355,388,-612,-119,65,36,-21,-467,-79,32,-121,-44,126,-87,151,28,-385,82,-57,396,154,165,60,-153,-181,-190,-264,-283
19283,-231,157,-167,210,342,399,-601,-105,64,64,7,-457,-92,28,-111,-247,144,-96,139,21,-397,86,-103,360,122,121,34,-243,-225,-236,-295,-329
19284,-225,125,-161,208,345,408,-603,-102,74,89,15,-463,-99,41,-94,-240,103,-115,130,29,-381,109,-105,350,106,108,21,-325,-262,-259,-297,-329
19285,-246,101,-162,210,362,413,-619,-115,61,62,-9,-463,-104,22,-106,-88,85,-113,110,24,-401,-99,-131,354,107,97,-17,-287,-259,-252,-296,-317
19286,-209,126,-117,231,381,438,-612,-86,89,72,4,-450,-82,23,-116,-4,124,-97,124,8,-420,-134,-96,363,96,72,-36,-235,-228,-227,-305,-293
19287,-211,125,-148,218,363,439,-629,-82,75,77,-23,-453,-91,-6,-138,-17,77,-95,117,-12,-440,89,-101,342,75,68,-65,-242,-228,-247,-316,-324
19288,-255,113,-184,199,363,403,-674,-79,57,49,-62,-452,-99,-3,-152,-53,44,-90,117,-28,-452,126,-133,342,76,68,-84,-232,-225,-270,-342,-352
19289,-247,109,-167,203,373,407,-658,-93,78,50,-44,-444,-97,-9,-150,-92,59,-92,111,-40,-431,77,-119,336,56,49,-108,-241,-253,-314,-381,-387
19290,-261,104,-195,227,361,393,-664,-98,77,66,-59,-458,-85,0,-150,-139,42,-109,109,-35,-434,64,-150,326,52,50,-118,-268,-273,-300,-379,-419
19291,-293,79,-227,215,348,380,-692,-126,78,46,-89,-487,-109,7,-150,-172,6,-125,107,-37,-452,31,-173,303,72,56,-116,-362,-299,-311,-388,-446
19292,-338,52,-235,208,345,339,-754,-127,81,38,-113,-517,-112,15,-177,-223,14,-133,89,-52,-464,-20,-177,301,64,62,-123,-350,-331,-313,-389,-424
19293,-314,41,-223,215,353,333,-761,-100,78,46,-89,-514,-101,11,-163,-399,20,-158,107,-27,-453,-11,-202,302,71,54,-114,-354,-349,-354,-387,-406
19294,-299,60,-194,228,339,336,-762,-102,84,50,-91,-506,-108,18,-148,-496,40,-136,112,-21,-460,-155,-196,309,76,69,-94,-347,-328,-337,-383,-393
19295,-288,76,-187,220,353,331,-745,-109,86,27,-91,-497,-93,15,-161,-185,42,-122,104,-36,-480,-345,-179,295,78,74,-64,-323,-302,-315,-381,-394
19296,-263,104,-166,249,373,357,-707,-85,85,36,-86,-450,-55,19,-158,17,97,-93,124,-14,-455,-185,-127,335,96,83,-41,-289,-268,-276,-352,-365
19297,-237,136,-128,275,370,377,-675,-52,108,49,-63,-425,-77,28,-149,-27,96,-74,140,1,-432,140,-106,334,94,95,-45,-294,-253,-277,-334,-344
19298,-223,123,-104,256,356,339,-699,-45,98,25,-95,-429,-85,6,-165,-71,110,-70,128,-6,-426,208,-87,346,106,114,-16,-228,-238,-262,-317,-338
19299,-229,99,-114,256,340,329,-710,-56,94,5,-105,-418,-62,2,-155,-105,112,-48,127,4,-413,135,-43,375,116,125,35,-194,-197,-222,-283,-286
19300,-232,78,-119,240,339,337,-698,-57,93,16,-91,-425,-44,19,-159,-119,72,-42,147,18,-406,113,-41,389,109,131,64,-213,-194,-215,-280,-263
19301,-237,45,-126,234,332,339,-718,-52,75,19,-82,-407,-45,10,-146,-99,57,-30,139,7,-398,24,-43,376,123,130,80,-195,-189,-216,-272,-249
19302,-208,61,-112,253,356,342,-699,-56,100,39,-65,-387,-43,13,-132,-86,174,-15,160,15,-367,1,-34,389,128,132,109,-165,-185,-204,-262,-250
19303,-210,48,-102,261,355,337,-700,-65,99,26,-79,-399,-20,40,-145,-68,243,-15,164,-2,-355,12,-21,391,126,123,85,-143,-176,-210,-265,-297
19304,-217,17,-116,245,345,347,-708,-55,104,17,-84,-409,-18,39,-148,-66,247,-12,168,12,-363,-34,-11,392,119,126,52,-97,-165,-191,-242,-277
19305,-241,35,-130,235,343,331,-712,-56,97,28,-82,-409,-29,36,-146,-188,216,-7,158,10,-385,77,-30,375,105,111,39,-114,-194,-210,-271,-279
19306,-223,51,-150,250,349,335,-691,-57,104,25,-60,-443,-50,38,-125,-216,71,-25,138,12,-396,198,-96,338,88,126,37,-167,-229,-226,-276,-287
19307,-259,36,-169,241,336,326,-704,-72,95,18,-83,-464,-71,17,-144,-113,32,-51,128,18,-393,135,-90,332,70,131,32,-164,-228,-241,-284,-323
19308,-272,42,-170,236,346,332,-692,-92,79,11,-81,-445,-83,16,-133,-13,17,-81,116,18,-356,191,-113,308,76,143,47,-239,-246,-254,-258,-304
19309,-262,70,-140,236,361,336,-705,-89,100,27,-69,-442,-64,29,-105,-93,131,-53,130,48,-345,214,-71,337,123,165,85,-180,-222,-207,-226,-263
19310,-264,76,-152,245,358,357,-702,-81,89,46,-52,-445,-50,-1,-105,-278,138,-66,141,43,-359,169,-66,340,103,166,80,-191,-246,-252,-248,-265
19311,-275,87,-158,214,371,381,-679,-86,90,62,-25,-428,-63,2,-98,-329,114,-71,141,40,-325,147,-95,305,86,193,97,-300,-287,-268,-244,-245
19312,-260,65,-161,227,355,348,-687,-105,79,44,-19,-429,-76,3,-84,-211,125,-100,104,31,-318,101,-131,279,82,175,106,-437,-338,-311,-283,-252
19313,-267,51,-185,236,353,338,-696,-98,71,37,-51,-460,-84,-2,-97,-32,109,-107,112,35,-326,84,-118,307,78,159,85,-429,-345,-314,-280,-275
19314,-301,56,-206,225,346,339,-694,-117,73,51,-61,-546,-83,-17,-107,48,129,-100,102,37,-337,91,-99,294,58,158,41,-365,-342,-321,-324,-325
19315,-317,6,-208,204,324,302,-722,-149,53,20,-84,-547,-112,-28,-151,-25,118,-148,68,4,-413,52,-123,227,1,101,-37,-365,-366,-363,-389,-347
19316,-328,-38,-220,201,356,293,-728,-142,68,25,-102,-550,-129,-9,-161,-52,96,-139,57,-6,-433,19,-115,226,21,104,-63,-352,-347,-363,-367,-342
19317,-337,-30,-247,207,347,304,-734,-157,63,47,-100,-719,-129,4,-157,-103,44,-135,65,-7,-410,34,-128,249,16,109,-29,-337,-333,-332,-337,-343
19318,-361,-15,-268,187,322,281,-742,-175,35,31,-108,-746,-142,-7,-159,-267,27,-155,70,11,-413,35,-124,235,11,113,-11,-317,-327,-319,-319,-326
19319,-348,2,-240,186,316,280,-760,-173,44,30,-92,-611,-128,-6,-155,-423,65,-153,71,5,-402,29,-146,221,16,132,-4,-402,-375,-366,-356,-331
19320,-314,24,-199,223,353,324,-723,-144,79,45,-58,-472,-109,14,-129,-373,100,-147,91,33,-344,71,-143,238,38,141,40,-393,-370,-335,-356,-325
19321,-353,-20,-236,203,334,293,-769,-144,68,26,-85,-428,-94,2,-141,-156,71,-128,89,35,-347,22,-137,266,63,142,22,-362,-333,-327,-362,-328
19322,-343,-32,-229,200,319,271,-789,-145,63,21,-123,-451,-91,8,-158,-102,63,-117,83,13,-371,-25,-156,264,46,132,20,-381,-340,-341,-384,-379
19323,-324,-35,-227,202,339,256,-781,-155,67,21,-117,-486,-101,-2,-166,-316,14,-141,79,-3,-422,16,-176,246,15,102,-4,-403,-359,-363,-405,-398
19324,-379,-51,-269,190,323,231,-780,-152,71,-10,-111,-529,-92,-11,-186,-190,9,-142,65,-14,-471,-28,-164,240,4,81,-36,-413,-377,-398,-412,-422
19325,-389,-50,-270,193,317,210,-799,-150,84,-4,-143,-510,-88,15,-187,8,25,-141,94,-19,-460,-190,-142,253,-4,82,-66,-380,-359,-391,-424,-417
19326,-357,-49,-241,210,331,210,-837,-116,90,4,-191,-475,-68,29,-207,-47,42,-100,107,-3,-457,-334,-130,272,12,97,-83,-372,-343,-363,-400,-417
19327,-371,-42,-238,227,336,223,-810,-123,85,22,-166,-494,-62,30,-213,-92,4,-100,113,1,-472,-309,-159,275,27,92,-47,-444,-366,-404,-415,-376
19328,-366,-38,-213,223,322,211,-818,-116,93,12,-180,-491,-78,28,-211,-150,4,-101,104,-4,-477,-453,-152,287,30,87,-66,-433,-373,-393,-415,-380
19329,-353,-17,-198,238,319,223,-834,-112,84,7,-161,-496,-110,29,-212,-207,-2,-120,99,-19,-475,-221,-181,271,21,66,-82,-438,-366,-395,-417,-406
19330,-318,-25,-196,257,330,235,-840,-111,102,23,-134,-494,-92,29,-195,-184,0,-125,98,5,-431,202,-166,288,35,70,-56,-419,-362,-371,-423,-397
19331,-324,-52,-215,241,323,205,-843,-133,81,-3,-165,-507,-94,15,-205,-194,-36,-149,67,-20,-464,135,-178,256,9,37,-102,-442,-393,-407,-440,-435
19332,-323,-34,-203,243,329,212,-844,-130,81,-2,-159,-524,-88,0,-200,-204,-43,-151,69,-31,-494,2,-217,239,-5,24,-130,-481,-420,-443,-460,-451
19333,-316,-43,-229,242,338,230,-847,-131,85,4,-142,-532,-83,-2,-198,-349,-35,-156,65,-43,-518,-5,-213,251,-19,27,-156,-456,-421,-448,-467,-472
19334,-302,-76,-243,234,354,241,-843,-141,85,5,-127,-553,-95,-10,-194,-334,-66,-174,59,-56,-528,-7,-227,242,-20,4,-147,-435,-411,-434,-458,-461
19335,-309,-80,-245,220,356,261,-856,-145,87,15,-137,-536,-99,-11,-184,-221,-60,-170,75,-38,-535,-70,-213,247,-15,15,-146,-453,-408,-419,-462,-486
19336,-270,-3,-229,261,377,278,-834,-135,87,32,-129,-520,-85,-7,-202,-146,-32,-147,62,-43,-530,-136,-194,264,-11,7,-140,-422,-383,-403,-457,-489
19337,-293,-16,-249,251,359,277,-836,-160,76,12,-126,-541,-103,-27,-207,-125,-73,-145,44,-63,-522,-158,-210,252,-30,-7,-156,-412,-374,-414,-452,-470
19338,-294,-1,-251,242,366,277,-826,-154,90,19,-127,-537,-96,-21,-192,-171,-32,-143,69,-61,-512,-139,-186,273,-21,1,-163,-391,-361,-406,-440,-475
19339,-273,35,-245,248,356,287,-842,-141,93,28,-116,-531,-92,-22,-181,-294,7,-142,88,-54,-503,-79,-165,288,4,30,-155,-320,-331,-365,-410,-454
19340,-256,29,-221,256,351,278,-838,-119,78,23,-116,-496,-102,-17,-185,-385,4,-129,88,-28,-484,-2,-153,306,34,45,-138,-363,-300,-344,-381,-434
19341,-274,0,-209,259,364,263,-833,-112,84,16,-116,-476,-103,1,-176,-298,-7,-137,112,-10,-465,13,-144,317,53,64,-122,-401,-313,-328,-380,-415
19342,-266,3,-211,243,359,244,-839,-109,67,12,-129,-465,-106,-2,-190,-190,-24,-124,104,-27,-480,-58,-146,324,57,48,-129,-348,-291,-317,-381,-411
19343,-267,18,-221,244,353,245,-834,-122,78,25,-120,-476,-105,2,-183,-189,9,-105,99,-25,-468,-149,-157,326,51,47,-98,-342,-285,-316,-376,-417
19344,-260,6,-254,259,355,242,-855,-128,80,24,-150,-513,-113,-4,-195,-321,24,-127,99,-35,-501,-216,-151,317,40,34,-79,-319,-293,-297,-398,-415
19345,-296,-2,-268,253,347,202,-889,-147,68,-2,-173,-547,-125,-23,-222,-314,15,-170,62,-59,-527,-134,-169,257,-4,-1,-129,-381,-343,-350,-433,-446
19346,-347,-9,-287,235,352,219,-860,-162,73,-9,-160,-551,-137,-23,-206,-204,-25,-194,46,-51,-506,-5,-179,261,-2,7,-121,-414,-361,-359,-436,-452
19347,-315,-15,-278,255,366,248,-830,-150,71,-9,-148,-570,-126,-26,-203,-169,-40,-182,57,-58,-489,-13,-194,272,7,20,-136,-411,-366,-359,-436,-441
19348,-282,0,-262,251,356,249,-822,-151,70,1,-149,-532,-118,-13,-200,-140,-48,-166,62,-62,-486,-32,-188,281,21,15,-135,-396,-365,-362,-431,-448
19349,-300,0,-271,230,353,246,-814,-147,60,-14,-157,-544,-127,-26,-198,-131,-58,-148,61,-50,-494,-58,-190,276,16,1,-116,-374,-334,-352,-425,-423
19350,-285,20,-258,250,375,266,-788,-131,92,10,-126,-524,-112,-16,-180,-142,-19,-152,74,-40,-474,-39,-184,268,36,21,-103,-354,-339,-347,-401,-430
19351,-284,11,-292,234,377,271,-806,-159,82,12,-128,-546,-122,-19,-220,-166,-19,-186,77,-67,-492,-71,-181,254,12,22,-139,-375,-371,-372,-418,-460
19352,-271,1,-283,233,363,270,-821,-150,79,12,-141,-547,-123,-34,-226,-157,-6,-171,73,-71,-488,-82,-210,259,21,33,-138,-391,-359,-376,-420,-461
19353,-284,3,-275,226,359,248,-816,-155,74,0,-158,-543,-110,-48,-217,-170,-58,-190,54,-69,-475,-70,-219,248,16,17,-142,-385,-372,-361,-410,-438
19354,-263,20,-255,243,386,263,-784,-145,72,-15,-137,-525,-110,-33,-202,-162,-7,-170,77,-56,-462,-52,-164,248,29,34,-142,-298,-339,-342,-375,-413
19355,-280,6,-262,238,368,267,-794,-127,70,-15,-145,-514,-94,-36,-215,-182,-6,-144,80,-38,-459,-27,-176,267,47,63,-101,-323,-339,-333,-353,-400
19356,-288,23,-254,257,361,266,-779,-121,79,-6,-152,-507,-77,-21,-223,-171,14,-118,112,-25,-405,10,-151,302,83,103,-55,-305,-287,-279,-317,-383
19357,-254,44,-243,256,373,305,-769,-101,83,-4,-115,-478,-49,11,-192,-152,17,-93,154,22,-380,-3,-163,334,104,154,-5,-360,-281,-267,-292,-350
19358,-252,47,-239,252,373,295,-750,-104,86,10,-110,-471,-49,17,-167,-128,57,-85,173,55,-379,-44,-126,360,157,171,-8,-265,-209,-218,-263,-316
19359,-235,51,-185,258,364,300,-731,-92,90,27,-84,-471,-55,32,-142,-88,57,-85,170,41,-389,1,-150,340,139,179,5,-321,-233,-226,-237,-300
19360,-206,60,-185,265,367,316,-734,-99,104,43,-72,-466,-58,37,-144,-106,67,-105,138,38,-420,32,-174,307,119,176,-11,-489,-345,-298,-282,-301
19361,-212,73,-176,266,390,314,-703,-97,96,26,-59,-477,-66,13,-125,-94,52,-107,149,51,-390,48,-157,316,141,162,16,-473,-356,-292,-289,-307
19362,-208,63,-175,276,389,310,-685,-76,90,17,-46,-480,-56,24,-135,-217,41,-115,166,46,-392,8,-152,329,155,163,-2,-420,-341,-276,-249,-312
19363,-186,28,-184,291,389,288,-732,-100,85,35,-45,-476,-63,11,-134,-579,37,-116,162,35,-421,23,-136,324,149,150,-12,-376,-321,-282,-282,-274
19364,-191,34,-209,285,398,270,-778,-116,78,-2,-95,-499,-65,-14,-168,-569,48,-137,137,1,-472,-44,-185,302,110,103,-46,-403,-348,-315,-341,-331
19365,-181,52,-176,304,412,283,-778,-89,90,23,-105,-497,-58,3,-149,-360,52,-137,125,-4,-467,-85,-197,291,91,98,-71,-421,-365,-334,-357,-358
19366,-173,42,-190,294,418,309,-758,-110,116,30,-79,-509,-63,13,-139,-281,19,-165,133,9,-449,-136,-218,276,110,103,-65,-426,-394,-348,-360,-337
19367,-173,42,-209,280,409,302,-768,-119,99,29,-90,-510,-100,-10,-164,-132,11,-169,101,-1,-451,-208,-240,257,69,96,-80,-416,-415,-357,-369,-361
19368,-213,41,-204,269,391,282,-786,-123,80,32,-119,-525,-107,-24,-154,-9,7,-160,93,-2,-430,-171,-214,269,100,111,-73,-387,-394,-336,-358,-367
19369,-225,50,-186,251,401,289,-782,-119,82,34,-95,-532,-87,-5,-138,0,47,-137,110,21,-406,-37,-180,289,116,126,-66,-368,-339,-298,-309,-333
19370,-257,6,-224,224,379,292,-780,-142,74,10,-102,-543,-102,-15,-141,0,28,-130,107,22,-420,-5,-184,300,104,106,-73,-313,-297,-290,-319,-345
19371,-254,3,-244,224,371,300,-782,-138,80,29,-111,-513,-101,-19,-142,-35,-37,-147,104,7,-429,-66,-182,301,118,95,-79,-280,-278,-291,-311,-374
19372,-263,19,-215,212,365,296,-773,-120,78,46,-100,-481,-104,1,-144,-81,-47,-135,107,30,-438,-215,-146,313,121,94,-57,-209,-249,-258,-275,-347
19373,-285,35,-266,185,364,310,-754,-149,75,45,-95,-496,-109,20,-148,-62,-38,-167,104,30,-447,-297,-155,302,100,98,-48,-236,-274,-262,-283,-343
19374,-340,-2,-315,145,365,299,-763,-199,46,24,-109,-567,-152,-18,-170,-112,-37,-216,87,1,-448,-96,-224,261,80,70,-78,-409,-347,-331,-340,-371
19375,-331,-10,-284,159,365,306,-750,-206,53,24,-91,-586,-163,-13,-168,-192,-41,-206,64,1,-454,47,-258,253,53,71,-93,-508,-394,-377,-359,-420
19376,-329,-20,-273,148,353,293,-771,-198,60,32,-101,-684,-153,-4,-165,-390,-24,-189,61,-14,-476,-50,-262,251,62,69,-123,-533,-411,-396,-370,-441
19377,-323,3,-280,165,346,293,-777,-190,58,29,-85,-772,-145,-3,-160,-277,-25,-206,61,4,-452,-60,-248,243,64,66,-96,-466,-390,-378,-358,-432
19378,-320,1,-302,179,355,294,-750,-182,67,32,-74,-687,-141,-12,-144,-139,-56,-218,72,-19,-452,-34,-266,237,52,70,-55,-508,-416,-390,-399,-409
19379,-315,-33,-296,176,363,293,-754,-202,68,31,-82,-585,-144,-15,-144,-217,-75,-230,61,-15,-456,-43,-297,229,52,44,-44,-497,-403,-406,-398,-393
19380,-295,-24,-293,175,393,297,-747,-194,54,30,-66,-525,-144,-11,-149,-255,-84,-226,68,-11,-460,-66,-268,237,43,55,-76,-442,-409,-402,-399,-420
19381,-297,-23,-291,170,380,284,-758,-209,58,31,-77,-554,-139,-14,-151,-187,-138,-224,59,-27,-473,-119,-285,206,21,13,-132,-479,-437,-442,-437,-449
19382,-295,22,-294,183,377,280,-757,-198,54,37,-93,-547,-135,-12,-146,-113,-123,-227,66,-14,-469,-222,-282,203,14,30,-130,-481,-431,-444,-453,-440
19383,-320,-19,-321,188,377,245,-770,-205,60,9,-99,-587,-142,-3,-152,-70,-112,-241,66,-12,-459,-277,-286,209,33,26,-134,-493,-459,-452,-436,-461
19384,-359,-54,-352,189,355,235,-805,-230,57,-4,-113,-605,-150,-20,-147,-90,-137,-264,49,-24,-456,-274,-315,200,32,7,-160,-561,-479,-475,-473,-478
19385,-337,-26,-329,207,380,282,-767,-208,78,30,-86,-554,-129,11,-106,-86,-76,-227,77,8,-420,-268,-271,237,55,48,-112,-461,-421,-427,-451,-449
19386,-308,-7,-302,222,395,286,-751,-185,93,32,-68,-541,-120,11,-115,-92,-56,-212,96,18,-420,-270,-235,250,55,70,-107,-415,-408,-398,-439,-440
19387,-324,-20,-325,196,364,266,-785,-204,86,17,-105,-560,-130,-2,-123,-148,-59,-218,95,17,-427,-49,-228,245,57,56,-142,-434,-414,-385,-446,-437
19388,-320,-31,-316,189,353,262,-784,-193,74,28,-92,-547,-114,10,-122,-159,-89,-195,113,26,-400,58,-211,278,65,68,-135,-420,-382,-396,-420,-423
19389,-316,-16,-294,189,362,277,-750,-177,83,43,-63,-511,-108,34,-96,-98,-93,-188,132,35,-367,46,-168,300,105,116,-112,-399,-348,-384,-424,-426
19390,-301,-1,-288,214,392,288,-717,-178,75,55,-41,-502,-88,26,-81,-120,-18,-162,129,47,-368,57,-150,319,97,108,-104,-345,-327,-361,-391,-431
19391,-309,-20,-286,210,389,271,-753,-175,79,51,-84,-498,-82,19,-106,-411,25,-142,119,37,-444,22,-122,339,103,75,-104,-269,-261,-306,-369,-370
19392,-294,-40,-267,214,393,271,-770,-142,77,38,-95,-476,-85,10,-106,-627,25,-140,124,37,-469,9,-111,335,110,76,-104,-237,-245,-303,-377,-377
19393,-321,-61,-292,175,384,269,-769,-178,45,31,-90,-514,-119,-7,-132,-435,-22,-175,93,0,-476,-48,-157,290,81,40,-129,-350,-335,-375,-432,-418
19394,-322,-63,-317,156,375,252,-786,-213,58,18,-117,-544,-121,-19,-171,-205,-59,-193,67,-34,-483,-122,-212,269,47,18,-125,-439,-393,-427,-483,-457
19395,-339,-53,-322,129,346,238,-824,-231,47,23,-131,-554,-148,-29,-167,-132,-49,-224,52,-63,-510,-199,-240,242,4,-6,-133,-565,-438,-445,-493,-504
19396,-359,-57,-347,134,352,235,-853,-251,40,40,-134,-581,-159,-10,-144,-303,-39,-222,44,-36,-498,-167,-223,233,3,12,-136,-550,-447,-459,-490,-498
19397,-381,-53,-368,127,339,250,-831,-251,39,24,-124,-575,-151,13,-134,-354,-73,-232,49,-42,-475,-74,-232,228,34,35,-135,-516,-448,-465,-497,-484
19398,-362,-62,-351,151,333,245,-820,-234,58,25,-124,-563,-111,14,-154,-79,-52,-212,90,-15,-472,-96,-215,231,54,59,-104,-475,-416,-409,-455,-450
19399,-369,-86,-363,142,330,232,-821,-222,49,18,-128,-561,-101,18,-150,69,-37,-219,92,10,-452,-60,-218,248,75,82,-93,-470,-386,-384,-441,-412
19400,-373,-57,-351,159,350,238,-798,-199,59,36,-98,-542,-95,44,-105,35,-27,-164,119,43,-410,-20,-205,295,114,110,-65,-418,-341,-343,-386,-369
19401,-373,-58,-355,160,350,226,-794,-215,54,25,-114,-536,-99,29,-125,-31,-5,-163,115,41,-416,-47,-148,318,129,124,-48,-352,-309,-315,-370,-364
19402,-346,-63,-323,158,336,213,-774,-174,62,23,-105,-506,-77,28,-120,-8,14,-148,144,44,-390,-1,-127,346,144,143,0,-368,-287,-291,-329,-330
19403,-350,-55,-310,169,330,213,-766,-169,76,15,-94,-495,-84,43,-105,-12,-24,-171,142,39,-394,-3,-166,343,137,138,5,-429,-322,-300,-338,-308
19404,-387,-95,-309,148,328,212,-785,-189,58,-7,-113,-518,-93,14,-136,-61,-70,-194,110,14,-411,-59,-198,329,123,120,-2,-453,-324,-330,-366,-324
19405,-377,-56,-290,160,342,231,-766,-180,71,7,-76,-512,-95,2,-126,-60,-58,-195,99,19,-398,-203,-191,324,144,136,15,-414,-308,-311,-337,-321
19406,-342,-33,-277,205,360,263,-726,-151,68,29,-47,-506,-93,33,-86,-152,3,-190,129,58,-395,-223,-162,339,154,171,58,-371,-284,-269,-295,-292
19407,-374,-45,-293,192,350,273,-725,-170,46,32,-45,-525,-85,33,-78,-151,50,-176,129,59,-374,-52,-150,335,137,160,68,-360,-274,-245,-246,-239
19408,-368,-27,-258,192,362,279,-718,-139,70,33,-7,-495,-76,26,-50,-56,38,-158,122,49,-350,12,-168,346,130,178,73,-366,-276,-238,-251,-250
19409,-342,-47,-246,178,344,271,-735,-143,62,26,-36,-482,-92,22,-69,-43,52,-163,100,40,-376,-42,-136,329,115,144,45,-343,-265,-252,-290,-308
19410,-360,-80,-302,165,330,266,-725,-178,43,5,-49,-507,-112,3,-90,-46,36,-181,80,34,-381,-38,-131,318,110,121,59,-334,-239,-264,-296,-324
19411,-367,-130,-321,147,312,236,-743,-182,22,-23,-62,-538,-156,-3,-113,-90,-44,-199,74,13,-417,-32,-166,301,88,79,22,-390,-289,-312,-344,-356
19412,-350,-100,-300,169,317,243,-770,-154,41,6,-60,-519,-157,27,-101,-172,-16,-210,86,9,-429,-54,-175,297,65,76,-8,-414,-313,-340,-376,-361
19413,-359,-76,-311,167,340,254,-773,-160,41,7,-63,-533,-147,25,-115,-341,-90,-230,80,-10,-444,-101,-213,262,41,45,-68,-425,-347,-353,-410,-361
19414,-339,-79,-340,140,344,242,-764,-195,47,1,-76,-528,-147,34,-110,-355,-93,-219,78,-10,-452,-99,-180,257,19,37,-110,-401,-333,-357,-411,-379
19415,-342,-96,-310,141,347,234,-756,-164,61,-8,-90,-509,-127,35,-108,-234,-34,-190,98,1,-456,-52,-151,277,46,26,-82,-378,-310,-348,-375,-361
19416,-328,-89,-258,183,353,260,-755,-140,69,3,-76,-452,-95,24,-104,-341,-6,-164,96,17,-437,-107,-133,307,62,44,-71,-313,-290,-319,-369,-353
19417,-310,-56,-268,182,363,257,-745,-139,56,2,-82,-469,-103,2,-117,-549,-32,-179,90,3,-462,-328,-134,293,70,46,-78,-257,-282,-312,-358,-372
19418,-308,-35,-252,187,361,261,-756,-112,60,17,-69,-497,-97,3,-122,-491,-24,-170,102,1,-496,-383,-125,306,88,47,-75,-216,-252,-284,-369,-388
19419,-319,-45,-260,191,362,266,-748,-137,44,3,-67,-497,-86,1,-118,-165,-42,-170,87,0,-502,-229,-173,292,76,33,-64,-378,-335,-326,-396,-394
19420,-305,-47,-264,187,368,247,-756,-128,47,-7,-64,-509,-115,-14,-145,-67,-59,-204,54,-23,-457,24,-249,248,56,26,-67,-568,-437,-396,-435,-386
