,Fp1,Fp2,F7,F3,Fz,F4,F8,FC5,FC1,FC2,FC6,T7,C3,Cz,C4,T8,TP9,CP5,CP1,CP2,CP6,TP10,P7,P3,Pz,P4,P8,PO9,O1,Oz,O2,PO10
179162,-203,-12,95,-253,-214,564,22,56,-157,328,21,-92,145,-80,376,137,-206,-11,112,404,-45,133,236,253,347,516,369,39,291,169,45,-276
179163,-201,74,102,-256,-238,534,49,80,-187,308,-4,-133,136,-86,366,136,-230,-46,92,384,-64,42,204,228,344,502,376,26,287,140,35,-302
179164,-150,165,93,-220,-227,529,108,132,-164,320,1,-91,165,-65,377,149,-204,-1,121,417,-34,152,247,265,369,537,410,60,328,187,82,-256
179165,-130,175,-50,-192,-202,525,132,194,-141,330,10,-123,197,-53,367,155,-196,22,123,411,-41,212,279,307,386,531,399,65,362,231,96,-224
179166,-135,146,4,-177,-216,514,148,200,-147,312,-6,-100,182,-85,341,154,-180,23,118,393,-49,223,253,301,372,518,418,44,383,235,86,-228
179167,-106,141,42,-193,-203,518,158,189,-156,298,-4,-122,164,-86,348,166,-149,24,116,395,-41,216,224,297,363,532,430,26,371,224,116,-206
179168,-105,186,-13,-218,-197,550,153,191,-158,308,7,-159,185,-110,341,156,-117,13,94,388,-33,176,206,267,358,531,449,31,336,218,112,-201
179169,-161,164,-24,-166,-195,564,157,168,-135,322,22,-86,187,-115,354,145,-113,12,103,405,-41,254,250,281,371,547,448,61,357,227,128,-176
179170,-139,126,30,-164,-203,554,140,154,-128,305,7,-48,182,-116,342,124,-156,-6,109,389,-41,249,280,298,341,539,449,64,379,248,115,-167
179171,-62,145,97,-123,-163,570,144,134,-127,328,10,6,197,-91,355,132,-191,39,118,382,-47,242,303,297,336,520,450,84,370,256,102,-190
179172,-49,180,68,-165,-168,575,92,86,-154,312,12,-29,159,-126,311,125,-191,33,72,343,-98,194,265,251,308,459,400,38,338,207,57,-272
179173,-42,250,81,-152,-168,563,127,111,-136,311,52,-54,154,-120,329,145,-156,48,76,336,-82,192,273,276,318,488,400,40,335,201,62,-271
179174,-70,223,172,-166,-173,583,199,104,-134,348,124,-72,166,-105,367,171,-90,6,79,375,-49,141,273,281,350,522,442,86,363,224,117,-254
179175,-62,128,197,-210,-147,682,180,73,-166,375,169,-52,150,-109,401,176,-95,15,100,401,-7,309,316,299,379,556,488,98,398,269,139,-183
179176,-37,62,134,-189,-155,638,161,43,-162,356,128,-40,142,-106,391,172,-136,45,92,418,3,299,345,317,388,590,496,133,432,273,172,-175
179177,6,55,104,-233,-162,599,181,-61,-168,342,54,-7,140,-100,387,178,-61,39,106,430,24,293,352,359,405,634,529,183,456,326,204,-128
179178,40,85,119,-199,-168,605,216,-71,-148,352,-2,38,167,-93,407,250,-52,86,128,441,75,342,406,379,420,637,570,231,510,374,248,-73
179179,13,82,19,-135,-166,599,211,220,-120,336,-22,-4,182,-96,372,345,-115,74,104,426,61,305,382,370,396,608,572,224,486,343,217,-94
179180,64,85,17,-130,-150,631,253,227,-135,330,6,-39,177,-95,386,328,-113,36,96,417,75,265,357,330,402,602,610,171,425,296,153,-97
179181,4,101,-4,-117,-158,645,290,201,-142,316,28,-97,173,-94,394,265,-122,10,92,412,64,244,334,312,376,593,584,135,412,258,134,-196
179182,-31,118,50,-124,-166,606,263,215,-158,278,64,-112,138,-137,361,121,-104,-4,65,387,38,209,320,293,349,559,487,132,396,241,101,-274
179183,-29,160,183,-151,-177,583,247,90,-180,283,44,-97,116,-145,322,64,-114,14,60,360,-21,244,313,277,347,540,419,108,388,251,107,-227
179184,57,279,261,-160,-162,589,262,79,-144,309,42,-137,158,-121,334,200,-119,77,102,381,-10,318,382,324,383,566,447,162,421,295,142,-188
179185,76,311,187,-204,-184,521,246,64,-164,276,28,-204,127,-126,320,177,-101,10,85,356,-60,314,367,301,367,532,426,163,418,259,133,-171
179186,41,315,59,-162,-187,501,265,133,-149,270,26,-83,120,-124,306,142,-123,-27,61,340,-85,336,316,279,344,513,439,143,395,250,118,-155
179187,40,372,49,-89,-164,520,238,171,-143,273,-10,-18,135,-125,302,122,-142,10,45,329,-94,254,308,269,313,487,412,97,341,199,83,-178
179188,65,359,135,-96,-156,531,218,100,-135,270,-36,-67,117,-145,287,106,-98,-11,43,310,-103,203,272,234,297,459,395,92,334,189,74,-197
179189,19,241,156,-153,-161,556,191,82,-158,268,-25,-30,116,-143,267,76,-119,-3,34,283,-126,342,290,211,287,431,398,91,325,181,44,-208
179190,-28,243,96,-186,-179,570,156,86,-158,266,-20,-34,104,-149,251,66,-188,0,13,262,-169,255,301,219,253,390,362,74,301,144,13,-243
179191,-40,274,16,-159,-174,600,79,92,-159,265,-53,-40,105,-165,234,45,-164,20,20,249,-191,227,281,220,227,376,353,64,296,143,-12,-230
179192,33,372,24,-148,-160,616,96,81,-158,274,-27,-39,96,-160,220,43,-106,1,22,260,-189,221,268,213,229,364,315,60,284,119,-27,-234
179193,71,400,64,-112,-163,607,82,118,-148,268,0,-56,103,-145,227,49,-106,-46,2,246,-207,219,256,182,229,345,267,32,252,84,-54,-267
179194,17,377,36,-115,-161,596,69,135,-159,266,-16,-67,116,-149,236,61,-168,-18,-7,239,-208,226,317,186,225,331,288,60,243,85,-47,-253
179195,-32,303,54,-80,-147,487,111,146,-142,262,-21,-50,146,-138,241,68,-161,47,6,249,-214,212,337,205,208,334,293,74,274,109,-40,-259
179196,-74,74,36,-58,-151,451,84,230,-118,257,-58,-64,125,-179,221,33,-102,0,-4,226,-242,181,291,191,178,307,254,71,275,95,-83,-320
179197,26,29,42,-43,-101,581,141,197,-113,284,-18,-85,123,-180,245,63,-59,-49,0,240,-215,196,272,187,194,304,263,68,266,116,-71,-305
179198,61,80,48,-34,-117,619,161,126,-137,273,-2,-134,129,-199,259,90,-169,4,0,247,-189,195,282,198,203,337,300,66,290,128,-24,-223
179199,102,113,43,-96,-127,623,202,-76,-140,287,-12,-95,115,-200,261,106,-170,35,-12,238,-183,184,294,197,213,352,310,66,288,110,-8,-214
179200,154,177,91,-99,-104,597,228,35,-131,286,11,-88,100,-193,257,131,-126,-24,-17,238,-172,189,286,199,211,355,312,79,284,142,-12,-231
179201,210,280,91,-95,-97,618,172,203,-124,271,31,-124,132,-179,263,105,-101,6,1,231,-169,200,286,222,200,351,285,77,292,136,-32,-323
179202,188,313,86,-112,-93,634,159,150,-131,290,32,-87,112,-194,261,90,-43,-71,-12,216,-196,132,214,165,179,328,245,38,261,95,-80,-397
179203,38,276,50,-142,-119,630,183,160,-143,272,11,-48,106,-192,262,83,-129,-43,-16,217,-199,148,256,162,194,316,257,47,267,94,-90,-335
179204,39,333,120,-155,-132,610,204,130,-155,265,-1,-10,109,-178,260,140,-166,11,-1,226,-172,200,308,208,204,344,301,75,289,135,-31,-269
179205,82,410,227,-163,-111,587,263,106,-146,291,16,24,132,-166,264,253,-121,28,9,245,-147,220,301,220,227,380,339,104,329,187,16,-224
179206,89,383,243,-227,-139,556,217,60,-146,282,11,3,115,-188,255,220,-125,8,5,239,-137,119,293,202,220,385,312,104,325,189,21,-291
179207,87,337,201,-255,-145,537,159,27,-149,263,19,-65,107,-197,273,138,-147,-20,-19,240,-121,79,269,194,196,385,310,77,321,174,33,-294
179208,56,283,154,-174,-141,543,127,31,-152,257,10,-79,80,-193,259,13,-133,-23,-25,242,-107,223,290,207,208,397,329,82,358,205,50,-255
179209,34,227,108,-199,-138,544,114,23,-170,257,4,-160,65,-217,245,-51,-131,-39,-39,224,-132,193,253,190,183,378,348,99,359,203,47,-266
179210,8,262,31,-195,-142,547,163,118,-162,256,36,-155,86,-217,232,79,-103,-34,-46,212,-135,216,228,194,173,366,329,69,344,185,29,-316
179211,-9,312,-171,-125,-135,552,188,234,-129,272,88,-100,106,-182,260,117,-69,-48,-21,256,-106,244,238,211,195,375,335,105,364,195,49,-293
179212,-14,292,-139,-116,-159,543,166,163,-148,256,83,-80,114,-191,261,121,-106,6,1,261,-93,227,293,221,205,398,365,141,412,223,74,-239
179213,-32,163,67,-121,-140,557,172,41,-143,271,5,-14,141,-157,269,133,-140,59,19,258,-90,242,344,250,228,423,376,173,440,264,85,-210
179214,-25,57,155,-104,-136,554,195,95,-132,250,-40,-9,147,-172,272,147,-123,55,27,254,-94,250,345,244,216,432,370,146,414,236,76,-204
179215,-12,93,173,-130,-145,543,212,107,-145,260,-18,-31,150,-189,280,152,-107,45,35,269,-74,238,342,246,214,430,377,151,410,245,96,-206
179216,67,212,206,-185,-144,561,220,48,-159,275,32,-58,133,-192,284,150,-126,23,24,273,-96,243,323,240,232,416,355,135,383,217,94,-204
179217,116,316,203,-182,-158,539,248,34,-154,276,51,-95,130,-187,303,182,-134,34,17,286,-78,248,292,233,222,418,350,64,341,201,61,-223
179218,101,304,141,-195,-182,507,193,84,-129,227,29,-101,135,-190,294,157,-134,35,22,278,-66,228,313,226,203,420,326,97,375,210,78,-201
179219,97,306,55,-159,-189,558,93,178,-134,230,-5,-224,161,-184,260,114,-121,37,21,256,-106,200,305,230,197,415,304,103,376,215,61,-211
179220,100,330,13,-135,-182,538,73,211,-144,215,-10,-181,146,-190,258,122,-58,14,17,237,-112,212,316,220,198,409,325,118,380,225,86,-216
179221,133,265,34,-81,-142,548,85,266,-123,237,-14,-25,142,-161,248,111,-15,-8,14,246,-123,194,300,204,186,410,334,87,374,237,114,-197
179222,72,237,5,-44,-135,554,65,254,-116,223,-54,-56,165,-149,217,75,-82,40,13,232,-150,215,321,190,194,385,320,27,353,233,112,-178
179223,29,270,-35,-26,-141,585,60,226,-104,198,-59,-102,159,-184,186,41,-105,42,-9,221,-184,201,305,173,171,342,304,25,325,202,79,-218
179224,-16,264,-6,1,-139,600,147,165,-89,207,-75,-130,155,-189,200,47,-50,8,-11,191,-192,167,284,182,161,336,316,57,347,209,95,-201
179225,-100,269,43,-57,-149,594,150,91,-111,212,-92,-111,123,-205,204,67,-58,-15,-6,188,-181,33,311,169,134,332,299,57,350,217,105,-217
179226,-1,235,119,-92,-157,563,107,137,-106,227,-112,16,166,-185,214,85,-99,74,31,218,-168,224,394,219,171,369,357,131,400,287,163,-137
179227,46,118,240,-111,-160,531,143,121,-101,239,-66,-2,195,-182,233,91,-79,121,50,231,-156,293,412,253,212,396,404,209,438,312,197,-97
179228,41,165,224,-129,-150,513,154,-56,-91,262,-40,25,161,-174,266,138,29,73,49,249,-103,289,419,237,234,412,428,249,448,335,211,-86
179229,101,234,81,-98,-153,514,102,205,-96,237,-47,-53,187,-181,244,120,4,90,45,242,-118,265,386,237,208,378,396,213,384,307,175,-135
179230,104,231,-9,-122,-158,537,97,239,-116,227,-69,-44,169,-207,233,89,-21,64,8,229,-155,236,337,199,183,377,391,186,368,277,166,-130
179231,120,307,91,-119,-130,596,84,188,-93,262,-70,21,164,-189,247,103,10,53,16,249,-116,243,335,205,197,380,420,172,381,278,181,-143
179232,62,216,127,-114,-140,615,82,145,-100,275,-55,14,179,-200,251,165,-89,62,14,231,-123,172,348,231,193,378,379,152,350,268,153,-200
179233,30,173,26,-132,-134,597,74,97,-122,259,-38,-10,147,-223,241,195,-116,43,-15,220,-154,120,331,174,166,368,352,159,321,234,138,-177
179234,18,211,16,-130,-145,574,84,103,-125,261,-33,-36,155,-210,238,139,-85,21,-38,208,-143,150,296,158,151,342,333,121,285,214,121,-198
179235,18,200,65,-170,-140,543,123,184,-101,257,-15,-59,183,-172,266,35,-71,41,3,241,-116,139,289,193,172,365,335,114,292,214,129,-245
179236,49,226,126,-118,-147,497,137,176,-121,257,-24,-60,178,-164,263,-101,-49,55,20,232,-144,137,288,199,199,377,292,106,310,220,105,-239
179237,118,301,102,-110,-126,533,75,161,-117,245,-26,-39,160,-168,241,-17,-53,34,23,213,-164,150,279,196,177,378,268,78,308,216,82,-232
179238,84,360,54,-92,-125,531,40,227,-118,249,-43,-65,187,-180,214,76,-114,64,24,204,-176,121,308,212,155,348,259,98,295,207,74,-245
179239,87,377,42,-100,-135,500,86,163,-118,240,-73,-81,172,-201,188,29,-106,40,21,182,-162,94,288,193,145,339,256,110,305,184,46,-241
179240,47,342,-61,-94,-149,526,124,129,-111,241,-27,-100,147,-197,191,45,-95,35,3,181,-166,71,255,175,137,338,270,90,275,150,14,-316
179241,31,291,-99,-81,-139,537,142,196,-120,222,-30,-95,153,-195,202,52,-103,-5,0,187,-188,-2,239,169,131,328,248,94,260,143,0,-345
179242,115,237,31,-96,-133,561,193,176,-129,234,-13,-74,135,-183,230,47,-132,-21,-5,200,-151,91,261,182,148,339,235,91,250,153,22,-301
179243,155,216,118,-138,-131,585,165,75,-140,254,70,-52,142,-187,244,84,-144,28,-6,210,-148,156,290,173,148,354,223,92,252,132,45,-268
179244,149,259,162,-168,-123,605,157,96,-130,267,116,-32,149,-188,259,108,-121,39,7,213,-164,148,318,196,157,380,240,122,280,153,25,-240
179245,120,271,215,-215,-155,596,140,111,-150,248,82,-84,139,-186,246,125,-144,41,5,222,-143,149,298,188,159,376,291,113,276,149,28,-228
179246,86,325,179,-154,-143,537,132,96,-137,252,32,-240,145,-177,226,107,-118,47,14,218,-137,217,313,192,168,389,317,112,284,155,71,-207
179247,-20,259,107,-141,-159,489,97,48,-155,216,-108,-123,113,-182,184,72,-137,-7,-28,212,-180,252,288,176,133,381,319,49,270,143,66,-192
179248,9,175,145,-115,-150,539,141,66,-133,223,-115,-66,116,-177,216,120,-138,12,-12,218,-149,195,287,175,169,389,327,55,296,179,70,-172
179249,111,165,116,-126,-127,595,129,136,-142,240,-54,-92,118,-199,219,123,-158,0,-7,219,-149,82,294,178,146,375,295,72,301,168,49,-227
179250,1,135,-78,-80,-119,586,113,235,-124,245,-80,-112,137,-213,210,77,-163,12,-10,194,-172,257,287,182,143,375,288,82,313,162,44,-230
179251,-68,98,-182,-52,-119,581,118,114,-121,269,-82,-106,140,-192,229,93,-148,28,3,199,-147,205,296,204,174,362,281,92,329,147,8,-283
179252,-67,51,-157,-93,-142,556,118,-20,-127,271,-64,-96,137,-181,217,91,-138,-3,4,232,-139,149,283,205,181,356,295,93,333,124,4,-304
179253,10,110,-106,-57,-136,559,130,219,-103,270,-38,-88,168,-178,219,115,-117,42,21,232,-129,175,278,214,175,366,308,99,321,144,26,-309
179254,97,215,-7,-64,-144,546,91,225,-107,276,-13,-82,175,-164,218,129,-89,43,19,231,-125,185,256,210,169,370,298,79,317,136,25,-270
179255,176,303,51,-85,-152,488,48,176,-123,242,-21,-91,120,-187,202,114,-127,-40,-18,194,-145,190,207,168,161,353,289,45,264,95,-28,-285
179256,186,455,160,-127,-117,514,71,108,-142,258,-17,-85,117,-175,242,144,-205,-11,-16,207,-131,209,268,182,149,366,296,82,305,110,-10,-289
179257,199,400,210,-245,-137,578,62,6,-171,258,-34,-93,83,-165,262,164,-203,-39,-21,216,-121,220,264,180,167,378,314,96,325,141,19,-249
179258,126,217,187,-193,-137,648,150,82,-145,271,-27,-93,125,-164,262,189,-189,28,20,256,-136,233,296,227,208,405,332,91,332,152,43,-288
179259,-3,205,149,-144,-118,658,129,131,-133,269,-34,-134,138,-143,281,251,-148,24,47,276,-104,193,293,247,241,446,348,112,364,183,49,-220
179260,-19,197,108,-152,-128,629,110,140,-139,278,-8,-139,154,-142,298,224,-176,32,73,310,-83,142,320,275,263,453,361,151,379,196,74,-232
179261,71,72,100,-144,-120,566,111,90,-135,290,2,-70,162,-140,289,159,-160,21,68,324,-69,97,318,279,279,462,348,166,401,223,98,-229
179262,114,146,107,-146,-117,607,128,77,-125,294,6,-44,176,-143,304,15,-157,53,77,329,-60,138,335,281,279,494,402,136,415,254,112,-202
179263,77,163,130,-145,-129,616,112,69,-137,286,-7,-54,156,-162,299,71,-143,81,67,308,-95,218,342,273,264,488,421,141,420,260,120,-223
179264,73,213,157,-133,-137,605,152,90,-130,289,6,-98,137,-155,289,172,-171,60,52,303,-64,250,314,262,266,493,419,140,372,226,109,-214
179265,100,272,171,-154,-126,587,179,111,-140,304,43,-101,149,-145,312,174,-159,26,44,310,-42,165,285,247,273,495,409,88,318,205,100,-187
179266,103,292,113,-154,-134,606,154,68,-156,288,35,-67,140,-162,323,163,-133,0,29,291,-50,266,277,223,259,502,394,54,307,185,111,-170
179267,120,295,-37,-133,-121,626,186,121,-127,299,19,-52,153,-173,301,132,-158,29,45,300,-78,332,293,230,279,488,403,88,315,202,114,-188
179268,93,273,-87,-79,-109,573,149,214,-112,294,4,-68,178,-161,288,172,-126,32,40,318,-63,236,284,249,261,481,412,85,322,208,108,-186
179269,31,221,-66,-62,-93,608,115,274,-125,300,-3,-66,172,-158,301,159,-131,-9,39,301,-90,286,225,231,248,456,376,-8,312,203,108,-168
179270,33,156,83,-56,-86,658,138,269,-119,316,-1,-91,142,-162,298,132,-157,0,32,299,-110,282,279,220,250,447,365,20,305,208,101,-181
179271,12,132,150,-45,-99,676,156,73,-127,313,-22,-55,111,-162,285,107,-142,16,13,286,-114,269,327,225,236,438,379,83,325,214,109,-172
179272,-39,132,53,-104,-140,666,137,97,-147,286,-6,-132,98,-163,274,103,-177,17,6,269,-115,247,286,213,217,432,366,39,306,202,83,-172
179273,28,197,91,-59,-140,626,106,232,-129,276,6,-130,122,-149,285,141,-175,24,24,275,-100,234,254,216,209,423,358,19,280,172,58,-193
179274,107,313,98,-73,-117,633,132,100,-119,272,19,-100,112,-158,283,163,-158,-3,13,286,-99,254,193,208,194,414,363,4,243,137,42,-225
179275,138,291,35,-61,-121,588,135,122,-116,285,24,-93,107,-165,298,164,-172,-48,6,268,-72,237,171,169,180,405,397,-3,216,137,18,-238
179276,74,270,6,-78,-113,567,156,197,-95,309,52,-251,154,-141,310,208,-182,19,24,281,-49,257,211,190,182,428,418,19,241,123,16,-214
179277,-29,218,7,-127,-112,633,155,131,-142,304,66,-201,105,-157,299,216,-143,-43,8,259,-54,202,163,159,184,411,405,-9,226,93,-5,-229
179278,-15,234,73,-150,-129,654,154,-34,-149,294,70,-114,66,-181,288,195,-160,-76,-3,264,-57,209,180,147,155,388,400,-7,218,97,-22,-283
179279,108,304,89,-152,-111,638,156,-135,-130,300,60,-55,73,-188,288,179,-195,5,1,253,-75,218,273,184,161,362,407,15,247,107,-17,-276
179280,115,315,104,-198,-107,631,151,153,-150,286,40,-111,103,-198,280,159,-199,13,2,231,-105,240,277,191,155,346,343,21,250,115,-9,-237
179281,96,331,167,-126,-116,640,121,152,-124,284,34,-74,120,-196,275,125,-192,13,2,237,-102,329,281,189,149,341,321,13,222,99,-18,-235
179282,96,308,181,-123,-124,648,148,111,-141,284,79,-30,112,-189,267,132,-198,5,-1,217,-115,222,276,164,119,331,303,18,249,95,-19,-219
179283,102,290,169,-119,-115,641,175,81,-136,301,136,4,104,-179,292,182,-174,-5,2,206,-109,233,294,172,144,353,331,11,265,119,-2,-201
179284,96,196,130,-148,-115,629,142,90,-126,298,137,11,107,-197,293,157,-151,6,-8,210,-120,247,285,176,143,340,339,18,248,117,-3,-217
179285,103,203,137,-159,-97,657,175,117,-134,313,66,7,112,-183,296,171,-72,0,18,245,-89,286,260,187,151,352,356,83,292,151,24,-207
179286,90,217,108,-161,-100,664,187,108,-144,305,-23,-9,109,-178,288,205,-152,25,6,228,-87,303,300,206,148,363,375,85,291,136,12,-200
179287,6,157,24,-151,-95,666,154,163,-136,291,-12,-50,142,-211,280,176,-187,31,-14,213,-119,235,290,196,136,337,291,59,255,102,-24,-262
179288,-130,28,-86,-111,-104,677,123,209,-124,282,-7,-137,129,-233,250,151,-191,22,-42,195,-157,156,241,182,108,301,237,26,232,82,-29,-347
179289,-202,-105,-265,-15,-94,637,55,173,-126,285,-32,-155,105,-203,251,218,-145,-19,-45,190,-170,135,215,168,100,291,272,7,213,81,-30,-286
179290,-88,-34,-204,-60,-101,630,-19,72,-146,297,-46,-223,47,-208,257,207,-103,-107,-54,182,-186,120,159,139,78,294,274,4,227,100,-30,-262
179291,41,207,-22,-176,-118,659,76,73,-153,292,-2,-161,71,-211,270,150,-178,-34,-31,199,-153,163,207,174,112,328,276,2,247,112,-3,-288
179292,41,324,30,-159,-150,617,31,127,-161,263,0,-98,108,-207,252,-10,-252,-12,-26,216,-164,86,246,183,127,322,245,15,230,102,-26,-360
179293,40,206,-16,-130,-148,603,86,261,-120,277,19,-96,113,-177,252,-78,-260,-52,-28,191,-186,93,222,162,107,302,238,-7,220,96,-24,-341
179294,58,112,79,-111,-120,574,188,186,-120,296,11,-76,114,-165,258,109,-212,-37,-10,221,-187,84,233,167,124,308,272,4,254,119,10,-281
179295,34,192,168,-177,-123,589,180,-93,-154,282,10,-103,79,-190,260,157,-210,-56,-46,203,-171,15,206,151,131,312,265,-14,221,101,4,-293
179296,-29,279,23,-145,-135,648,159,13,-126,289,6,-117,87,-168,271,148,-218,-66,-35,194,-170,54,183,149,117,317,292,-33,208,61,-6,-289
179297,-8,290,24,-115,-124,580,174,110,-118,265,8,-140,81,-185,243,130,-232,-72,-40,185,-210,-19,174,145,94,304,282,-22,208,69,-25,-310
179298,0,272,56,-152,-122,570,133,61,-138,266,-17,-162,90,-212,238,98,-203,-56,-49,192,-197,207,176,155,112,305,316,-14,193,103,-4,-237
179299,-42,172,11,-196,-125,593,98,-213,-137,278,-31,-198,74,-209,241,70,-157,-44,-31,203,-170,293,180,159,111,329,341,-3,223,120,10,-183
179300,2,168,95,-188,-129,617,166,-71,-147,261,-50,-292,63,-202,234,70,-173,-91,-25,199,-178,211,138,123,97,316,364,-41,203,87,13,-208
179301,14,239,96,-117,-129,624,162,84,-126,279,-37,-228,76,-168,252,92,-222,-61,-10,221,-183,203,199,149,128,334,391,-8,206,101,28,-186
179302,29,220,92,-135,-122,644,69,50,-149,291,-65,-228,74,-188,261,53,-260,-55,-14,202,-190,190,231,151,114,318,339,1,212,100,7,-253
179303,43,208,2,-161,-116,689,81,92,-132,305,-93,-125,101,-197,249,48,-222,-16,-12,196,-202,208,257,163,107,322,328,17,223,86,-9,-285
179304,-33,221,-138,-211,-142,666,93,109,-148,258,-110,-140,78,-229,211,33,-229,-53,-56,152,-239,173,222,134,85,283,265,-15,198,76,-32,-282
179305,0,284,-63,-156,-131,622,51,107,-135,244,-87,-90,67,-236,205,39,-203,-46,-68,149,-218,198,218,132,69,277,272,4,205,102,3,-257
179306,27,331,4,-130,-99,618,58,94,-135,275,-23,-53,77,-232,223,56,-187,-9,-56,156,-216,214,222,156,67,288,297,-2,199,99,-15,-275
179307,53,269,12,-127,-91,582,79,63,-121,265,-46,-54,79,-244,199,41,-145,-25,-58,146,-238,181,216,147,65,271,269,6,220,71,-56,-328
179308,56,192,33,-140,-111,560,84,56,-140,249,-74,-68,76,-237,190,32,-100,-26,-38,158,-248,191,227,140,67,277,262,35,241,89,-38,-308
179309,-3,112,43,-153,-120,551,63,33,-168,242,-77,-85,64,-228,190,20,-142,-36,-49,132,-269,127,231,135,46,272,249,21,241,71,-74,-316
179310,-3,118,-24,-155,-119,560,84,56,-146,243,-63,-85,44,-218,199,29,-174,-9,-63,152,-275,79,260,160,41,264,235,-18,224,45,-82,-323
179311,-2,95,-16,-153,-107,559,73,79,-150,232,-72,-141,49,-225,206,36,-128,0,-68,143,-239,152,259,157,59,268,228,-9,215,63,-76,-311
