,Fp1,Fp2,F7,F3,Fz,F4,F8,FC5,FC1,FC2,FC6,T7,C3,Cz,C4,T8,TP9,CP5,CP1,CP2,CP6,TP10,P7,P3,Pz,P4,P8,PO9,O1,Oz,O2,PO10
194751,14,42,470,-208,40,169,131,507,55,-92,273,379,504,-51,209,186,267,222,32,-161,116,536,395,368,310,241,349,730,559,387,339,457
194752,62,268,494,-246,57,160,86,583,46,-82,252,492,516,-54,173,-20,292,294,47,-168,87,543,604,431,309,256,315,597,573,391,364,437
194753,110,554,450,-113,53,9,65,553,66,-145,228,503,505,-77,133,38,212,271,27,-225,42,515,529,385,279,204,278,488,490,360,328,439
194754,149,472,416,-126,37,319,74,544,53,-135,172,405,488,-88,144,262,128,185,1,-214,52,472,313,312,246,183,288,327,373,259,285,457
194755,189,389,385,-112,62,361,95,543,85,-107,250,390,492,-62,174,370,157,125,7,-182,70,435,243,310,256,213,347,264,360,266,326,678
194756,207,333,337,-126,42,229,67,482,77,-136,207,390,458,-88,134,483,122,102,-26,-233,79,309,282,304,242,175,367,239,335,235,275,775
194757,230,294,389,-160,30,200,96,445,57,-157,150,399,439,-102,89,437,145,123,-42,-285,12,214,379,278,189,96,307,259,297,122,98,439
194758,110,276,396,-149,60,180,132,457,48,-142,115,399,445,-113,47,343,134,126,-50,-328,-68,266,387,272,166,11,169,281,307,88,-42,-130
194759,41,152,311,-152,58,78,70,446,39,-177,77,287,410,-116,11,229,38,73,-89,-357,-135,265,326,233,160,-21,119,210,265,90,19,54
194760,20,79,282,-180,33,79,18,397,38,-198,33,171,394,-119,-14,112,-27,41,-101,-393,-178,265,216,218,155,-22,82,177,257,103,105,280
194761,31,166,320,-238,58,155,-18,390,43,-163,80,59,400,-99,0,-12,-50,92,-76,-390,-147,245,242,243,190,-10,108,154,260,145,143,350
194762,-31,185,255,-227,29,134,-87,294,44,-185,81,14,367,-124,-37,-102,-104,92,-98,-409,-182,157,246,203,173,-59,74,88,225,78,64,250
194763,-38,148,211,-216,9,180,-113,281,37,-208,42,76,357,-140,-81,16,-142,53,-127,-433,-233,122,127,170,134,-143,23,38,145,-33,-102,-63
194764,2,101,242,-276,20,219,-84,284,6,-208,3,144,326,-142,-116,79,-129,-101,-142,-456,-289,160,16,120,132,-153,11,48,113,-23,-81,-65
194765,18,147,193,-339,23,143,-76,221,9,-198,-9,110,262,-143,-147,-17,-150,-221,-167,-452,-321,164,-61,65,113,-140,-9,113,133,36,-11,82
194766,-32,133,88,-281,19,142,-84,187,13,-198,-13,42,284,-153,-142,-34,-196,-100,-154,-426,-301,147,-12,105,144,-143,-57,81,161,48,-6,95
194767,-80,121,14,-206,28,158,-39,205,11,-195,-9,78,299,-150,-128,19,-184,-98,-136,-418,-296,115,20,140,174,-117,-92,78,161,9,-60,92
194768,-71,121,-47,-218,27,187,42,206,22,-184,25,117,309,-124,-72,43,-145,-90,-124,-377,-247,69,43,168,194,-68,-57,117,181,40,-22,139
194769,-38,101,4,-249,34,167,40,194,15,-173,22,104,308,-97,-29,119,-147,-93,-105,-335,-196,72,50,169,207,-29,-11,112,222,91,20,174
194770,-9,105,148,-359,25,208,53,190,8,-163,40,102,299,-111,4,142,-123,-45,-101,-312,-129,128,158,217,242,21,20,62,269,146,78,177
194771,-9,103,278,-334,48,200,124,197,7,-159,70,104,319,-105,40,123,-86,35,-90,-315,-67,156,263,248,261,38,44,25,257,78,20,87
194772,-44,-28,228,-314,37,144,138,237,1,-146,78,146,314,-105,68,109,-82,29,-99,-289,-37,231,309,196,237,48,58,132,189,22,-50,66
194773,-118,-73,115,-319,40,188,161,218,6,-147,138,126,287,-98,119,46,-127,-53,-123,-251,-13,335,103,174,240,101,107,157,220,96,48,213
194774,-91,130,102,-331,26,167,41,201,-8,-138,140,70,248,-104,123,-4,-158,-132,-139,-230,-2,324,4,157,229,117,117,154,242,105,38,206
194775,-23,201,117,-356,40,173,8,215,-28,-151,132,48,269,-106,152,116,-156,-85,-129,-198,59,287,66,200,234,159,162,73,262,125,63,259
194776,-3,180,75,-444,32,183,-17,161,-15,-135,149,55,281,-77,186,290,-113,-41,-132,-158,156,320,90,210,257,230,273,127,279,186,190,469
194777,-31,185,82,-357,10,37,-78,225,-17,-147,170,96,310,-87,203,338,-64,7,-115,-143,215,355,219,219,279,294,352,166,309,251,286,629
194778,-50,228,5,-308,7,140,-44,323,-6,-138,209,161,362,-77,242,357,-49,91,-68,-99,257,379,412,285,290,317,333,34,351,255,281,592
194779,-75,230,5,-302,29,291,20,325,0,-102,176,130,326,-67,231,257,-70,14,-122,-116,215,382,248,222,237,254,234,172,292,161,133,176
194780,-127,178,106,-294,43,210,40,323,-3,-101,186,95,283,-81,234,203,-94,-87,-161,-138,145,441,107,146,228,233,243,316,254,102,88,243
194781,-264,17,74,-298,30,231,27,239,9,-94,201,118,256,-91,234,277,-120,-118,-182,-137,196,430,101,134,209,260,303,177,237,75,36,290
194782,-263,66,3,-308,24,303,37,170,-7,-119,175,203,223,-104,228,389,-81,-132,-219,-146,259,348,113,110,192,268,318,153,191,49,35,242
194783,-227,145,27,-360,6,242,45,212,-25,-120,169,143,229,-94,244,358,-115,-188,-240,-148,275,346,62,87,183,283,364,137,180,58,124,378
194784,-153,185,115,-408,0,112,26,236,-41,-122,190,75,199,-108,257,336,-144,-191,-234,-178,276,357,55,62,166,307,358,137,202,91,162,434
194785,-62,210,165,-351,0,229,97,225,-23,-100,212,74,229,-115,263,402,-112,-185,-232,-186,242,422,83,58,171,293,322,144,188,76,127,307
194786,-112,182,149,-346,14,262,136,193,-20,-98,213,71,206,-121,266,374,-135,-188,-260,-182,252,407,39,28,145,274,340,115,147,12,25,38
194787,-101,186,146,-358,32,235,168,169,-33,-103,263,88,198,-117,290,324,-133,-197,-274,-177,282,380,81,30,127,258,359,68,122,39,49,186
194788,-148,121,83,-378,23,288,199,186,-15,-82,296,81,205,-133,303,422,-131,-184,-275,-186,303,363,113,21,132,260,416,67,151,73,98,497
194789,-189,70,39,-365,24,307,212,161,-37,-82,281,85,197,-134,307,538,-131,-188,-289,-200,291,365,55,-1,117,255,415,90,120,7,38,295
194790,-79,18,41,-340,28,309,207,171,-43,-81,275,45,197,-139,271,424,-111,-186,-313,-199,217,350,0,-3,89,209,271,108,84,-47,-50,-46
194791,2,70,75,-387,40,272,165,181,-29,-83,290,0,189,-151,255,270,-105,-158,-288,-182,202,315,78,10,110,196,166,113,117,-25,-13,40
194792,48,225,137,-389,60,298,82,195,-40,-93,295,-40,200,-128,265,220,-121,-118,-277,-200,175,279,142,41,144,218,148,-23,140,-33,36,181
194793,32,153,107,-343,33,335,38,196,-76,-92,255,16,190,-158,239,236,-126,-124,-278,-204,155,246,103,44,121,205,142,85,133,-10,53,184
194794,54,112,136,-331,31,328,89,220,-52,-121,207,186,219,-145,201,230,-107,-93,-257,-174,88,249,103,61,110,189,95,240,164,28,51,165
194795,132,225,183,-322,50,309,122,287,-36,-105,211,251,234,-121,194,215,-64,-194,-252,-156,66,277,157,68,146,204,112,278,195,49,78,224
194796,44,302,189,-288,76,202,118,300,0,-110,197,273,271,-113,197,225,-3,-104,-244,-165,91,279,356,87,156,217,161,272,209,45,82,248
194797,-105,211,235,-317,62,183,52,287,-13,-105,224,274,268,-136,202,292,11,-6,-229,-205,104,279,357,117,165,217,181,149,202,39,66,241
194798,-81,115,202,-334,70,283,-14,374,-6,-102,202,197,280,-128,193,314,-48,-43,-207,-209,104,329,178,120,172,236,190,116,181,78,122,291
194799,-24,214,161,-350,84,376,40,423,-7,-124,154,191,289,-125,163,321,-68,-66,-192,-193,21,348,128,119,177,220,178,45,190,124,169,349
194800,-100,297,149,-200,48,326,-3,405,-5,-156,79,187,300,-128,140,236,-58,-58,-197,-198,-5,281,188,137,181,192,169,85,219,142,169,371
194801,-44,126,168,-134,31,263,-52,412,0,-155,127,209,318,-134,119,79,-41,18,-172,-245,-28,233,309,176,166,146,133,-65,184,53,66,199
194802,55,170,318,-77,68,39,-33,443,44,-160,142,260,368,-104,105,-6,5,64,-145,-284,-39,320,327,205,194,122,140,-3,199,2,32,196
194803,32,377,375,-146,60,177,-26,420,60,-150,164,337,345,-101,115,41,34,16,-146,-320,-69,363,185,192,210,124,173,248,263,107,129,323
194804,73,405,387,-233,72,369,48,436,31,-134,174,220,354,-106,98,95,-28,4,-138,-317,-86,324,148,228,196,108,174,129,299,157,127,321
194805,131,375,397,-194,58,300,94,428,26,-166,150,220,330,-113,87,258,38,-10,-144,-298,-78,291,193,218,203,117,193,350,320,183,135,360
194806,158,311,357,-212,46,278,99,366,21,-185,161,287,319,-104,78,245,65,12,-154,-309,-74,291,182,209,212,107,191,475,346,187,174,381
194807,192,233,344,-269,45,315,124,356,26,-144,165,272,335,-94,78,247,74,51,-116,-266,-59,314,204,258,238,102,182,374,376,229,225,453
194808,207,127,376,-316,26,314,173,343,22,-150,84,296,344,-104,67,159,78,76,-101,-278,-77,310,209,263,253,101,161,342,375,255,254,482
194809,109,145,317,-288,44,273,193,321,29,-127,136,304,348,-115,61,-73,64,72,-114,-298,-95,326,215,258,245,82,136,246,349,259,251,471
194810,35,210,157,-197,45,170,143,342,26,-133,204,339,342,-118,70,-115,67,86,-128,-304,-138,346,285,245,215,-1,61,184,295,149,89,201
194811,2,139,54,-244,36,266,75,362,28,-143,191,357,367,-122,56,-83,49,111,-118,-285,-183,403,344,271,208,3,97,195,294,127,67,275
194812,3,224,110,-272,41,327,50,385,32,-136,145,266,368,-111,67,79,39,68,-112,-257,-123,326,231,267,244,63,230,212,342,216,180,442
194813,-112,315,160,-279,57,339,8,334,9,-123,191,205,349,-115,100,306,-30,-6,-106,-229,-59,234,115,243,249,70,262,218,353,227,177,403
194814,-30,352,238,-296,53,418,28,256,3,-106,186,258,334,-109,109,390,9,-8,-131,-260,-87,233,150,240,240,34,149,310,329,113,-3,88
194815,129,401,280,-323,46,399,74,232,-15,-97,165,259,336,-97,151,492,18,-3,-101,-244,-40,308,217,256,270,80,163,251,356,172,102,273
194816,185,347,316,-343,58,341,132,287,-1,-82,206,238,358,-56,190,450,1,20,-73,-200,12,347,250,296,300,158,211,160,409,273,255,467
194817,112,207,341,-352,41,276,119,277,1,-102,213,153,335,-64,206,409,21,2,-98,-198,51,317,160,243,322,199,263,331,372,297,329,683
194818,42,207,336,-379,41,301,112,263,-2,-113,241,58,322,-57,251,411,-11,12,-96,-184,86,341,146,231,320,202,314,266,319,233,289,844
194819,63,314,273,-373,30,234,108,261,-7,-89,259,33,312,-55,237,382,-61,30,-89,-168,118,373,139,223,314,203,327,213,290,213,226,872
194820,50,331,230,-323,18,188,153,286,1,-112,229,112,317,-71,196,207,-33,61,-98,-199,67,276,226,204,276,146,191,173,249,100,55,338
194821,53,218,226,-255,28,250,178,334,11,-128,208,165,301,-65,186,92,-39,-91,-123,-227,17,251,205,155,242,77,25,190,202,-17,-192,-616
194822,59,158,179,-330,40,291,189,319,6,-105,186,136,320,-57,187,101,-103,-123,-88,-183,-13,353,68,157,263,130,84,343,274,71,-40,-212
194823,-47,120,177,-391,22,385,226,297,-9,-105,206,138,324,-39,212,241,-63,-117,-54,-140,40,379,94,205,294,191,187,478,351,169,71,220
194824,-44,352,212,-347,19,182,182,311,-3,-143,223,189,332,-33,221,377,-48,-54,-34,-141,132,306,322,258,322,229,241,336,343,157,108,210
194825,99,410,196,-386,24,159,210,322,20,-118,262,235,358,-19,241,457,-38,-4,-45,-124,181,301,434,239,329,269,269,87,284,143,145,256
194826,159,285,224,-401,9,327,263,316,7,-105,281,204,306,-42,262,495,-92,-78,-71,-102,193,395,241,165,286,266,273,8,237,117,146,307
194827,100,259,203,-440,0,392,310,257,-13,-102,335,93,264,-55,277,374,-167,-164,-97,-75,207,437,-32,139,306,292,296,108,258,160,190,367
194828,21,302,151,-406,-6,308,299,213,-23,-93,326,54,266,-41,281,369,-141,-179,-75,-41,232,440,-81,180,330,321,335,244,352,268,263,407
194829,-24,346,134,-418,-19,225,265,207,-36,-93,309,94,282,-32,269,469,-108,-143,-45,-40,280,464,58,267,343,359,379,169,433,340,348,457
194830,-148,238,97,-379,-29,283,200,215,-25,-118,321,141,293,-32,292,491,-79,-78,-35,-28,300,479,172,297,357,377,431,155,468,385,424,543
194831,-187,250,99,-272,-2,284,122,236,-8,-106,293,200,317,-32,280,454,-38,2,-40,-34,267,492,344,301,354,353,392,59,447,319,373,514
194832,-195,287,111,-260,6,253,97,216,-20,-97,338,157,289,-66,268,350,-33,-42,-104,-105,221,480,236,197,280,275,313,240,291,95,105,271
194833,-123,249,124,-228,25,294,45,278,-21,-105,350,66,260,-103,251,328,-85,-89,-141,-142,203,425,68,139,189,202,245,162,132,-116,-148,49
194834,-8,170,71,-273,29,377,112,276,-8,-108,182,115,264,-86,231,466,-39,-90,-131,-123,172,490,57,163,236,239,305,229,254,76,55,245
194835,115,107,80,-328,24,308,188,238,-12,-124,117,252,278,-83,226,481,56,-23,-106,-117,176,537,168,204,275,265,342,367,334,160,148,368
194836,92,120,93,-321,26,265,228,269,0,-105,199,216,278,-88,223,422,-16,-32,-109,-132,166,464,253,184,238,256,347,282,293,127,150,380
194837,82,234,185,-318,14,273,217,311,15,-101,236,230,308,-79,209,289,-27,-40,-99,-152,154,438,278,197,206,229,338,217,324,126,143,393
194838,84,300,185,-285,23,234,212,334,15,-102,192,282,338,-79,187,282,22,24,-74,-147,116,435,419,271,241,220,359,124,372,175,175,461
194839,104,325,161,-263,27,214,146,340,-15,-125,178,300,328,-92,176,315,50,33,-105,-164,78,366,354,237,235,195,332,324,348,181,182,509
194840,72,249,229,-291,32,192,139,382,21,-135,188,283,319,-76,188,316,72,22,-95,-154,64,368,242,238,246,212,359,383,368,203,231,646
194841,18,75,346,-285,38,82,163,417,11,-126,193,304,356,-77,169,232,97,40,-62,-150,74,366,266,272,266,202,338,271,357,188,215,566
194842,-26,148,441,-292,52,194,133,441,31,-137,187,391,383,-79,159,152,141,120,-50,-174,59,336,482,307,261,156,263,235,319,146,151,258
194843,-70,284,502,-236,53,312,96,487,37,-134,189,399,394,-98,121,61,151,119,-50,-208,3,354,415,297,239,125,247,226,301,117,107,133
194844,55,334,488,-175,54,260,71,526,63,-129,182,391,413,-93,93,30,163,111,-49,-196,-80,396,249,299,254,120,271,294,334,146,158,242
194845,181,221,411,-158,46,307,33,480,58,-150,130,461,436,-91,57,88,167,146,-43,-216,-118,290,309,322,261,99,219,267,340,155,140,218
194846,185,195,421,-195,54,244,35,496,48,-152,116,327,440,-82,26,180,149,158,-29,-214,-128,164,360,323,260,74,131,233,340,167,150,187
194847,86,231,454,-162,61,147,3,514,67,-168,123,337,435,-95,29,272,129,167,-33,-197,-129,193,376,324,260,85,152,273,360,225,213,310
194848,80,282,494,-183,49,134,-5,537,63,-184,87,445,463,-66,50,242,152,183,-18,-193,-112,200,454,350,284,111,180,241,390,270,251,392
194849,143,222,499,-191,21,199,-35,509,58,-178,74,435,454,-74,49,182,109,139,-31,-205,-129,202,379,344,283,95,154,243,397,250,235,414
194850,145,141,482,-199,4,191,-98,490,68,-174,38,341,438,-78,6,53,59,117,-14,-213,-200,203,325,345,294,77,105,285,431,259,245,482
194851,-2,76,404,-240,11,123,-254,439,50,-166,22,229,460,-53,9,-133,38,166,12,-209,-200,171,346,377,326,93,88,251,452,292,237,504
194852,-161,23,285,-223,-6,65,-328,424,69,-185,-18,321,481,-49,-1,-153,119,236,9,-256,-249,160,468,382,298,40,16,281,392,154,44,147
194853,-144,-14,189,-225,-5,104,-290,462,68,-149,-21,458,471,-57,12,-16,158,221,-2,-310,-212,125,477,348,285,42,38,324,380,147,19,-41
194854,37,-10,233,-393,12,219,-166,442,30,-123,35,415,398,-61,54,103,100,31,-43,-275,-161,167,275,305,273,56,102,281,353,182,98,157
194855,185,-59,293,-326,24,328,-55,433,39,-138,53,260,378,-99,50,65,30,39,-62,-259,-193,93,184,283,236,29,-10,220,334,115,41,70
194856,168,-25,294,-227,29,292,-47,367,31,-164,42,272,370,-105,48,104,-34,48,-59,-263,-203,83,215,275,223,30,-43,100,355,122,31,118
194857,188,182,313,-258,39,253,28,370,10,-158,41,277,380,-94,73,99,-62,10,-75,-261,-183,122,208,241,237,38,-40,188,320,108,28,167
194858,275,300,376,-249,39,227,89,361,30,-138,33,226,370,-76,102,75,-69,-46,-74,-230,-130,156,126,215,245,69,0,275,299,113,28,143
194859,312,401,340,-195,13,83,110,328,31,-151,49,195,322,-87,124,49,-143,-76,-99,-223,-100,131,91,205,225,56,25,144,290,84,16,72
194860,275,460,378,-256,11,60,85,293,1,-149,54,174,300,-80,131,48,-182,-101,-119,-214,-86,56,70,163,210,65,26,107,232,56,11,-42
194861,122,360,311,-300,31,209,85,266,-15,-113,89,98,295,-60,156,43,-208,-153,-120,-179,-65,68,39,158,231,122,63,143,226,77,54,84
194862,-37,323,199,-333,-2,130,84,232,-23,-138,80,55,286,-79,156,89,-246,-136,-114,-182,-65,98,61,175,229,72,17,30,240,90,53,336
194863,63,414,181,-300,6,176,90,235,-25,-135,88,31,269,-108,161,75,-244,-180,-125,-185,-51,108,-15,121,199,68,57,147,209,87,50,323
194864,240,461,235,-240,42,335,98,270,-12,-120,134,37,267,-97,155,71,-212,-169,-135,-199,-74,142,16,120,170,53,22,170,207,28,-52,-20
194865,246,423,226,-249,46,327,118,261,7,-111,205,3,266,-83,181,160,-225,-135,-124,-180,-36,177,34,146,197,67,36,104,239,83,-4,75
194866,185,291,147,-226,37,319,123,223,-15,-97,173,-67,234,-103,191,212,-254,-174,-139,-181,-1,187,0,134,189,98,88,87,238,104,64,212
194867,215,359,197,-205,47,338,139,250,-5,-102,188,-13,266,-80,229,200,-260,-171,-132,-170,67,235,17,146,210,139,165,103,256,93,67,215
194868,351,446,282,-216,61,428,228,272,6,-56,268,78,274,-66,263,255,-207,-156,-108,-95,109,259,50,144,227,165,188,64,268,100,49,235
194869,393,506,317,-217,58,396,288,284,-41,-67,283,104,269,-81,270,335,-143,-151,-121,-80,106,282,82,148,214,149,174,91,273,83,7,195
194870,324,490,353,-171,72,393,311,291,-32,-86,281,140,262,-95,244,363,-120,-133,-113,-87,67,364,133,169,228,145,148,185,303,131,51,244
194871,291,518,341,-153,81,416,367,288,-48,-102,321,130,271,-126,256,430,-118,-140,-118,-112,83,365,163,168,224,164,185,245,318,155,96,282
194872,354,596,322,-182,88,374,380,330,-44,-81,317,186,288,-122,266,449,-71,-66,-105,-114,109,362,379,220,240,206,218,239,368,183,132,297
194873,327,539,283,-199,119,420,382,381,-32,-82,317,303,304,-104,267,445,-36,27,-93,-113,125,324,497,276,227,206,237,29,369,169,128,273
194874,160,415,151,-136,121,413,329,438,-36,-100,319,230,283,-131,282,384,-86,-44,-143,-143,133,334,331,189,182,195,216,0,280,133,103,308
194875,180,380,93,-100,125,386,304,390,-29,-87,312,183,285,-116,261,260,-68,-58,-143,-140,113,403,301,180,185,206,267,126,321,170,117,347
194876,272,404,143,-120,84,363,310,382,-30,-103,289,156,281,-132,244,185,-45,-93,-139,-140,112,407,262,191,199,191,325,198,334,160,123,307
194877,341,570,215,-222,64,322,295,333,-41,-82,259,73,260,-120,255,322,-43,-82,-132,-135,123,383,149,194,210,207,368,240,335,144,141,339
194878,419,560,292,-266,94,330,361,310,-24,-83,291,48,288,-84,275,408,4,2,-89,-96,158,386,232,268,252,229,362,285,402,192,188,415
194879,367,466,307,-274,64,370,334,326,-47,-101,312,144,286,-115,247,411,11,40,-101,-128,125,362,341,278,221,199,248,210,383,169,181,369
194880,335,443,303,-292,72,417,319,319,-35,-103,320,295,264,-96,242,433,32,-36,-100,-131,101,387,352,279,225,180,252,161,396,170,174,389
194881,395,522,265,-419,75,312,301,291,-54,-109,297,244,239,-103,261,264,38,-148,-118,-154,101,395,232,233,221,164,286,281,365,184,177,393
194882,359,531,208,-336,70,302,236,249,-52,-133,287,110,233,-117,228,164,-16,-126,-135,-152,100,378,103,195,202,165,282,341,379,163,178,379
194883,273,444,195,-181,59,208,108,311,-22,-131,270,94,262,-107,209,185,-40,-123,-143,-158,49,338,77,206,201,124,253,236,347,122,135,346
194884,243,330,162,-209,84,281,120,341,0,-110,266,74,288,-75,218,284,-49,-66,-127,-159,66,250,151,240,214,155,238,159,352,159,161,456
194885,203,230,149,-290,65,313,128,311,7,-128,204,42,297,-86,219,273,-76,-73,-122,-154,47,195,163,222,211,170,262,201,364,244,313,781
194886,2,264,125,-222,33,360,139,270,8,-120,170,30,283,-84,213,281,-118,-71,-112,-143,63,197,139,221,239,202,326,250,393,345,470,1110
194887,-23,279,80,-232,22,329,100,200,24,-111,183,61,257,-94,203,121,-148,-58,-120,-141,34,186,137,221,225,148,242,261,371,251,323,846
194888,36,290,21,-162,19,324,64,232,44,-99,224,100,284,-98,171,-105,-147,-57,-131,-180,-64,127,174,220,174,3,-7,44,234,-48,-100,-132
194889,-35,335,-50,-231,3,295,23,210,22,-121,190,105,274,-85,134,-75,-180,-99,-151,-239,-160,124,131,168,135,-62,-132,89,151,-168,-308,-535
194890,-36,404,51,-293,23,216,99,218,-2,-122,63,173,256,-101,151,101,-181,-161,-159,-221,-161,174,42,101,170,-9,-92,209,150,-85,-151,-188
194891,53,366,123,-271,14,235,162,269,13,-114,142,220,286,-65,189,114,-135,-136,-120,-175,-116,82,79,147,190,6,-75,86,162,-80,-131,-173
194892,169,279,133,-261,2,218,167,244,13,-112,183,167,269,-86,191,90,-175,-125,-142,-169,-98,18,52,135,179,14,-66,60,123,-109,-136,-198
194893,176,90,118,-261,-9,265,93,260,14,-112,144,84,296,-73,200,58,-174,-130,-136,-180,-49,11,72,163,227,45,-37,99,199,7,-33,-30
194894,127,208,99,-291,-14,234,51,301,21,-143,142,139,338,-74,184,78,-173,-50,-63,-170,-90,11,231,231,257,55,-24,82,259,91,39,82
194895,102,310,124,-251,8,218,-4,341,31,-145,75,186,364,-64,149,79,-165,36,-48,-171,-131,-3,438,282,258,66,1,-100,223,65,30,103
194896,156,229,95,-241,1,132,-55,375,21,-172,6,173,354,-80,114,-3,-184,30,-100,-204,-130,-73,422,214,215,28,9,-177,114,-67,-70,-105
194897,174,183,123,-159,7,98,3,355,29,-178,6,276,353,-73,90,-5,-177,0,-114,-231,-171,-88,290,173,191,-15,-119,-64,117,-75,-107,-207
194898,171,202,120,-239,-1,172,-20,301,32,-164,70,284,325,-69,106,18,-221,-84,-130,-241,-156,-25,53,157,199,-45,-137,-47,111,-35,-98,-116
194899,134,91,184,-260,4,304,-114,353,23,-159,49,47,318,-74,107,59,-259,-146,-127,-201,-151,-48,-92,138,177,-32,-117,-204,99,-11,-41,-83
194900,179,137,258,-227,12,337,-153,374,42,-142,49,-2,336,-68,110,-16,-178,-99,-125,-192,-175,-97,-74,129,190,2,-83,-62,135,24,42,71
