,Fp1,Fp2,F7,F3,Fz,F4,F8,FC5,FC1,FC2,FC6,T7,C3,Cz,C4,T8,TP9,CP5,CP1,CP2,CP6,TP10,P7,P3,Pz,P4,P8,PO9,O1,Oz,O2,PO10
130068,1667,853,3043,-29,-48,320,4902,302,400,-5,-144,-85,180,-47,74,-67,-26,54,-66,-199,-217,123,-40,26,98,56,35,95,157,67,-80,-25
130069,1714,832,3042,-55,-46,310,4946,294,393,-21,-169,-119,184,-76,58,64,-56,72,-61,-210,-192,88,-1,56,102,58,32,29,155,76,-81,-117
130070,1578,864,3063,-42,-56,310,4966,271,386,-19,-137,-88,196,-61,109,52,-29,105,-49,-191,-155,77,50,100,121,83,21,-99,168,58,-65,-261
130071,1575,944,3001,-15,-21,333,5014,301,420,8,-82,-34,211,-37,111,47,-16,99,-39,-173,-173,127,8,95,141,98,-8,56,206,101,-14,-123
130072,1602,948,2966,-22,-30,340,5016,283,411,-1,-110,0,188,-48,84,18,16,51,-57,-183,-203,141,-30,66,134,87,-27,311,221,152,-2,31
130073,1619,949,2994,-13,-64,292,4961,284,409,-2,-117,2,187,-47,92,29,33,97,-41,-187,-188,107,87,105,152,75,-67,202,262,158,-10,111
130074,1660,920,3010,1,-63,297,4920,320,431,7,-106,35,225,-7,98,-34,29,132,-23,-176,-178,164,109,128,158,91,-35,161,264,166,27,104
130075,1631,932,3002,-19,-60,265,4842,323,418,-16,-148,38,228,-8,83,-179,-3,140,-11,-161,-207,207,106,141,144,95,17,24,246,132,-27,37
130076,1601,928,2960,-4,-56,229,4832,300,419,-6,-162,-48,214,-3,68,-231,-47,92,-40,-178,-219,199,121,130,149,73,26,10,212,115,-38,22
130077,1722,820,2959,-54,-57,311,4878,264,427,25,-126,-89,171,2,90,-123,-76,28,-50,-173,-186,182,-44,95,126,93,0,145,174,132,-14,55
130078,1677,781,2970,-75,-60,394,4868,238,392,7,-176,-129,173,-10,64,-72,-90,-1,-49,-182,-173,169,-119,77,105,78,9,125,179,103,-50,24
130079,1588,777,2955,-68,-53,355,4857,213,386,-14,-163,-163,152,-13,65,-56,-96,7,-73,-177,-163,183,-78,66,105,63,22,72,148,67,-77,1
130080,1512,868,2956,-56,-62,331,4891,253,393,-19,-102,-136,152,-9,79,71,-93,59,-56,-170,-159,181,77,60,100,74,68,0,130,39,-81,-16
130081,1522,913,2981,-71,-58,327,4922,246,396,0,-101,-190,160,-10,65,107,-114,20,-76,-174,-168,212,-47,23,77,73,58,32,121,56,-106,-16
130082,1565,805,2952,-101,-57,315,4905,182,381,-4,-111,-234,135,-4,67,40,-137,9,-76,-206,-205,210,-145,34,59,50,-34,17,128,32,-116,-12
130083,1566,832,2930,-108,-71,304,4841,152,380,-20,-132,-217,133,-31,60,40,-199,32,-92,-219,-238,170,-146,47,40,27,-112,-64,109,2,-157,-64
130084,1566,990,2940,-75,-61,300,4872,227,395,-3,-126,-108,157,-4,75,44,-150,58,-54,-172,-187,195,-67,83,60,73,-41,-87,141,35,-131,-8
130085,1628,1120,2925,-53,-39,111,4925,233,398,-7,-154,-76,159,5,115,-281,-100,21,-46,-121,-76,274,-102,79,108,126,51,47,169,71,-71,62
130086,1678,1118,2889,-58,-70,131,4922,231,394,6,-150,-124,139,-12,122,-115,-131,-15,-71,-140,-1,325,-175,40,92,138,83,159,127,65,-65,81
130087,1650,1034,2844,-54,-60,317,4951,268,417,32,-101,-135,169,5,125,290,-130,25,-24,-129,-27,344,-126,68,112,154,89,79,169,75,-51,78
130088,1564,977,2826,-41,-70,310,4928,223,396,2,-130,-118,177,-23,74,57,-105,61,-39,-164,-138,279,-47,98,94,118,13,76,178,90,-81,52
130089,1388,941,2893,-30,-69,310,4897,206,376,5,-136,-117,178,-42,66,-22,-92,108,-35,-182,-140,333,68,108,60,94,2,-4,141,60,-93,31
130090,1236,862,2955,-41,-58,341,4912,252,408,7,-114,-92,190,-33,71,74,-139,146,-36,-189,-122,312,146,126,70,107,33,-155,145,24,-118,-37
130091,1366,802,2988,-46,-45,358,4900,260,398,-11,-113,-96,173,-48,54,55,-177,79,-64,-199,-161,298,16,82,46,86,54,-109,114,11,-137,-23
130092,1528,831,2997,-22,-56,289,4900,216,394,-14,-145,-138,140,-72,46,42,-224,-12,-99,-221,-161,287,-178,34,17,76,78,-42,85,18,-146,46
130093,1587,859,2954,-26,-68,316,4943,173,388,-10,-171,-204,131,-77,23,-17,-259,-49,-94,-227,-146,264,-237,42,9,73,66,-113,89,-6,-125,33
130094,1534,868,2946,-26,-64,288,4952,136,389,17,-148,-219,110,-84,23,7,-216,-65,-106,-208,-139,326,-270,12,17,83,78,69,117,51,-108,60
130095,1471,893,2923,-23,-77,204,4920,155,395,2,-148,-125,118,-63,31,100,-239,-51,-125,-218,-147,353,-251,13,21,77,62,-19,128,59,-102,61
130096,1531,891,2938,-22,-63,205,4893,171,394,21,-148,-138,112,-52,54,83,-205,-68,-112,-206,-131,288,-167,20,20,74,49,-103,103,33,-109,29
130097,1645,941,2959,-39,-35,324,4852,171,405,26,-199,-191,86,-58,79,88,-213,-103,-118,-198,-82,324,-254,-24,11,89,112,63,93,41,-98,34
130098,1671,937,2949,-8,-9,452,4875,205,407,49,-109,-173,103,-57,105,144,-237,-47,-132,-184,-26,214,-124,-15,4,101,142,-54,76,12,-143,-8
130099,1573,871,2855,-16,-43,489,4838,179,367,18,-78,-123,86,-88,87,99,-270,-25,-163,-228,-65,173,18,-7,-61,51,82,-326,-7,-77,-212,-187
130100,1534,782,2866,-31,-35,433,4861,212,391,22,-118,-111,80,-81,26,-185,-263,-85,-152,-245,-177,196,-170,-64,-40,47,22,-144,-2,-57,-182,-244
130101,1575,785,2893,-42,-17,392,4813,184,369,4,-178,-81,45,-70,19,-186,-246,-166,-161,-244,-200,213,-397,-101,-36,26,16,5,10,-47,-202,-86
130102,1594,892,2923,17,-24,376,4741,217,382,13,-197,-115,115,-58,18,-87,-212,-102,-117,-238,-181,197,-275,-20,-31,2,26,-244,23,-44,-256,-34
130103,1647,1036,2917,54,-24,345,4824,290,398,7,-131,-125,132,-65,41,63,-143,-72,-116,-239,-153,178,-190,-61,-46,1,-5,-58,16,-36,-225,-76
130104,1703,1070,2978,4,-31,302,4912,346,395,5,-91,-109,143,-74,75,220,-107,-29,-134,-221,-123,238,-177,-94,-44,25,-13,67,9,-13,-170,-14
130105,1622,1004,2926,-18,-38,340,4973,360,385,3,-101,-112,130,-81,63,103,-137,-26,-152,-237,-131,193,-172,-81,-58,10,-7,-78,18,-22,-197,-50
130106,1632,1055,2937,33,-40,341,5030,382,395,-6,-114,-84,146,-63,47,88,-85,-39,-141,-227,-118,145,-238,-100,-48,21,25,-14,19,-27,-179,-109
130107,1715,1126,2998,10,-15,329,5058,319,405,28,-103,-114,148,-39,90,62,-57,-17,-114,-194,-104,275,-225,-49,0,68,-13,41,83,29,-104,130
130108,1660,1076,3025,-30,-32,347,5030,300,422,44,-109,-121,161,-37,136,-225,-109,6,-92,-144,3,337,-185,-14,47,109,73,84,146,99,-45,280
130109,1609,943,3096,-76,-47,355,5034,298,410,40,-118,-6,159,-33,127,57,-24,49,-74,-145,38,259,-70,-16,34,119,78,156,147,103,-77,147
130110,1582,792,3093,-107,-5,314,5038,318,397,36,-94,35,182,-43,83,314,66,51,-73,-203,-113,169,-30,0,5,53,-92,160,138,10,-185,-224
130111,1529,789,3024,-37,-16,364,5008,279,405,29,-95,9,202,-64,77,89,40,77,-73,-212,-181,177,24,24,2,35,-130,64,144,17,-188,-241
130112,1646,885,3029,10,-27,443,4992,251,413,38,-117,16,209,-63,109,-95,97,136,-69,-181,-91,156,107,76,61,79,-81,-112,167,86,-77,-81
130113,1719,1001,3081,38,-45,399,4952,283,414,7,-131,44,178,-67,77,-167,106,97,-83,-179,-153,98,-12,76,68,69,-108,-39,231,189,20,30
130114,1735,1042,3123,-10,-59,453,4962,337,413,25,-122,50,173,-68,89,67,120,45,-87,-176,-147,76,-63,46,81,118,-52,161,282,317,153,172
130115,1749,1072,3150,-21,-49,250,5014,381,421,0,-125,119,219,-47,106,226,165,148,-51,-166,-142,48,268,87,119,109,-25,38,258,243,104,191
130116,1651,1003,3091,-15,-60,283,4986,296,428,-12,-140,71,197,-49,124,91,83,134,-36,-164,-145,87,112,85,100,77,5,-56,184,129,21,334
130117,1527,1011,3025,-17,-54,331,4958,208,425,14,-86,2,182,-37,139,-115,66,54,-35,-143,-127,182,-145,75,112,111,60,62,200,157,49,491
130118,1496,899,3005,-64,-63,308,4911,238,425,7,-110,-16,191,-32,114,-76,118,59,-53,-178,-182,113,-110,56,96,18,-56,202,206,52,-158,25
130119,1514,822,3018,-43,-70,270,4821,230,416,-5,-158,21,222,-42,73,-10,131,89,-45,-179,-281,46,9,85,86,-71,-238,234,212,-37,-409,-615
130120,1516,852,2980,-62,-70,174,4776,242,442,-4,-188,39,227,-15,84,47,140,80,-24,-164,-269,73,29,109,120,-17,-175,418,253,104,-187,-281
130121,1437,779,2969,-107,-84,151,4775,250,436,-8,-168,30,226,17,123,156,149,121,-8,-140,-227,135,81,139,167,62,-119,272,263,144,-96,-136
130122,1446,708,2966,-43,-98,135,4838,211,413,-4,-174,-37,219,16,138,328,103,120,-5,-126,-141,136,72,157,201,102,-18,239,334,234,40,4
130123,1602,908,2998,-41,-86,243,4938,244,409,-4,-122,-22,204,3,144,287,57,111,1,-119,-106,101,35,166,199,138,58,268,392,321,149,311
130124,1740,1066,2992,-25,-51,297,4997,271,426,21,-85,8,213,24,117,17,35,100,28,-100,-172,190,21,162,235,165,93,254,406,317,134,486
130125,1785,1098,2975,-47,-35,320,5012,260,424,14,-104,-7,203,18,114,69,9,74,-19,-113,-204,177,29,143,183,117,-2,220,310,155,-34,148
130126,1727,1046,3011,-41,-46,297,4977,260,414,-7,-132,-3,195,10,81,59,12,80,-14,-151,-238,73,53,125,156,60,-148,170,218,18,-289,-516
130127,1631,947,2994,-59,-75,242,4897,220,398,-42,-202,-53,179,0,26,-6,-4,70,-37,-173,-285,95,75,118,137,3,-172,2,166,7,-298,-648
130128,1688,946,2991,-51,-60,254,4864,220,412,-21,-217,-71,190,-8,35,10,-29,46,-42,-184,-275,168,-18,123,146,28,-99,82,201,52,-205,-389
130129,1670,956,2995,-88,-77,247,4819,198,391,-44,-249,-112,176,-35,7,-28,-86,53,-50,-201,-285,163,-59,93,128,21,-102,86,218,88,-157,-282
130130,1625,914,2958,-53,-89,240,4808,203,411,-36,-261,-106,216,-10,9,-79,-82,80,-16,-172,-236,174,8,127,151,62,-38,150,270,133,-94,-164
130131,1571,920,2880,24,-76,196,4814,235,420,-34,-247,-73,214,-15,9,-113,-81,104,-12,-200,-216,243,44,118,136,61,60,49,167,20,-117,-247
130132,1606,956,2796,57,-40,263,4838,247,423,-36,-255,-68,210,-28,-6,-286,-119,93,-37,-212,-240,183,82,114,119,48,36,-116,122,-3,-111,-259
130133,1599,943,2795,5,-41,285,4856,246,437,-14,-252,-73,223,-22,12,-655,-132,111,-36,-186,-208,17,92,139,105,34,-76,-160,167,76,-114,-127
130134,1583,791,2869,-35,-32,357,4847,208,422,31,-216,-132,171,-22,34,-176,-147,77,-54,-205,-143,63,-6,88,66,46,-33,-125,126,46,-134,-88
130135,1352,566,2878,-28,-38,373,4840,189,386,6,-189,-150,122,-58,-8,270,-202,24,-90,-225,-258,47,-72,36,30,2,-52,-212,113,-35,-218,-286
130136,1291,649,2893,-30,-32,369,4858,235,374,-18,-213,-176,112,-73,-38,165,-262,-60,-146,-273,-346,119,-221,-50,-20,-38,-82,-171,19,-98,-279,-311
130137,1434,868,2906,-40,-47,377,4859,193,375,7,-198,-175,122,-50,14,29,-280,-49,-125,-256,-290,220,-112,-53,-12,-21,-39,-143,-12,-119,-278,-235
130138,1587,998,2922,-96,-52,267,4887,171,383,22,-159,-198,132,-34,28,-105,-289,-27,-129,-226,-245,185,-67,-23,1,-3,-44,-316,27,-101,-251,-209
130139,1673,977,2918,-133,-47,258,4877,190,361,-7,-217,-193,97,-49,-10,-218,-338,-82,-145,-245,-275,173,-295,-75,-14,-24,-99,-271,-10,-104,-261,-220
130140,1659,918,2971,-65,-41,343,4944,187,384,22,-156,-245,74,-54,23,-216,-344,-99,-160,-254,-229,203,-315,-101,-30,-11,-81,-219,-11,-111,-253,-165
130141,1528,977,2967,-15,-53,293,4958,203,395,-7,-119,-220,114,-70,60,-164,-260,-19,-166,-241,-183,119,-14,-75,-47,-9,-44,-226,-21,-119,-236,-158
130142,1436,1070,2972,-9,-46,295,4927,213,388,-28,-147,-246,126,-85,44,-13,-286,-19,-174,-268,-203,105,-18,-101,-76,-25,-44,-225,-55,-125,-263,-194
130143,1493,1101,2979,-60,-44,347,4944,193,387,-13,-127,-284,87,-81,64,207,-327,-93,-195,-255,-186,186,-355,-153,-92,-15,-26,-173,-79,-147,-278,-188
130144,1611,1088,2955,-75,-45,347,4982,164,396,6,-119,-277,86,-72,64,237,-342,-158,-181,-231,-157,218,-486,-157,-76,-5,-15,-186,-66,-141,-265,-184
130145,1671,1074,2992,-36,-56,327,4939,134,388,-7,-116,-188,73,-86,42,172,-356,-157,-191,-283,-206,212,-309,-161,-120,-29,-78,-269,-101,-175,-306,-225
130146,1675,1074,3017,-36,-50,243,4911,89,382,-25,-149,-114,64,-75,58,236,-351,-146,-198,-268,-164,228,-370,-137,-111,-27,-61,-283,-83,-149,-283,-165
130147,1686,1012,2974,-51,-61,316,4919,140,387,1,-107,-190,71,-64,85,164,-302,-186,-184,-249,-95,217,-479,-154,-96,3,-28,-138,-57,-124,-255,-96
130148,1699,1032,2915,-63,-66,279,4930,175,389,-9,-103,-233,85,-61,37,-175,-273,-207,-193,-252,-201,272,-470,-162,-101,-14,-37,-66,-35,-89,-240,-57
130149,1625,1014,2816,-115,-73,270,4886,103,365,-28,-142,-285,76,-88,26,-99,-276,-194,-226,-258,-196,311,-403,-192,-130,-32,11,-120,-69,-114,-245,-85
130150,1549,965,2739,-75,-65,356,4818,64,379,10,-144,-348,56,-75,31,79,-276,-159,-222,-261,-140,303,-371,-203,-122,-1,81,-190,-93,-160,-277,-170
130151,1549,926,2807,-71,-50,309,4857,133,383,21,-169,-321,70,-77,36,65,-298,-156,-218,-275,-149,286,-404,-206,-130,-33,-9,-207,-115,-189,-329,-226
130152,1425,866,2862,-94,-51,175,4853,163,388,-11,-191,-213,64,-71,30,28,-281,-130,-210,-271,-184,232,-339,-183,-126,-27,-52,-192,-89,-146,-254,-231
130153,1384,804,2902,-120,-58,263,4869,174,390,13,-248,-147,98,-43,33,28,-263,-93,-189,-269,-203,174,-274,-144,-88,-8,-37,-260,-53,-133,-221,-269
130154,1498,744,2863,-79,-44,318,4838,160,394,17,-211,-155,86,-50,16,7,-220,-166,-188,-275,-221,80,-308,-164,-101,-36,-107,-188,-48,-106,-264,-73
130155,1516,731,2821,-55,-56,370,4744,127,386,9,-212,-244,62,-79,9,-31,-264,-207,-224,-287,-231,-50,-321,-216,-141,-69,-132,-144,-102,-155,-290,-42
130156,1492,789,2791,-81,-76,400,4686,132,375,1,-233,-314,47,-76,14,-297,-307,-192,-228,-303,-190,-158,-329,-213,-123,-77,-113,-198,-80,-138,-257,-48
130157,1531,763,2722,-39,-73,414,4673,184,406,16,-239,-284,95,-49,53,-723,-302,-130,-197,-283,-137,-157,-241,-131,-89,-56,-111,-249,-26,-121,-256,-130
130158,1469,828,2706,26,-84,368,4683,195,395,3,-254,-265,112,-63,49,-218,-289,-137,-179,-280,-121,-47,-180,-142,-88,-53,-46,-293,-62,-139,-308,-333
130159,1420,805,2746,-18,-80,284,4707,168,392,-13,-212,-261,98,-72,31,146,-304,-193,-182,-277,-252,-30,-346,-191,-89,-58,-36,-106,-47,-123,-273,-412
130160,1396,736,2824,-94,-69,343,4706,199,394,-2,-207,-225,107,-50,36,4,-241,-194,-161,-246,-292,14,-442,-178,-65,-33,-73,-87,-33,-65,-163,-236
130161,1518,856,2890,-97,-55,219,4765,187,405,-3,-216,-147,111,-41,55,-184,-177,-123,-138,-221,-212,135,-279,-124,-32,-3,-117,-188,-12,6,-81,2
130162,1594,846,2938,-65,-50,157,4788,194,428,-15,-231,-99,174,-35,60,-349,-156,-43,-104,-222,-222,158,-71,-75,6,13,-132,-230,-20,-7,-117,-33
130163,1586,889,3044,-17,-51,157,4804,299,449,-20,-284,-17,255,-57,17,-304,-27,140,-66,-240,-299,111,349,15,-18,-52,-226,-308,-19,-152,-342,-192
130164,1631,961,3096,-23,-26,295,4811,368,451,28,-189,-13,270,-31,75,-18,-28,168,-48,-208,-240,26,233,72,25,-7,-216,-286,77,-78,-243,-50
130165,1615,935,3068,-80,-62,269,4783,300,425,30,-94,-143,197,-27,131,83,-174,-17,-79,-162,-138,16,-246,-36,52,63,-58,98,118,76,-42,219
130166,1507,910,3092,-52,-59,317,4783,251,407,21,-92,-162,153,-8,134,68,-120,-115,-81,-169,-108,67,-390,-85,29,92,-12,263,131,83,-12,288
130167,1528,909,3095,-30,-38,348,4803,217,448,31,-151,-81,195,-1,105,-14,-15,-40,-46,-170,-183,77,-231,-1,44,49,-118,109,148,41,-129,58
130168,1636,969,2933,-26,-42,298,4878,218,425,3,-183,-28,200,-23,85,-152,-5,10,-57,-185,-231,117,-142,5,28,0,-215,9,74,-82,-325,-334
130169,1641,995,2833,-51,-55,240,4916,219,417,-1,-201,-80,195,-25,70,-98,30,13,-68,-197,-213,161,-171,-42,20,-17,-174,91,70,-73,-295,-462
130170,1529,847,2849,-104,-62,175,4892,208,399,-42,-223,-64,191,-40,47,-23,19,57,-88,-213,-185,123,-46,-29,0,-11,-162,54,47,-84,-286,-391
130171,1402,716,2893,-127,-71,339,4902,228,406,-19,-224,18,206,-23,33,-74,69,124,-81,-206,-234,120,204,16,11,-34,-180,23,80,-86,-297,-372
130172,1486,797,2917,-54,-36,393,4910,231,418,-2,-219,1,200,-25,19,-143,14,47,-95,-223,-262,148,24,-5,16,-46,-95,89,119,-14,-221,-226
130173,1598,888,2909,-61,-61,358,4856,247,391,-18,-246,-91,150,-49,-3,-3,-25,-48,-121,-259,-298,-115,-214,-49,-4,-75,-211,95,95,-46,-240,-232
130174,1639,1006,2952,-43,-76,343,4841,231,412,7,-192,-96,166,-23,38,196,-50,-27,-89,-218,-247,-54,-164,2,38,-61,-230,-141,135,-6,-174,-138
130175,1678,1042,3013,-57,-73,341,4845,171,414,21,-158,-64,147,-34,0,18,-60,-35,-110,-228,-309,58,-135,7,27,-35,-186,-66,141,36,-131,-103
130176,1703,1064,3071,-124,-89,299,4855,180,376,10,-129,-74,160,-23,13,4,-40,-20,-111,-218,-284,48,-142,-20,28,-18,-126,125,143,101,-46,56
130177,1695,1033,3010,-84,-90,206,4876,221,396,4,-103,-108,185,4,57,130,-57,22,-91,-192,-206,89,-70,20,65,40,-27,33,187,103,5,223
130178,1641,876,2945,-6,-59,258,4874,293,437,14,-137,-59,222,-8,66,81,-34,124,-47,-208,-234,146,169,67,49,28,-55,-12,144,-3,-185,16
130179,1532,795,2946,-6,-65,329,4839,314,413,2,-155,21,222,-11,32,-28,-22,159,-65,-218,-257,144,257,61,43,0,-109,38,187,27,-165,-140
130180,1410,902,2984,0,-87,228,4808,296,403,-12,-184,-59,221,-18,33,-149,-76,151,-77,-226,-229,139,175,61,45,25,-81,-124,196,104,-81,-128
130181,1371,968,2972,1,-71,352,4818,225,406,8,-169,-174,209,-23,63,-132,-209,54,-70,-192,-179,255,-118,12,53,95,73,-70,158,176,150,284
130182,1401,943,2973,-23,-86,433,4857,184,368,38,-161,-191,151,-28,85,-41,-209,-43,-108,-188,-145,280,-300,-33,11,112,207,-5,83,94,102,394
130183,1432,952,2879,-115,-74,384,4876,204,363,4,-132,-117,142,-28,103,-19,-154,-28,-151,-232,-124,191,-170,-54,-41,40,153,-49,38,-109,-267,-240
130184,1520,973,2933,-72,-70,390,4893,206,389,19,-144,-56,187,-30,102,-452,-149,41,-135,-220,-101,226,-18,-14,-25,0,-12,-117,41,-186,-388,-738
130185,1590,930,3077,-76,-63,346,4902,215,391,13,-159,-11,181,-27,97,-237,-135,85,-117,-213,-135,295,12,-6,-6,-22,-149,-124,39,-164,-351,-520
130186,1528,908,3046,-88,-65,328,4939,248,401,9,-115,-62,195,-23,85,237,-104,43,-107,-204,-191,355,-147,-20,-1,25,-101,141,117,-46,-206,-136
130187,1442,941,3063,-36,-41,306,4956,293,417,11,-83,-50,215,-9,111,130,-138,69,-82,-169,-191,402,-107,-5,26,53,-23,71,106,3,-142,-56
130188,1368,906,3069,-4,-51,302,4922,294,424,17,-83,-12,209,1,113,50,-149,84,-84,-158,-138,371,-18,-4,22,60,-21,-50,93,-10,-175,-110
130189,1420,868,3037,1,-28,283,4959,335,411,13,-60,-29,207,-1,122,-61,-158,24,-96,-166,-126,228,-105,-9,8,43,-70,-100,108,-22,-206,-238
130190,1592,895,3060,-2,-31,232,4966,386,429,4,-84,-98,171,1,160,162,-219,-52,-131,-166,-51,152,-270,-41,8,82,45,14,75,-12,-177,-178
130191,1758,976,3046,-37,-41,152,4933,395,429,-3,-106,-145,190,5,142,362,-172,47,-92,-161,-25,191,-48,-3,-5,103,117,-136,106,34,-152,-89
130192,1707,1000,2951,-13,-81,229,4900,308,414,-23,-170,-203,193,-5,101,152,-165,93,-94,-185,-38,129,-114,4,5,94,108,-33,133,50,-115,-44
130193,1690,1000,2961,-37,-91,303,4845,259,418,-31,-138,-236,151,-33,119,46,-225,-13,-123,-184,-38,163,-426,-72,-14,114,101,210,138,52,-61,-22
130194,1677,981,3040,-17,-56,344,4868,271,427,-9,-103,-94,203,-31,126,21,-212,7,-103,-194,-17,245,-319,-37,-9,80,76,143,154,67,-90,-34
130195,1595,891,3049,26,-48,325,4846,265,439,-8,-144,9,210,-38,72,-9,-155,2,-113,-242,-126,268,-175,-2,-36,52,34,-16,142,27,-134,-66
130196,1540,733,3073,-14,-70,320,4791,265,415,-23,-138,-86,185,-67,13,22,-148,-52,-150,-268,-208,219,-207,-47,-73,10,-17,-24,102,-3,-179,-106
130197,1574,764,3126,-14,-42,332,4822,283,422,-31,-161,-122,188,-75,25,34,-117,-42,-136,-266,-183,242,-237,-60,-73,2,17,58,102,-25,-169,-88
130198,1610,945,3090,-34,-42,241,4785,296,431,-33,-228,-162,198,-59,23,104,-118,-25,-113,-269,-161,215,-225,-38,-55,36,65,80,126,23,-155,-6
130199,1605,1016,3067,-65,-43,296,4759,260,429,-2,-193,-150,168,-65,25,173,-169,-20,-125,-285,-123,151,-218,-39,-65,23,90,23,113,15,-160,-75
130200,1553,975,3027,-63,-43,302,4746,179,436,5,-170,-105,184,-49,50,255,-163,-4,-127,-266,-104,137,-100,-58,-70,24,100,-46,93,0,-159,-126
130201,1483,965,2972,-52,-40,238,4780,188,439,-27,-197,-40,204,-63,15,21,-139,49,-111,-291,-178,55,78,-31,-93,-27,-54,-140,62,-75,-222,-143
130202,1380,928,2930,-56,-57,303,4825,228,443,-9,-174,-29,214,-50,15,-102,-84,55,-100,-291,-239,21,92,-26,-80,-34,-106,-119,56,-88,-212,-146
130203,1408,816,2881,-61,-51,249,4774,272,440,0,-175,-58,215,-45,47,48,-99,50,-116,-248,-140,46,25,-7,-55,25,-25,-172,24,-71,-180,-59
130204,1494,816,2911,-39,-71,205,4810,303,431,18,-180,-84,213,-34,63,3,-125,-1,-89,-253,-151,117,-115,-29,-43,23,-12,-83,35,-41,-157,-46
130205,1553,812,2957,-36,-70,310,4833,288,429,4,-161,-104,208,-57,51,5,-96,-38,-96,-261,-162,134,-159,-74,-53,1,-20,10,35,-44,-171,-53
130206,1488,813,3012,0,-73,315,4777,278,429,11,-172,-85,214,-46,43,-22,-90,24,-91,-239,-158,95,-91,-34,-50,0,-33,-92,38,-87,-241,-127
130207,1379,875,3015,22,-62,301,4787,267,426,6,-155,-144,193,-2,76,-15,-124,-21,-100,-212,-116,130,-203,-47,-35,35,95,-128,21,-119,-241,-158
130208,1192,807,2953,59,-38,329,4741,258,447,8,-150,-252,156,-15,107,-88,-146,-138,-122,-228,-100,157,-392,-138,-45,41,150,46,6,-79,-216,-119
130209,1195,697,2953,50,-52,358,4672,260,439,14,-172,-226,139,-8,93,-256,-174,-96,-119,-215,-122,114,-260,-122,-24,27,5,-31,4,-93,-203,-152
130210,1264,690,2946,24,-52,358,4723,264,443,0,-227,-137,191,-4,73,-544,-144,-6,-113,-205,-168,42,-48,-42,-3,16,-103,-248,23,-114,-268,-294
130211,1317,742,2984,64,-48,343,4845,271,458,15,-204,-152,187,0,104,-1015,-126,-4,-110,-175,-70,84,-64,-57,5,46,-49,-182,-31,-143,-280,-283
130212,1316,762,2950,37,-71,267,4853,294,445,5,-175,-162,166,-37,88,-393,-135,-38,-121,-205,-52,158,-159,-93,-9,37,-77,-118,-4,-73,-210,-56
130213,1397,805,2947,73,-40,242,4813,341,453,6,-140,-179,197,-29,41,117,-72,-40,-105,-210,-192,180,-301,-92,-9,25,-121,163,73,6,-143,24
130214,1513,852,2967,38,-55,201,4812,286,442,-4,-133,-114,182,-5,26,181,-22,-12,-111,-206,-256,113,-226,-74,-8,17,-123,167,52,-67,-236,-187
130215,1594,778,2940,-104,-79,291,4745,296,409,15,-130,-132,197,-17,53,264,-84,15,-111,-204,-188,75,-107,-46,-22,11,-25,88,3,-182,-357,-442
130216,1583,807,2955,-85,-73,353,4753,316,419,0,-174,-106,211,-19,57,219,-44,44,-109,-212,-199,119,-33,-38,-13,18,-23,61,26,-128,-273,-233
130217,1575,890,2976,-48,-49,368,4825,275,426,16,-168,-120,192,-27,51,81,-60,68,-118,-214,-217,121,75,-12,0,13,-73,-45,59,-46,-180,118
