,Fp1,Fp2,F7,F3,Fz,F4,F8,FC5,FC1,FC2,FC6,T7,C3,Cz,C4,T8,TP9,CP5,CP1,CP2,CP6,TP10,P7,P3,Pz,P4,P8,PO9,O1,Oz,O2,PO10
68668,172,212,224,154,-39,443,175,58,-182,30,416,140,405,-48,235,194,-76,-46,85,46,121,125,176,-47,125,-102,466,-114,24,28,-99,110
68669,85,146,132,56,-42,339,81,-51,-262,-58,346,22,320,-147,134,117,-149,-115,24,-10,26,85,117,-103,29,-200,361,-166,-28,-37,-175,41
68670,30,87,107,-11,-36,269,-8,-110,-311,-117,251,25,293,-186,75,27,-170,-137,-22,-58,-54,30,108,-115,-5,-257,271,-127,-9,-28,-192,-5
68671,56,126,145,21,-29,304,-1,-51,-266,-72,302,88,340,-146,109,24,-160,-105,7,-29,-29,61,132,-70,46,-198,292,-54,55,22,-120,38
68672,118,189,163,83,-28,399,36,4,-216,-4,364,134,391,-88,175,99,-110,-23,50,33,18,107,216,20,106,-132,367,66,121,88,-53,132
68673,211,255,244,175,-30,488,134,83,-148,74,432,229,468,-10,246,204,4,68,127,81,109,233,339,93,172,-70,451,193,213,157,1,195
68674,264,292,299,225,-35,564,252,122,-103,151,557,290,499,26,322,257,87,129,194,119,157,298,395,178,233,-20,512,337,319,260,41,234
68675,301,355,383,278,-42,594,325,131,-69,166,591,339,537,57,368,296,74,178,214,139,185,270,409,207,242,-9,500,296,338,263,52,240
68676,333,353,416,294,-49,608,362,183,-61,187,582,352,557,67,392,320,63,198,223,151,183,237,433,206,240,-22,501,281,337,254,68,223
68677,298,275,363,263,-35,561,313,167,-98,151,524,294,528,19,364,269,-27,158,187,123,150,224,397,178,207,-74,471,257,301,220,6,146
68678,195,170,302,163,-22,447,224,48,-184,32,401,235,444,-79,270,205,-80,73,104,44,68,128,335,102,143,-130,384,161,234,182,-29,116
68679,76,59,182,44,-6,390,65,-53,-296,-48,318,132,339,-160,194,144,-123,-8,24,-34,-14,14,233,0,52,-210,285,4,150,95,-71,114
68680,5,51,157,-4,-7,358,-20,-94,-321,-83,264,74,284,-216,135,37,-159,-77,-19,-91,-85,-49,129,-98,-6,-280,218,-172,2,-24,-172,17
68681,41,73,164,-2,-24,378,31,-82,-287,-55,267,94,302,-181,166,29,-150,-46,6,-41,-60,-32,211,-51,43,-247,259,-84,86,80,-116,13
68682,120,139,217,87,-15,425,97,11,-217,9,337,160,388,-89,241,138,-100,42,101,53,34,28,288,43,156,-131,366,28,203,204,35,158
68683,198,264,305,160,-13,467,162,107,-144,91,427,240,471,0,297,235,-26,111,175,121,119,93,319,89,224,-36,433,123,228,219,53,230
68684,267,297,361,215,-39,534,223,165,-74,162,489,312,524,51,362,290,90,138,235,188,181,201,382,166,298,16,492,234,317,262,64,175
68685,307,318,389,255,-29,552,260,189,-40,180,483,326,558,85,394,301,94,165,255,229,219,264,397,204,335,61,569,150,343,284,112,179
68686,285,327,403,278,-41,570,231,206,-32,176,449,317,571,81,384,310,48,162,248,196,211,280,384,171,296,59,591,119,280,238,85,192
68687,244,257,343,211,-59,514,137,151,-80,125,409,274,530,47,340,304,42,114,196,153,179,229,365,153,271,37,583,193,246,251,129,311
68688,146,142,243,91,-38,396,6,29,-182,29,329,158,413,-68,227,223,-48,15,101,51,78,132,254,45,164,-77,508,98,146,139,37,225
68689,65,98,182,31,-32,350,-5,-64,-257,-46,310,105,321,-174,156,172,-155,-85,-3,-38,-8,70,138,-83,53,-180,356,-150,-12,-43,-177,-3
68690,-2,88,105,-28,-45,325,6,-136,-307,-82,274,62,249,-212,113,99,-176,-148,-67,-79,-31,88,110,-113,13,-213,351,-78,-1,-10,-131,57
68691,19,124,134,-8,-32,327,73,-97,-285,-79,266,87,280,-197,115,96,-125,-104,-34,-68,-6,173,161,-73,22,-172,384,62,83,63,-60,168
68692,98,171,154,51,-27,413,140,-14,-242,-21,376,125,339,-139,187,137,-63,-36,19,3,68,268,235,-27,81,-80,497,93,148,161,26,285
68693,196,258,215,139,-45,502,207,61,-157,67,463,189,417,-43,279,250,48,29,103,89,157,370,283,50,175,-11,602,33,182,217,92,338
68694,254,337,296,210,-43,525,281,132,-78,138,535,246,500,34,351,320,156,122,176,172,241,458,405,142,265,91,676,216,331,340,194,429
68695,329,361,371,271,-40,557,333,184,-35,186,593,286,552,77,412,372,217,184,230,228,290,411,481,211,343,136,727,404,465,431,285,494
68696,375,376,443,278,-47,571,358,152,-41,188,612,348,569,69,445,441,262,224,220,224,310,359,527,236,348,134,727,486,499,436,282,496
68697,349,391,414,228,-47,535,310,145,-94,130,556,318,523,-3,405,415,173,174,188,160,266,348,432,164,267,72,654,286,305,286,138,383
68698,259,332,340,130,-46,439,203,84,-161,51,436,240,437,-62,302,321,85,102,127,89,183,273,358,98,192,0,625,180,236,219,55,281
68699,131,179,247,47,-41,364,125,-25,-261,-20,392,167,355,-131,223,262,-17,-7,42,9,107,280,227,9,98,-85,587,-52,121,117,-14,214
68700,48,98,180,0,-45,323,69,-61,-320,-84,381,134,300,-198,172,243,-45,-58,-18,-36,12,207,171,-44,33,-178,473,-85,76,38,-39,219
68701,95,147,245,26,-37,324,35,-22,-283,-66,386,182,335,-167,186,230,16,-6,-6,-45,9,203,229,-28,47,-170,467,-27,114,68,-14,272
68702,144,252,331,118,-19,406,59,86,-210,0,455,298,423,-108,240,267,92,67,70,9,75,237,281,25,111,-108,519,-10,161,106,0,307
68703,253,291,381,181,-25,497,158,150,-136,65,519,364,500,-48,299,292,148,143,148,66,131,307,348,128,190,-55,592,121,251,193,53,331
68704,360,372,463,250,-18,565,216,230,-43,160,608,445,577,45,363,362,275,242,225,159,222,408,464,223,271,23,713,244,346,299,181,465
68705,347,397,473,303,-32,566,257,259,-14,188,628,468,608,80,373,386,270,252,259,211,251,476,489,239,290,43,735,275,393,335,195,464
68706,358,420,498,287,-40,582,266,259,-38,179,589,440,590,47,372,377,238,224,262,190,228,459,471,217,281,26,711,307,396,321,211,495
68707,321,369,472,233,-38,522,249,209,-64,127,522,404,546,10,323,355,197,180,227,162,205,399,400,160,215,-31,646,245,316,239,129,418
68708,190,222,338,127,-31,417,172,87,-169,56,400,300,463,-54,231,247,105,94,137,78,132,299,320,79,121,-100,553,146,207,119,20,249
68709,119,139,224,47,-27,348,82,10,-259,-22,339,189,360,-137,185,163,-61,-13,46,2,56,240,207,-26,49,-173,457,74,114,29,-82,175
68710,53,83,181,15,-14,315,52,-36,-285,-78,290,161,311,-175,131,153,-131,-69,7,-16,19,142,159,-99,9,-211,405,49,72,-31,-153,128
68711,97,114,220,30,-17,303,68,1,-260,-49,312,188,349,-149,142,195,-60,-52,22,-12,45,47,172,-79,27,-196,429,18,80,-7,-110,130
68712,188,194,290,102,-8,396,123,79,-207,25,404,257,396,-90,239,271,29,-2,101,48,107,158,215,2,107,-119,508,-3,101,55,-38,166
68713,267,251,330,181,-29,489,210,144,-110,92,510,361,489,-22,317,303,98,100,188,139,207,343,350,115,218,-19,588,186,275,218,106,302
68714,312,320,338,254,-47,535,257,237,-49,150,583,461,578,72,368,333,189,188,260,227,255,356,488,219,302,17,562,374,415,307,153,334
68715,311,351,383,290,-35,560,268,279,-7,195,574,501,603,104,385,363,218,236,306,249,270,323,521,250,331,25,522,414,428,335,152,329
68716,292,321,394,274,-40,597,272,243,-5,196,558,442,607,106,399,400,196,226,317,248,268,244,497,262,327,45,538,363,453,365,189,336
68717,261,285,383,222,-33,557,240,175,-54,161,518,353,559,88,394,375,158,171,273,216,205,150,428,233,262,2,489,204,346,264,109,292
68718,169,224,340,145,-24,478,191,86,-147,80,452,296,471,-28,280,298,74,92,169,104,108,70,336,110,142,-100,384,110,200,101,-53,118
68719,34,112,245,60,-10,384,75,32,-249,-21,398,188,375,-137,172,127,12,20,65,-5,0,-25,253,10,59,-190,280,52,145,19,-164,47
68720,22,45,212,24,2,325,-11,-14,-275,-68,312,133,323,-186,127,-13,-28,-23,16,-53,-86,-90,200,-18,18,-243,189,-51,98,8,-173,45
68721,53,74,272,48,-31,325,-54,4,-269,-71,303,172,335,-184,133,-21,-45,-24,15,-55,-108,-76,171,-45,4,-256,174,-140,13,-39,-199,-6
68722,117,88,312,95,-48,422,5,86,-217,-8,357,261,392,-130,189,39,29,45,87,5,-45,-10,230,5,74,-208,241,-2,108,7,-173,10
68723,236,211,396,211,-28,498,124,190,-139,82,416,372,492,-41,274,158,166,146,161,93,48,76,373,100,162,-117,350,169,230,128,-85,103
68724,296,290,477,282,-37,557,205,247,-67,147,510,452,570,32,344,234,268,255,223,155,121,149,487,210,243,-18,429,270,323,253,35,232
68725,346,314,533,322,-43,599,247,320,-22,180,531,518,620,56,356,257,327,305,274,193,142,208,549,234,298,23,476,313,377,294,116,342
68726,396,341,593,342,-35,564,245,344,-13,164,509,526,644,48,365,293,363,334,297,219,194,293,596,271,327,56,542,373,430,349,209,448
68727,368,323,567,314,-23,521,235,311,-51,121,473,522,588,14,322,240,311,314,265,193,148,244,537,229,306,20,524,268,377,294,129,310
68728,234,204,464,219,-31,407,152,217,-122,12,365,461,506,-48,221,131,223,251,186,117,35,119,467,172,239,-64,417,231,304,198,29,183
68729,124,100,353,114,-29,320,100,115,-211,-50,282,362,423,-105,158,75,127,164,94,72,9,92,405,121,180,-92,407,208,266,193,38,256
68730,93,64,281,50,-24,265,51,56,-260,-100,249,277,374,-137,138,35,75,79,19,8,-46,42,325,30,118,-170,337,128,179,97,-122,54
68731,137,90,317,62,-47,284,73,72,-264,-84,287,285,379,-127,171,58,62,53,23,36,-12,77,307,20,133,-151,400,113,201,125,-81,83
68732,211,183,425,168,-47,342,150,161,-206,-18,348,389,456,-56,244,128,163,141,99,110,67,199,413,101,209,-84,454,205,281,212,47,216
68733,295,252,510,269,-32,430,197,212,-81,76,431,468,522,31,306,208,275,211,208,184,137,275,523,184,275,-1,513,346,370,273,120,287
68734,349,324,549,320,-44,495,251,292,-35,142,492,502,582,82,364,294,311,224,254,241,203,301,546,230,323,44,585,428,408,347,171,375
68735,354,373,566,342,-42,555,265,310,-1,185,531,502,597,114,411,324,322,232,259,278,258,260,550,230,338,85,673,453,427,374,189,377
68736,348,356,524,329,-33,573,242,277,-3,198,557,480,576,106,430,329,276,210,243,279,251,275,505,186,319,76,660,373,405,361,191,364
68737,311,250,450,282,-25,541,161,227,-56,165,520,427,528,66,385,298,206,117,177,215,191,273,371,94,227,-2,569,109,199,202,71,316
68738,232,216,326,201,-8,461,54,160,-128,76,421,335,451,-25,289,191,97,41,109,117,119,86,297,2,139,-112,449,-8,71,75,-37,246
68739,102,132,159,72,-26,351,-3,8,-240,-30,329,160,350,-120,197,113,-114,-88,-4,17,0,-38,160,-109,11,-240,328,-138,-10,-41,-162,151
68740,32,91,130,11,-27,290,-71,-58,-293,-81,264,125,295,-172,139,75,-141,-126,-31,-36,-50,-21,138,-124,-7,-253,286,-97,-25,-52,-174,44
68741,60,123,197,38,-39,347,-1,-1,-263,-48,325,154,343,-133,180,162,-81,-69,36,4,-4,-60,150,-87,30,-223,295,-66,9,-30,-185,15
68742,74,118,260,90,-43,390,50,70,-181,27,388,215,432,-54,243,263,-35,19,99,88,87,-19,245,5,121,-142,401,2,92,66,-75,156
68743,145,183,330,146,-35,463,115,87,-89,104,454,272,508,46,335,323,60,118,203,166,175,165,352,121,224,-58,499,118,213,158,35,196
68744,188,224,386,208,-31,515,192,128,-36,168,532,310,575,124,370,393,105,178,282,243,231,231,394,202,290,20,593,146,258,213,69,289
68745,183,249,371,262,-39,521,194,235,14,189,497,360,658,161,360,337,136,247,352,287,220,255,458,261,339,46,613,263,322,262,103,338
68746,163,205,361,238,-47,527,161,209,4,186,477,369,661,156,350,271,157,235,356,273,201,291,499,280,346,43,633,318,335,250,110,332
68747,138,101,314,174,-53,467,113,155,-36,138,451,303,608,114,325,205,116,186,308,240,140,276,466,232,306,14,629,260,326,228,105,314
68748,95,75,231,96,-34,388,23,76,-106,64,376,234,526,63,241,146,70,138,244,183,77,226,409,187,262,-19,585,213,313,254,96,317
68749,15,5,144,12,-20,325,-48,-31,-185,1,310,132,431,-21,181,90,-52,41,170,94,9,176,296,113,180,-111,467,41,224,193,25,245
68750,-61,-15,80,-51,-25,272,-89,-95,-248,-55,274,45,378,-76,141,25,-45,-39,93,44,-67,89,245,70,113,-187,353,36,189,111,-84,87
68751,-35,0,91,-17,-24,312,-45,-107,-244,-37,296,37,375,-68,151,33,-42,-57,90,51,-49,72,235,60,111,-167,368,50,200,107,-81,90
68752,56,88,147,55,-17,371,30,-46,-206,27,365,83,403,-32,236,64,-56,8,140,98,12,136,290,98,184,-101,435,113,281,196,29,226
68753,133,168,175,106,-37,459,57,-8,-148,88,430,135,435,15,307,151,-10,48,182,157,73,197,324,135,227,-35,497,138,339,259,109,317
68754,189,214,236,182,-38,542,135,41,-75,172,537,177,499,88,399,251,54,100,225,240,173,268,393,202,289,57,596,265,406,349,170,369
68755,224,250,306,258,-30,622,231,87,-17,249,628,200,564,158,469,346,144,172,290,323,248,338,495,286,360,125,641,376,501,436,282,447
68756,190,263,281,257,-35,626,207,109,-33,238,622,225,547,135,442,314,132,161,279,287,256,318,470,254,362,110,656,336,472,429,288,424
68757,185,269,243,218,-18,569,141,73,-100,176,545,216,490,73,389,198,46,76,219,214,186,228,426,152,283,52,594,256,376,346,194,342
68758,101,168,175,111,-14,491,73,-33,-188,76,444,132,391,-23,298,104,-30,-21,124,128,104,76,350,68,175,-43,479,199,289,242,88,224
68759,13,110,98,23,-38,416,57,-136,-280,-11,361,42,304,-115,204,60,-66,-121,18,27,15,0,235,-59,67,-139,393,101,146,79,-109,-24
68760,-24,82,84,-31,-29,366,14,-167,-321,-39,300,-9,250,-159,155,33,-87,-155,-24,-33,-47,-86,189,-104,24,-215,318,133,126,23,-148,-57
68761,47,124,133,-2,-20,394,46,-94,-302,-22,311,42,269,-154,165,33,-40,-121,-2,-22,-40,-121,220,-77,33,-223,301,177,131,59,-112,13
68762,163,251,201,82,-28,457,140,-8,-242,28,384,118,357,-92,228,100,6,-51,42,39,29,-53,278,-40,77,-166,335,113,126,42,-110,-34
68763,245,346,298,145,-26,545,209,53,-161,83,467,208,435,-38,280,168,40,1,103,83,73,72,302,6,146,-103,380,78,148,105,-52,152
68764,281,417,338,216,-23,558,282,107,-99,126,535,275,473,8,328,241,103,61,153,145,107,101,389,90,195,-86,407,214,236,187,-1,208
68765,257,432,368,232,-43,570,281,124,-80,154,545,314,495,14,328,280,90,97,146,134,109,114,409,87,192,-77,403,265,279,199,25,200
68766,267,396,424,226,-60,572,267,111,-92,148,522,327,474,8,307,308,101,77,129,112,91,77,375,45,168,-88,400,216,229,164,7,199
68767,266,333,401,199,-48,558,259,79,-137,95,479,275,421,-50,283,287,77,12,77,72,53,35,286,-19,115,-133,377,20,87,118,2,223
68768,200,227,328,120,-24,467,157,32,-227,5,368,182,328,-141,178,218,-75,-87,-26,-30,-23,28,104,-137,18,-219,306,-146,-55,0,-140,115
68769,175,145,238,31,-35,387,27,-51,-302,-77,253,95,265,-213,95,21,-131,-147,-89,-87,-93,75,33,-198,-36,-274,259,-139,-81,-46,-164,70
68770,91,108,183,16,-29,335,-87,-54,-330,-122,170,103,252,-235,44,-125,-106,-161,-78,-134,-156,63,69,-214,-66,-332,208,-79,-74,-104,-212,41
68771,106,116,237,46,-20,357,-81,-15,-285,-91,194,133,315,-205,68,-108,-71,-111,-41,-103,-143,28,155,-153,-33,-310,220,55,-25,-51,-204,21
68772,166,105,278,100,-41,402,-5,71,-226,-46,239,193,382,-142,127,-49,-5,-48,14,-62,-101,70,211,-74,26,-250,288,147,76,35,-120,117
68773,238,188,369,179,-48,453,75,136,-140,28,320,245,444,-76,190,62,46,-1,71,1,-45,184,214,-47,74,-191,367,31,74,32,-61,210
68774,299,283,461,255,-25,522,150,207,-73,94,388,334,507,-28,237,108,132,43,133,77,20,192,253,-5,123,-145,441,5,88,106,6,223
68775,373,360,462,296,-11,543,184,244,-35,121,437,384,556,0,256,144,212,115,182,112,84,202,354,49,194,-95,537,193,226,207,90,259
68776,361,339,436,266,-38,506,154,239,-62,96,419,343,567,5,262,148,182,123,185,111,93,172,385,85,199,-69,576,274,256,221,134,275
68777,265,236,363,227,-46,483,94,170,-81,94,370,287,538,3,250,106,131,92,155,106,51,93,352,63,169,-87,513,271,250,197,134,360
68778,170,148,260,127,-30,405,-2,47,-155,18,305,199,456,-61,172,39,45,21,81,37,-15,102,220,-37,87,-162,382,82,99,81,-3,275
68779,106,104,224,51,-12,318,-64,-51,-240,-74,250,116,368,-135,108,-28,-53,-88,14,-50,-90,58,132,-125,8,-231,304,-17,24,-1,-98,142
68780,90,102,171,1,-9,282,-110,-102,-287,-115,178,92,317,-190,56,-63,-59,-128,-51,-85,-141,-73,103,-149,-41,-290,236,-52,-22,-90,-212,-38
68781,102,128,138,-30,-21,289,-79,-81,-269,-96,201,96,346,-160,80,-19,-45,-98,-26,-52,-91,-9,136,-107,14,-244,315,-55,-10,-54,-184,-2
68782,129,153,203,32,-28,356,-66,-50,-211,-21,310,123,388,-85,170,90,-37,-44,34,28,9,124,201,-67,68,-168,462,-89,43,23,-94,154
68783,185,200,276,95,-43,444,26,18,-141,47,441,197,452,26,265,210,43,23,124,134,127,217,285,11,150,-63,549,13,149,128,34,283
68784,263,279,353,158,-29,522,207,82,-53,165,547,261,529,116,372,321,97,103,228,249,228,277,359,101,244,47,643,154,263,248,160,319
68785,260,308,379,164,-62,528,233,102,-12,208,570,285,565,146,414,367,118,137,282,300,276,261,400,149,318,117,672,225,314,325,218,408
68786,243,284,339,175,-44,544,201,103,-4,230,615,229,582,166,452,340,141,140,308,331,288,340,403,191,346,161,690,284,358,385,269,455
68787,147,243,262,124,-35,489,147,47,-37,194,528,149,514,118,395,270,55,92,255,291,231,235,317,135,297,89,580,174,258,303,141,324
68788,21,132,147,10,-25,413,29,-66,-140,111,393,46,419,33,299,124,-95,-28,154,191,123,41,189,24,191,-26,455,-46,106,168,23,208
68789,-106,-15,65,-80,-28,331,-158,-171,-233,17,288,-56,326,-67,208,-7,-220,-124,69,83,8,-91,83,-72,82,-132,365,-161,21,52,-88,49
68790,-202,-56,-1,-125,-26,256,-212,-224,-293,-47,231,-118,286,-97,153,-68,-259,-163,28,33,-47,-182,39,-101,37,-182,306,-222,-14,22,-134,-34
68791,-189,-45,0,-83,-28,278,-134,-155,-243,-23,264,-81,340,-68,173,-7,-256,-134,67,53,-14,-95,86,-64,79,-143,283,-141,35,53,-111,-33
68792,-136,4,48,-5,-32,334,-82,-79,-172,52,308,-15,415,-9,242,89,-202,-74,137,124,50,8,153,0,157,-66,330,-57,126,120,-37,40
68793,-61,53,146,90,-54,410,-23,3,-102,125,396,75,494,73,319,203,-89,6,222,198,113,63,209,62,232,-6,394,-19,175,174,29,119
68794,12,50,248,179,-38,497,78,104,-26,204,488,225,593,160,385,303,14,113,305,290,195,139,290,155,305,82,515,24,231,222,113,212
68795,87,95,296,247,-27,558,145,152,26,250,562,255,646,188,460,386,32,176,351,341,274,170,356,233,379,153,607,186,328,324,186,269
68796,114,82,352,245,-33,558,153,176,36,222,558,283,632,175,439,350,32,179,338,304,252,139,366,226,373,122,574,202,331,295,142,256
68797,70,34,300,188,-30,511,81,117,-43,176,471,241,563,101,365,219,-75,114,276,230,163,120,319,162,294,31,505,95,256,208,89,239
68798,-19,-43,216,107,-40,423,-33,33,-144,76,339,171,466,7,242,75,-118,34,174,135,46,46,249,75,205,-70,421,41,168,154,-1,206
68799,-84,-89,118,30,-30,335,-135,-26,-220,-25,235,98,396,-88,145,-63,-164,-41,108,48,-40,-53,170,5,124,-170,328,-34,83,56,-116,10
68800,-93,-49,62,-14,-13,277,-179,-90,-267,-60,207,40,347,-138,84,-81,-195,-101,63,0,-72,-30,141,-40,71,-218,287,-53,46,19,-147,21
68801,-58,12,115,-8,-35,305,-107,-55,-274,-43,256,77,346,-118,104,-21,-132,-69,73,-7,-54,-38,199,-2,79,-195,318,28,91,31,-137,13
68802,23,107,193,70,-24,361,0,28,-199,16,323,161,422,-40,176,43,12,20,147,86,38,13,271,79,170,-91,430,83,176,125,-13,118
68803,138,178,282,133,-44,422,110,95,-109,90,423,216,512,35,245,151,78,79,213,171,149,173,377,150,247,4,571,205,260,236,96,261
68804,241,262,348,234,-44,530,201,148,-52,169,497,255,568,98,337,253,152,147,252,239,232,289,471,214,295,77,649,377,354,294,164,265
68805,302,357,420,291,-19,578,266,177,-11,207,561,293,613,130,402,308,228,195,292,291,286,340,524,253,337,106,668,479,440,381,219,356
68806,303,357,435,304,-35,578,262,179,-7,183,559,320,584,111,393,298,242,183,291,270,255,337,570,253,341,92,627,549,468,404,207,395
68807,261,287,388,256,-38,560,235,124,-78,150,525,283,515,43,348,257,196,132,205,202,180,308,504,205,273,28,565,429,398,337,160,357
68808,218,261,357,168,-24,480,210,46,-172,78,444,218,426,-45,257,167,88,24,79,101,98,226,352,60,161,-67,447,155,219,186,47,264
68809,151,171,282,89,-14,408,113,-48,-260,-17,356,104,312,-143,173,115,-11,-104,-11,-22,5,138,186,-62,48,-162,400,-7,94,97,-30,216
68810,47,83,193,28,-23,344,-25,-146,-328,-87,285,11,228,-210,116,8,-120,-194,-97,-101,-80,6,110,-142,-36,-261,317,6,13,33,-108,79
68811,47,93,186,39,-28,367,-45,-111,-299,-65,303,41,257,-200,125,14,-143,-184,-102,-86,-65,17,157,-131,-15,-251,352,152,84,51,-87,91
68812,135,154,266,101,-13,465,-23,-34,-246,-8,358,104,316,-139,175,89,-55,-137,-47,-27,-28,55,214,-85,29,-195,406,160,116,108,-38,159
68813,220,249,343,141,-21,510,107,-37,-191,79,463,145,357,-75,234,127,-9,-103,14,10,11,123,221,-61,71,-160,425,60,106,124,-8,203
68814,279,355,401,216,-33,580,200,77,-129,137,510,174,429,-13,296,212,-36,-78,81,72,69,193,185,-38,104,-109,509,-37,107,152,40,234
68815,283,398,390,264,-37,620,240,142,-86,180,525,230,491,25,348,262,6,-3,129,106,124,253,232,30,175,-59,577,35,169,242,85,270
68816,268,363,386,245,-35,608,248,132,-74,175,530,252,496,33,315,251,26,14,148,127,130,235,289,87,209,-27,545,207,281,310,156,319
68817,242,318,337,182,-33,548,190,85,-117,131,439,211,443,8,264,216,-18,-17,106,100,83,198,244,36,151,-74,473,123,220,258,134,332
