,Fp1,Fp2,F7,F3,Fz,F4,F8,FC5,FC1,FC2,FC6,T7,C3,Cz,C4,T8,TP9,CP5,CP1,CP2,CP6,TP10,P7,P3,Pz,P4,P8,PO9,O1,Oz,O2,PO10
234498,239,618,695,38,-94,690,504,223,94,-44,375,32,271,184,430,435,427,29,136,184,118,585,253,195,146,390,454,224,316,86,-20,276
234499,215,569,637,28,-112,653,476,218,104,-58,330,58,275,190,395,376,418,74,149,187,82,571,327,229,176,388,444,401,393,147,25,315
234500,205,555,635,29,-108,657,488,189,110,-43,309,101,295,191,375,198,377,95,167,179,35,492,354,255,196,417,477,412,425,166,35,347
234501,170,551,642,1,-118,636,456,179,92,-72,280,92,280,183,360,396,456,72,161,167,40,453,329,243,188,404,508,449,417,169,49,316
234502,192,578,672,2,-143,630,436,168,89,-85,226,91,276,171,347,491,454,68,148,182,38,564,331,261,195,400,488,466,443,175,59,307
234503,171,558,682,1,-132,661,464,168,103,-55,287,91,264,154,340,236,412,50,138,151,2,568,274,233,165,359,375,372,373,151,50,308
234504,156,576,646,8,-127,677,474,157,92,-58,315,86,260,138,335,355,408,48,140,127,0,504,269,222,158,368,327,375,388,161,72,286
234505,137,557,620,17,-116,674,447,178,75,-66,290,81,265,145,338,646,399,48,126,127,41,449,272,217,157,356,304,393,402,164,55,282
234506,157,532,632,35,-128,658,427,164,61,-80,256,43,246,146,321,622,422,44,123,136,20,470,253,215,149,347,279,395,387,142,27,332
234507,153,538,631,4,-123,648,400,141,71,-91,255,50,236,150,324,488,386,39,123,131,0,344,237,202,128,356,352,387,368,151,46,375
234508,138,549,587,-11,-128,670,387,120,83,-58,310,54,234,131,341,483,327,9,102,128,49,155,257,191,118,375,398,371,356,134,41,380
234509,118,547,593,-30,-143,648,409,95,68,-82,299,46,223,118,341,346,271,-4,98,133,66,222,261,164,92,360,390,445,354,116,14,332
234510,91,559,612,-34,-142,631,465,113,68,-85,281,75,220,127,357,198,208,0,83,136,62,438,259,142,85,362,446,451,353,104,0,357
234511,90,552,611,-15,-134,673,488,131,65,-60,298,88,205,115,377,157,256,-29,66,107,70,635,196,112,55,353,379,335,274,41,-40,304
234512,88,538,562,-11,-132,684,473,114,79,-74,297,31,220,116,372,99,388,-11,84,106,63,601,251,118,69,354,380,428,316,64,-20,292
234513,102,521,527,8,-125,673,480,142,94,-67,301,-3,220,121,357,156,462,0,87,101,12,395,303,157,83,339,450,486,373,114,-7,295
234514,116,542,567,2,-126,721,459,161,79,-44,313,24,229,120,369,325,417,-13,63,100,43,639,281,129,64,341,476,428,363,99,-4,357
234515,115,563,588,13,-123,734,474,162,86,-38,353,32,237,130,374,464,379,-2,62,120,88,750,227,128,61,357,455,394,358,102,13,390
234516,110,558,579,10,-135,708,483,138,85,-34,333,46,231,126,372,550,414,22,86,119,92,629,285,170,97,369,450,526,435,167,63,381
234517,81,540,603,-19,-150,680,477,115,68,-71,298,47,228,122,362,333,360,27,77,115,67,556,275,160,90,379,442,436,377,136,52,370
234518,76,518,627,-9,-138,699,494,153,67,-44,328,73,244,143,398,188,379,39,89,152,92,535,238,139,107,389,425,347,320,114,38,379
234519,45,504,587,-15,-142,696,463,145,80,-42,321,62,248,149,382,222,337,50,107,157,90,491,259,158,106,370,414,379,357,140,56,350
234520,11,511,566,-30,-146,716,478,174,81,-18,348,84,253,172,413,315,339,60,110,181,132,441,243,177,110,380,417,401,352,141,42,308
234521,16,507,554,-37,-152,708,488,153,78,-26,355,73,239,168,445,475,330,27,131,172,132,243,211,159,122,387,347,383,363,138,29,262
234522,25,473,497,-49,-169,699,468,143,61,-28,343,34,241,166,416,599,342,14,111,174,63,179,213,159,112,373,259,367,395,153,30,215
234523,34,451,504,-46,-157,680,439,152,72,-32,290,34,240,182,371,186,406,35,115,174,-24,249,253,187,121,355,311,428,422,183,47,274
234524,51,484,471,-65,-182,678,397,124,68,-25,284,68,224,165,384,-2,382,53,130,167,-35,447,293,212,143,351,343,456,427,177,56,278
234525,59,469,492,-58,-171,696,396,143,63,-42,295,140,243,170,370,293,364,72,141,168,-21,384,341,226,144,353,380,423,447,217,77,310
234526,41,468,520,-51,-163,693,436,117,55,-31,283,87,231,170,349,504,375,70,137,173,-12,269,324,233,158,364,359,498,461,223,87,300
234527,16,472,508,-76,-164,687,418,106,53,-28,297,22,228,163,366,417,387,73,132,171,-18,308,324,235,157,357,303,586,485,197,57,261
234528,14,456,526,-65,-168,699,390,120,29,-22,328,-12,256,170,394,330,383,108,144,183,-4,386,338,253,162,377,329,430,433,207,68,255
234529,-3,445,510,-90,-180,688,411,110,24,-27,306,-83,243,156,397,197,330,80,115,185,12,463,270,221,163,389,356,281,379,189,53,234
234530,-35,449,453,-95,-214,620,422,66,4,-37,304,-58,219,134,386,104,281,46,121,177,-3,459,241,224,165,383,345,399,412,184,17,228
234531,-8,488,459,-56,-184,668,441,92,51,-20,345,27,243,164,420,321,310,75,149,190,14,417,292,251,168,375,336,396,407,188,27,247
234532,-19,486,419,-69,-160,714,384,96,51,-2,309,43,244,175,424,480,281,88,145,213,55,372,272,245,173,381,330,359,382,153,9,244
234533,0,509,445,-82,-163,726,374,91,48,-5,342,40,239,170,407,500,290,58,126,190,54,405,222,232,181,385,290,320,363,128,-14,206
234534,11,498,461,-81,-162,716,430,89,44,-21,367,-2,212,144,408,521,283,48,119,180,70,449,216,236,164,385,253,348,364,134,-27,160
234535,41,466,480,-75,-157,709,413,91,46,-11,339,-12,236,129,399,226,260,79,122,175,53,407,254,251,175,371,274,438,410,149,-8,165
234536,89,516,499,-74,-136,723,447,135,46,2,353,14,278,136,406,62,273,126,153,178,52,336,285,289,220,367,263,537,466,190,5,147
234537,24,494,471,-82,-142,740,450,135,43,4,364,29,265,144,397,254,245,128,155,179,4,247,315,306,214,360,271,531,451,186,25,212
234538,41,491,535,-55,-156,752,447,136,78,4,368,57,276,155,397,230,234,127,168,201,4,343,300,295,211,386,336,337,375,148,23,293
234539,33,458,511,-45,-147,732,451,94,56,-16,336,48,253,134,382,69,265,114,155,181,-18,417,274,266,208,378,379,246,335,113,-15,264
234540,13,453,488,-63,-150,759,449,92,42,-14,346,25,258,145,416,203,336,90,145,190,11,367,265,269,221,384,341,349,378,156,-9,201
234541,22,466,462,-65,-152,779,478,97,49,0,383,28,272,152,430,321,352,80,169,195,40,313,271,271,225,382,303,457,406,157,4,188
234542,-3,494,461,-59,-156,732,468,113,54,-13,402,23,268,138,428,246,343,92,190,199,82,72,280,281,218,379,367,480,391,139,0,211
234543,-23,491,423,-69,-160,706,448,104,59,-10,379,40,269,166,456,323,377,114,194,200,144,222,319,298,228,407,417,459,405,147,-5,259
234544,-41,478,411,-79,-157,694,406,95,73,-4,335,43,264,180,452,509,334,126,200,218,191,593,330,305,234,428,429,417,434,177,30,252
234545,-61,451,427,-74,-160,704,374,92,64,-21,311,34,268,176,428,482,318,113,194,226,145,512,313,306,244,422,387,373,426,200,68,269
234546,-82,429,449,-55,-177,686,380,99,55,-35,309,0,263,168,431,407,299,88,191,222,129,244,269,278,237,412,353,339,382,184,57,279
234547,-5,464,494,-29,-165,685,434,111,65,-45,322,9,263,157,440,332,314,75,180,224,150,274,247,265,228,436,382,274,356,174,49,307
234548,30,509,519,-62,-147,698,445,101,52,-47,323,0,237,162,429,278,314,75,147,199,105,430,238,241,193,412,356,297,365,177,43,304
234549,19,530,516,-44,-154,696,467,79,46,-42,323,7,236,145,413,189,312,64,143,192,94,384,254,221,180,420,394,357,389,161,40,323
234550,27,525,482,-76,-176,679,443,77,35,-38,300,19,208,125,398,145,217,31,110,172,105,289,253,199,171,410,384,415,373,157,37,290
234551,54,527,497,-64,-160,667,430,84,50,-35,310,40,198,147,429,246,143,48,104,192,129,332,254,216,161,399,377,419,358,135,9,232
234552,95,580,509,-42,-134,700,513,87,51,-8,364,11,208,162,446,483,166,27,104,194,163,368,210,196,160,413,346,275,299,105,5,249
234553,87,606,516,-24,-125,708,557,113,57,-11,391,-15,202,128,442,491,252,15,87,192,173,327,222,190,134,412,328,226,317,108,15,242
234554,130,686,559,25,-106,729,589,161,78,-18,390,37,232,137,423,181,352,37,100,174,123,367,269,197,149,432,401,354,363,147,36,288
234555,143,688,570,39,-96,750,593,158,70,-35,397,59,226,126,420,-69,337,36,118,168,110,557,260,204,156,423,444,391,390,149,51,337
234556,213,699,549,20,-85,749,554,169,62,-15,405,74,241,120,447,229,282,47,101,190,136,562,285,218,140,427,541,413,403,163,68,331
234557,243,710,562,17,-95,734,553,179,40,-50,381,67,216,96,423,202,242,24,88,166,131,546,246,189,118,417,552,322,333,124,23,297
234558,266,698,627,30,-104,764,569,184,67,-56,386,94,219,100,447,159,183,47,104,177,160,531,273,215,131,437,504,330,382,162,32,297
234559,284,695,658,51,-105,768,592,189,72,-50,402,131,240,123,452,517,341,57,118,185,167,506,350,237,118,413,459,348,412,153,41,319
234560,303,705,678,57,-111,740,569,178,73,-49,376,104,222,101,423,701,435,44,85,166,157,370,336,212,97,393,452,413,418,148,35,305
234561,322,714,693,47,-109,725,587,199,68,-48,393,106,219,97,411,727,420,28,72,151,146,316,267,196,88,379,457,419,387,121,13,293
234562,333,738,687,40,-86,743,592,200,71,-46,421,104,235,113,409,655,387,40,70,140,129,474,252,185,76,388,446,410,388,134,38,413
234563,315,716,689,40,-80,772,506,211,85,-31,401,101,232,105,392,481,398,56,67,123,126,503,264,194,71,371,423,452,353,107,-11,396
234564,305,682,692,49,-98,732,494,193,71,-51,382,155,236,87,375,284,387,67,60,134,108,481,287,193,69,359,388,590,421,133,1,340
234565,297,705,694,75,-87,747,529,233,93,-38,396,183,252,101,393,278,416,68,67,123,153,573,322,207,78,357,369,598,428,125,0,303
234566,233,715,668,57,-73,761,553,232,85,-25,371,154,239,85,428,347,386,50,48,128,230,584,308,181,65,393,416,384,344,117,22,301
234567,193,704,629,25,-92,753,590,175,72,-48,400,78,190,61,406,589,322,17,27,102,171,435,231,145,38,355,411,192,291,107,34,307
234568,196,722,661,19,-93,743,637,159,67,-39,399,56,191,71,364,905,300,12,21,98,99,295,179,144,44,340,396,229,322,136,44,334
234569,204,700,676,24,-94,735,624,164,56,-52,388,80,179,58,326,878,208,-1,18,84,42,176,184,143,31,333,366,335,343,151,32,313
234570,229,681,660,30,-114,729,595,183,49,-57,374,118,192,64,341,692,254,13,22,100,85,573,202,166,61,387,408,393,382,161,48,320
234571,255,667,664,27,-105,727,580,193,65,-63,343,150,192,70,350,512,418,13,37,123,100,756,244,169,86,414,498,395,401,169,61,383
234572,268,704,657,17,-119,759,625,194,71,-55,411,131,199,85,377,515,486,4,59,128,149,556,253,188,70,418,507,347,365,167,54,386
234573,244,690,614,21,-101,771,639,182,71,-19,405,123,194,86,384,471,494,4,49,118,142,594,257,180,62,404,529,376,384,190,91,398
234574,237,687,586,30,-105,776,638,178,66,-50,386,118,194,80,369,463,478,3,25,108,92,635,239,166,58,366,458,398,392,161,78,363
234575,237,667,580,47,-113,769,620,182,48,-61,400,113,215,86,353,477,468,17,22,106,85,618,245,157,81,384,433,409,409,178,97,350
234576,201,650,554,10,-113,788,594,181,60,-51,381,64,215,89,353,493,421,13,49,127,102,580,244,161,73,400,426,379,401,179,88,353
234577,208,676,539,-17,-106,787,584,165,60,-53,383,-33,195,104,350,443,384,0,54,106,75,520,208,166,73,386,433,357,375,159,87,352
234578,237,710,539,-12,-107,805,618,141,55,-42,414,-14,190,97,356,172,377,1,60,112,78,529,205,169,72,378,408,391,359,161,66,298
234579,246,713,554,6,-113,740,608,110,43,-49,419,45,226,69,366,95,348,12,46,109,71,507,208,159,69,358,364,350,321,94,-6,203
234580,244,680,573,0,-103,739,592,94,35,-55,374,14,201,63,364,310,333,-1,56,97,73,463,219,174,54,333,362,317,310,58,-33,192
234581,177,665,561,-15,-113,817,606,91,58,-23,375,26,170,76,364,158,352,-21,49,112,72,360,167,162,46,337,347,282,302,75,-9,237
234582,213,688,586,-17,-103,856,606,117,78,-7,406,36,215,87,393,-67,407,6,67,123,71,186,191,182,79,350,317,363,344,106,-16,293
234583,188,667,565,-42,-114,839,586,123,59,-23,424,25,209,89,415,-37,402,22,64,118,78,221,193,186,85,349,262,426,363,101,-29,254
234584,207,654,579,-24,-120,823,590,142,64,-1,438,77,223,95,422,183,359,51,81,139,123,245,224,215,98,370,325,397,396,119,16,267
234585,238,668,580,-19,-108,838,621,168,66,15,457,114,257,99,448,479,354,98,108,152,172,457,265,250,131,399,397,361,408,149,18,288
234586,218,691,591,-22,-104,825,608,150,83,14,451,149,271,110,450,579,398,124,105,169,185,555,301,272,146,427,411,457,445,174,51,302
234587,198,681,604,-18,-125,821,599,126,74,15,462,131,254,106,458,539,380,98,107,187,201,489,289,274,154,423,398,467,451,174,71,311
234588,183,668,623,-16,-110,809,601,125,59,5,446,108,260,109,451,493,436,85,125,190,159,411,331,273,142,419,413,424,417,159,34,349
234589,138,636,618,-29,-126,796,577,136,51,-12,421,124,256,101,428,498,372,75,116,177,124,440,339,251,146,410,381,402,373,113,-9,298
234590,181,637,648,-4,-109,783,589,182,77,2,402,151,272,152,438,532,293,74,152,192,167,484,282,274,180,427,441,535,435,182,39,363
234591,220,662,622,-4,-126,776,598,154,68,-26,390,111,275,132,424,506,301,63,129,176,169,480,216,243,154,406,486,407,375,116,11,347
234592,246,712,622,16,-103,786,621,174,87,-13,402,57,288,134,396,593,377,101,135,174,107,533,240,252,158,414,472,382,373,112,0,269
234593,222,699,589,5,-105,743,608,162,69,-19,382,41,261,127,366,622,373,43,128,156,74,391,186,230,163,384,450,338,326,86,-17,236
234594,200,666,594,14,-106,726,580,143,62,-31,341,91,254,141,360,544,376,0,121,148,53,261,167,196,166,366,405,263,289,84,2,311
234595,179,649,551,1,-115,715,511,133,52,-46,302,48,227,125,338,485,386,-30,86,128,29,321,126,162,141,333,368,232,284,46,-24,276
234596,156,658,525,-16,-114,728,526,106,61,-48,268,-6,209,116,342,487,336,-49,87,126,26,409,121,148,118,344,389,259,274,54,-38,253
234597,141,599,515,-27,-131,700,509,79,66,-42,279,-13,209,106,305,426,191,-72,79,115,-9,398,98,136,94,329,350,271,274,36,-50,252
234598,141,585,490,-13,-120,725,539,90,63,-37,324,0,216,120,326,402,103,-44,76,117,14,427,123,160,115,358,369,362,315,52,-32,220
234599,135,564,501,-13,-129,726,532,91,38,-53,313,9,214,108,340,380,139,-32,61,110,0,372,128,155,104,331,339,395,318,73,-32,237
234600,131,568,504,-31,-133,735,543,58,26,-42,342,38,206,88,343,354,285,-55,44,106,-7,358,132,147,104,341,234,404,339,77,-28,258
234601,149,582,508,-32,-118,765,575,94,50,-11,382,2,231,107,378,274,301,-35,61,128,-7,452,192,185,109,340,174,536,413,96,-28,172
234602,138,550,464,-17,-131,764,551,115,49,-21,347,-54,245,117,367,-3,163,-26,78,118,-53,394,170,181,95,326,222,370,395,102,-33,146
234603,84,512,391,-37,-162,715,504,109,50,-36,318,-83,225,111,362,22,146,-35,85,123,-38,344,132,171,111,349,258,108,343,80,-12,198
234604,69,536,405,-42,-160,697,517,152,63,-25,321,-68,247,127,369,337,176,0,93,158,-2,205,184,212,129,357,267,290,437,136,34,192
234605,91,559,448,-31,-154,708,513,132,69,-40,307,-40,256,155,381,413,282,17,118,165,0,-76,196,224,134,370,342,520,478,156,33,235
234606,68,530,440,-51,-173,672,477,96,56,-51,301,-42,230,136,356,296,264,-15,89,127,-5,63,172,187,105,354,387,420,437,127,29,252
234607,90,505,438,-22,-168,691,467,61,66,-43,320,-66,224,143,370,34,183,-53,76,149,2,310,146,173,111,339,378,287,395,95,16,279
234608,131,481,447,-23,-171,711,446,40,55,-53,301,-91,206,140,379,-180,140,-92,64,132,25,142,75,133,93,347,348,126,300,14,-51,189
234609,66,486,439,-48,-162,698,429,34,55,-44,317,-133,187,145,402,-93,117,-118,69,146,87,272,42,123,85,356,353,67,240,-28,-89,198
234610,22,477,431,-79,-162,712,404,33,56,-30,297,-143,198,165,371,-45,65,-103,67,137,84,350,64,130,73,344,323,133,248,-19,-64,260
234611,39,487,463,-83,-153,732,398,15,42,-31,315,-127,183,150,374,66,-22,-116,61,134,85,243,36,113,57,336,300,153,242,-36,-64,224
234612,39,488,445,-95,-150,735,447,1,29,-30,330,-144,192,150,397,292,62,-120,51,150,107,296,34,118,59,333,314,126,241,-51,-76,243
234613,103,523,471,-78,-140,734,469,31,42,-50,267,-112,202,141,379,403,98,-83,83,139,41,376,58,121,62,331,317,189,249,-54,-102,277
234614,155,523,499,-72,-139,698,473,46,38,-70,254,-109,218,145,341,479,94,-84,92,123,-38,446,88,132,65,331,333,239,268,-36,-87,319
234615,171,517,506,-40,-144,687,477,106,58,-72,235,-78,258,157,327,437,160,-65,92,129,-23,450,134,145,67,331,410,318,298,-31,-67,349
234616,137,477,487,-51,-144,694,471,95,74,-73,246,-108,244,144,313,405,197,-54,80,118,-7,421,134,138,53,304,421,322,286,-43,-102,285
234617,119,494,476,-40,-162,681,458,63,64,-62,257,-131,264,162,330,431,259,-45,82,123,-4,426,179,157,59,317,414,362,313,-2,-74,290
234618,111,500,471,-37,-171,681,481,60,66,-71,258,-70,262,153,340,329,302,-46,91,127,11,445,211,162,40,307,430,291,277,-12,-48,356
234619,132,520,489,-48,-174,688,514,86,58,-58,294,-45,268,148,347,148,262,-25,74,120,46,432,207,158,46,298,426,321,306,-8,-27,369
234620,109,516,476,-27,-174,687,511,120,68,-61,309,-45,279,159,342,155,186,-22,92,129,51,391,137,139,45,300,387,419,315,0,-51,313
234621,67,490,418,-63,-192,683,509,91,48,-67,310,-75,236,140,348,278,212,-62,70,111,43,265,105,129,40,294,333,434,312,-14,-95,281
234622,84,492,435,-73,-184,720,499,55,35,-45,318,-87,201,144,353,368,301,-80,50,102,17,123,104,112,35,257,316,435,274,-61,-157,253
234623,88,463,436,-55,-173,703,459,53,43,-65,298,-115,200,158,344,369,358,-58,58,99,0,141,110,101,7,246,309,379,257,-67,-172,245
234624,30,452,418,-79,-178,685,479,25,46,-36,310,-157,189,144,350,445,278,-93,47,79,44,266,86,78,-2,249,203,238,162,-101,-180,196
234625,-14,483,383,-84,-166,640,514,55,39,-40,300,-131,191,149,353,273,210,-120,39,86,27,268,65,31,-27,243,156,159,116,-137,-232,120
234626,23,473,388,-93,-172,657,447,45,40,-61,232,-37,185,160,334,91,128,-102,33,98,-61,74,94,52,2,246,185,188,156,-99,-213,179
234627,22,505,404,-121,-186,698,458,4,28,-52,261,-52,167,166,322,269,193,-110,48,119,-41,40,68,56,12,254,200,237,185,-106,-196,213
234628,6,470,368,-104,-194,654,444,11,48,-56,251,-61,192,177,340,208,321,-88,67,127,1,274,78,83,45,287,366,307,214,-62,-141,267
234629,-12,442,372,-121,-212,629,430,-3,27,-70,225,-59,192,155,337,139,355,-90,50,137,1,367,78,88,47,300,418,306,202,-35,-141,274
234630,-10,443,383,-137,-224,664,450,-4,30,-75,217,-61,195,164,335,268,281,-90,60,129,0,269,99,108,45,277,357,319,228,-38,-157,220
234631,21,472,433,-115,-206,683,510,34,45,-64,253,-38,214,153,300,371,282,-50,89,115,-42,60,113,119,57,277,338,255,216,-40,-159,161
234632,46,521,479,-103,-179,692,547,44,37,-56,276,-30,227,155,302,123,265,-46,83,108,-75,-93,101,117,43,252,299,203,169,-72,-166,169
234633,53,506,471,-125,-205,665,526,30,27,-61,277,-66,217,126,313,-203,264,-50,63,84,-64,195,116,109,57,240,172,284,214,-38,-145,235
234634,44,525,454,-103,-199,691,529,48,34,-41,282,-88,234,125,323,-268,308,-32,83,97,-47,459,120,121,75,243,174,292,241,-31,-142,228
234635,21,521,439,-91,-199,708,533,38,40,-53,307,-49,220,134,332,150,278,-22,93,115,-10,278,131,123,81,241,219,239,251,-29,-139,228
234636,14,515,451,-101,-199,694,550,26,52,-53,313,-24,218,140,335,465,270,-33,86,93,33,386,125,121,87,247,274,239,224,-45,-171,189
234637,32,523,450,-81,-202,695,547,49,57,-55,273,-17,252,132,332,544,263,-19,92,102,23,475,157,148,71,239,277,227,197,-58,-169,182
234638,53,514,463,-59,-190,696,533,74,60,-32,263,-49,238,147,330,499,108,-31,102,97,-40,371,146,121,60,218,255,191,209,-84,-205,142
234639,55,495,496,-60,-185,697,510,67,51,-17,283,-7,236,153,349,260,76,-23,100,111,-24,354,151,116,65,234,261,149,190,-83,-210,105
234640,-43,465,459,-90,-212,687,455,35,54,-49,237,10,216,138,318,-27,121,-51,80,101,-24,345,144,133,67,255,232,147,214,-56,-201,62
234641,-16,466,457,-87,-187,663,445,59,59,-46,245,-17,226,129,323,0,154,-36,85,115,-34,295,113,145,77,266,203,189,218,-73,-188,45
234642,67,469,486,-47,-191,638,406,86,74,-45,244,-21,234,153,320,206,227,-10,115,117,-26,213,148,171,112,279,201,300,282,4,-139,75
234643,93,467,510,-34,-198,628,436,76,63,-57,204,-50,236,159,288,296,193,-31,127,111,-40,128,143,176,104,259,221,256,288,-7,-149,72
234644,111,470,501,-55,-188,623,459,69,58,-58,201,-27,245,167,303,363,184,-52,110,127,-40,232,116,167,94,268,299,210,274,-12,-146,63
234645,68,464,475,-92,-214,623,492,48,41,-70,199,-63,206,162,287,394,227,-76,99,129,-47,265,119,178,115,257,372,283,295,23,-105,127
234646,73,495,462,-67,-208,626,496,63,57,-61,213,-57,213,166,288,314,223,-60,94,140,-67,8,160,186,107,245,316,379,345,42,-106,141
234647,125,497,482,-57,-189,614,504,74,51,-66,246,-23,221,158,287,207,215,-60,100,129,-75,-23,127,174,117,235,241,333,343,48,-97,158
