,Fp1,Fp2,F7,F3,Fz,F4,F8,FC5,FC1,FC2,FC6,T7,C3,Cz,C4,T8,TP9,CP5,CP1,CP2,CP6,TP10,P7,P3,Pz,P4,P8,PO9,O1,Oz,O2,PO10
167849,1105,688,241,99,-69,588,105,362,26,130,420,282,1225,14,32,373,-233,93,482,48,212,234,230,318,236,-125,128,146,258,45,217,104
167850,1182,713,308,202,-88,691,48,411,96,208,470,370,1298,94,116,453,-162,164,537,115,286,235,269,394,319,-51,150,266,362,154,343,232
167851,1171,723,336,246,-76,723,72,449,126,219,460,365,1330,131,130,463,-138,180,572,154,308,180,277,408,345,-40,233,212,390,183,354,206
167852,1128,702,331,205,-55,674,116,431,88,154,410,267,1285,77,50,325,-194,100,542,85,227,121,224,361,275,-98,175,62,316,87,244,126
167853,1019,583,196,71,-51,542,34,282,-62,3,284,148,1138,-79,-95,183,-337,-31,382,-55,68,-62,50,225,130,-247,19,-7,174,-64,84,-94
167854,902,470,45,-65,-65,365,-86,127,-199,-138,110,38,989,-185,-217,120,-538,-157,228,-172,-41,-164,-83,68,10,-345,-89,-151,46,-161,21,-182
167855,807,284,-33,-158,-54,244,-211,36,-271,-207,14,-24,919,-257,-321,60,-608,-217,178,-261,-127,-224,-143,-2,-60,-429,-187,-244,-18,-224,1,-216
167856,824,239,-22,-150,-58,280,-210,59,-276,-203,-6,17,941,-252,-321,-51,-619,-199,220,-257,-146,-235,-119,21,-49,-406,-158,-186,-35,-206,-14,-211
167857,882,369,78,-78,-72,359,-109,145,-182,-127,82,88,1013,-177,-229,-39,-510,-110,318,-167,-72,-86,-26,103,33,-328,-54,-52,48,-139,31,-172
167858,986,526,202,11,-80,469,24,222,-69,-29,242,193,1124,-58,-93,103,-400,-6,424,-59,91,53,65,227,175,-173,119,42,206,29,231,15
167859,1108,620,268,127,-58,611,134,392,53,97,371,329,1253,58,30,224,-293,124,517,74,198,24,180,341,291,-44,264,145,301,130,311,74
167860,1194,691,337,233,-56,696,211,470,130,188,450,397,1354,156,101,371,-142,237,600,151,267,102,308,425,371,47,339,252,413,221,387,163
167861,1197,720,354,223,-81,721,203,464,144,195,454,388,1366,159,111,393,-142,232,629,140,276,205,311,447,385,63,369,291,459,245,435,170
167862,1136,661,323,199,-58,696,175,438,100,161,443,371,1309,104,103,337,-103,198,599,114,246,238,281,436,354,48,380,216,413,210,453,216
167863,965,465,162,89,-61,555,42,307,-32,22,291,221,1173,-36,-53,142,-290,49,434,-35,96,84,165,289,183,-105,184,26,238,43,249,2
167864,800,293,20,-45,-50,411,-144,170,-176,-122,163,67,1027,-194,-196,-2,-456,-58,287,-185,-32,-88,78,140,44,-253,60,-61,124,-112,89,-150
167865,702,211,-102,-171,-46,298,-302,30,-273,-220,43,-44,926,-291,-304,-26,-542,-194,161,-290,-122,-201,-79,6,-63,-344,-3,-69,15,-195,25,-100
167866,732,236,-90,-154,-53,304,-266,34,-253,-221,105,-36,901,-294,-301,46,-665,-247,101,-292,-107,-133,-190,-72,-100,-353,23,-209,-61,-248,-29,-94
167867,806,295,36,-51,-44,406,-163,159,-145,-127,194,60,1005,-205,-200,214,-520,-128,201,-193,29,58,-60,31,-9,-234,236,-261,2,-199,43,-98
167868,945,380,195,46,-44,532,-110,273,-44,-10,254,173,1133,-71,-116,262,-361,-7,346,-54,152,165,100,201,160,-113,358,47,201,7,227,0
167869,1084,489,309,198,-49,637,14,402,75,91,462,274,1266,62,27,354,-280,94,479,78,266,270,201,317,282,6,365,305,355,167,373,182
167870,1172,641,362,272,-64,708,220,483,175,190,554,315,1351,126,117,482,-142,161,575,188,368,384,303,421,376,103,411,433,482,276,507,366
167871,1189,707,324,257,-66,737,273,465,161,210,546,338,1319,124,111,533,-88,164,605,199,405,573,311,419,410,138,518,350,451,280,489,433
167872,1121,675,290,202,-67,689,221,423,119,158,495,304,1267,93,77,509,-90,133,558,180,372,563,288,397,375,121,546,262,393,219,441,322
167873,1010,531,141,64,-57,538,78,316,-17,37,365,163,1146,-25,-15,390,-236,16,467,51,275,434,152,291,261,24,502,146,321,113,363,197
167874,878,363,1,-81,-58,410,-55,179,-151,-88,186,63,1028,-155,-133,332,-349,-105,337,-91,164,218,93,187,135,-100,377,159,252,30,247,181
167875,714,226,-99,-188,-38,329,-145,43,-258,-184,104,-11,930,-247,-241,280,-332,-197,231,-166,50,227,14,97,31,-230,212,20,113,-132,73,-10
167876,743,288,-72,-165,-41,307,-126,100,-237,-161,148,4,951,-202,-210,263,-358,-151,275,-142,76,297,26,102,41,-216,189,-48,116,-107,128,84
167877,861,414,18,-109,-69,359,-83,175,-175,-112,159,58,1024,-121,-144,299,-339,-59,357,-61,161,316,129,179,158,-111,282,20,211,74,351,383
167878,895,515,123,-11,-67,496,11,267,-70,8,269,153,1155,-15,-55,398,-221,53,464,56,286,283,216,306,286,6,474,123,340,253,579,613
167879,1000,604,212,108,-67,587,101,378,42,125,399,244,1260,92,66,452,-119,150,555,145,366,431,280,421,360,68,536,254,413,276,564,461
167880,1126,647,324,233,-62,682,186,492,139,205,457,359,1359,165,163,489,8,239,625,204,424,627,387,479,427,115,576,418,497,294,489,375
167881,1103,609,313,234,-71,711,186,481,155,225,493,387,1351,156,157,431,-9,262,601,200,426,495,408,451,423,87,539,485,515,298,493,377
167882,1029,536,240,176,-81,630,79,424,117,162,428,345,1294,120,86,354,-52,215,563,141,321,457,422,422,346,-4,419,586,515,208,369,282
167883,893,436,96,45,-51,515,-138,303,-4,36,313,213,1171,0,-34,246,-190,62,441,-13,183,342,310,282,186,-157,306,382,352,87,287,174
167884,754,303,-10,-80,-48,392,-367,170,-146,-100,145,84,1035,-137,-189,85,-381,-92,296,-147,45,205,155,105,27,-307,165,123,174,-61,109,4
167885,636,151,-106,-165,-44,278,-464,74,-264,-201,58,14,927,-244,-290,-31,-458,-194,172,-265,-76,30,15,7,-79,-403,24,162,113,-149,-10,-97
167886,608,113,-130,-162,-52,306,-351,75,-263,-174,59,6,886,-262,-263,-68,-384,-208,131,-268,-90,68,-30,-21,-110,-435,26,1,31,-166,-53,-80
167887,714,236,-39,-86,-66,384,-215,153,-207,-104,143,78,952,-219,-215,9,-394,-140,166,-224,-59,73,-35,0,-92,-417,80,-121,5,-183,-14,-56
167888,867,380,90,18,-66,522,-88,220,-101,16,219,211,1058,-102,-112,174,-321,0,275,-110,82,68,94,133,25,-277,243,35,138,-73,126,81
167889,998,526,251,128,-63,645,72,355,22,110,331,303,1185,12,9,294,-160,86,352,8,221,218,215,252,121,-152,440,137,229,15,186,141
167890,1087,616,302,210,-58,721,188,495,105,190,472,390,1264,73,100,365,-101,169,456,114,282,311,311,345,210,-75,471,186,326,102,234,140
167891,1120,715,322,235,-55,700,241,498,121,202,485,455,1288,112,111,398,9,230,523,127,321,300,403,422,270,-54,442,336,431,185,315,140
167892,1102,719,300,185,-44,667,203,465,74,166,419,446,1260,69,74,325,-82,185,499,83,250,288,341,398,245,-110,327,314,395,170,361,271
167893,979,599,213,66,-36,567,15,330,-40,48,246,291,1128,-36,-46,197,-248,58,382,-53,124,129,190,275,140,-197,224,153,255,53,256,170
167894,804,385,60,-100,-63,396,-201,178,-174,-101,30,119,995,-166,-184,15,-331,-93,241,-176,-40,-97,70,144,28,-311,83,36,159,-35,160,-46
167895,671,262,-106,-208,-55,273,-333,34,-275,-199,-83,0,892,-276,-286,-121,-408,-184,136,-268,-156,-203,8,56,-50,-415,-82,24,107,-116,107,-57
167896,703,296,-88,-187,-60,273,-347,38,-252,-185,-45,-29,923,-265,-274,-129,-460,-179,148,-259,-171,-144,-2,50,-46,-411,-130,-18,61,-222,-23,-139
167897,766,359,-39,-105,-54,390,-275,120,-186,-100,18,29,995,-155,-192,-45,-411,-104,218,-180,-103,-149,52,111,17,-344,-122,4,99,-190,-59,-259
167898,824,433,64,26,-58,508,-163,246,-58,23,175,163,1115,-35,-51,182,-242,51,350,-28,47,-71,229,270,165,-183,74,253,313,33,164,-64
167899,928,508,177,120,-92,587,-20,357,48,112,320,281,1222,47,27,314,-124,154,455,59,175,49,303,340,274,-84,208,271,356,91,255,73
167900,1054,619,298,225,-73,657,117,443,138,201,409,367,1311,134,123,397,-15,247,533,155,277,119,355,420,347,5,341,289,393,150,319,95
167901,1096,649,314,250,-71,675,96,464,170,229,465,394,1368,177,161,376,64,286,570,206,311,176,456,512,421,84,455,483,529,246,421,126
167902,1058,590,244,209,-52,616,-61,440,133,180,448,357,1348,157,137,318,-21,244,540,184,275,116,402,468,389,65,414,399,475,183,380,132
167903,865,450,100,69,-41,483,-283,307,-1,60,292,204,1190,7,-30,181,-279,79,387,27,109,-2,195,295,222,-80,240,67,215,-21,232,96
167904,733,291,-39,-80,-53,383,-396,174,-119,-72,165,81,1056,-122,-158,-28,-444,-44,283,-87,9,-83,99,191,113,-207,127,-40,106,-81,189,60
167905,610,43,-134,-164,-39,259,-460,78,-227,-191,22,-45,959,-240,-304,-180,-623,-166,186,-209,-103,-90,-1,82,-17,-317,40,-142,23,-170,75,-82
167906,633,18,-115,-158,-50,251,-403,81,-229,-187,30,-50,941,-234,-305,-165,-603,-224,152,-216,-105,-42,-113,9,-59,-336,-3,-223,-69,-240,24,-121
167907,753,188,-41,-68,-69,317,-266,154,-176,-111,121,42,1018,-172,-222,-43,-438,-169,216,-152,-11,-6,-93,60,21,-249,87,-182,2,-189,104,4
167908,916,413,115,37,-64,448,-35,271,-55,-16,234,166,1130,-67,-113,172,-366,-52,369,-36,120,79,50,197,155,-132,228,-11,150,-67,208,45
167909,1064,616,279,181,-72,527,161,418,93,106,353,306,1264,61,13,299,-180,95,519,107,277,187,217,333,286,11,382,132,282,36,288,58
167910,1146,721,356,259,-73,604,239,520,172,184,444,405,1362,174,118,485,-26,207,581,204,406,319,302,441,402,135,531,241,409,170,394,234
167911,1147,754,350,306,-59,675,270,558,179,225,460,418,1390,210,175,567,-34,227,630,269,465,484,355,492,445,184,603,323,498,247,481,336
167912,1120,726,319,254,-50,657,232,532,131,181,443,414,1351,171,162,454,-31,217,603,236,433,554,356,475,441,163,562,341,517,260,509,378
167913,974,581,154,94,-56,535,58,404,15,37,414,265,1225,45,21,328,-159,90,476,121,291,432,231,338,310,45,450,241,407,178,443,314
167914,806,447,40,-50,-52,385,-128,256,-121,-101,281,148,1073,-94,-133,242,-364,-77,360,-13,143,249,46,172,159,-102,288,31,206,-4,224,106
167915,708,317,-37,-185,-37,258,-213,93,-244,-208,147,90,963,-200,-228,88,-485,-176,226,-136,50,157,-65,65,43,-253,166,-103,60,-197,22,-120
167916,700,295,-65,-166,-54,284,-149,115,-229,-181,184,80,991,-191,-206,130,-480,-133,251,-143,41,144,-38,97,71,-250,215,-46,63,-206,-5,-47
167917,814,380,61,-115,-31,371,-110,176,-141,-96,273,162,1082,-108,-68,291,-361,-42,373,-42,162,226,68,187,178,-121,351,114,206,-45,174,138
167918,906,521,188,-14,-57,469,-4,300,-52,8,404,276,1209,-19,22,483,-262,63,458,57,297,295,193,313,264,-9,456,250,307,69,348,233
167919,1045,635,279,120,-65,598,185,424,69,148,525,398,1324,113,95,603,-136,196,602,191,423,473,334,437,397,104,586,386,436,214,512,350
167920,1121,716,322,188,-63,658,302,486,156,203,552,429,1375,189,161,670,-80,246,667,272,498,689,379,511,485,191,742,373,504,286,625,494
167921,1149,726,400,238,-80,675,315,517,180,227,587,460,1417,217,193,713,-43,288,695,312,530,713,404,533,519,234,806,412,531,329,678,602
167922,1134,678,417,225,-40,600,220,535,154,178,513,486,1404,190,138,596,41,290,674,254,470,669,436,499,488,193,787,418,513,326,665,591
167923,995,488,262,83,-47,478,43,409,27,42,305,343,1261,43,-13,364,-123,157,540,103,306,531,314,326,337,28,603,313,398,201,524,432
167924,833,342,112,-68,-73,314,-115,242,-111,-113,128,175,1086,-94,-183,147,-275,-29,395,-52,116,343,162,174,160,-154,336,198,233,-23,232,80
167925,725,209,-53,-208,-54,200,-249,89,-257,-228,-13,51,955,-215,-321,24,-452,-143,299,-175,-14,188,29,47,33,-296,175,46,106,-148,125,-35
167926,747,208,-51,-211,-39,223,-262,102,-239,-195,33,71,967,-204,-282,65,-437,-149,279,-179,-16,186,-76,32,14,-291,168,-135,23,-196,106,-15
167927,785,276,13,-139,-66,285,-215,156,-158,-122,91,126,1044,-133,-172,173,-299,-97,332,-123,67,205,5,92,64,-229,262,-31,100,-147,154,2
167928,851,378,79,-30,-72,410,-78,242,-73,-17,189,216,1160,-20,-71,272,-133,31,435,-22,197,210,204,220,179,-114,374,206,260,21,269,177
167929,994,439,229,106,-64,581,84,359,64,114,345,302,1280,97,37,384,-66,153,556,95,295,425,327,348,303,-8,503,241,361,153,417,329
167930,1076,543,366,208,-68,676,195,493,169,213,442,369,1361,187,151,419,-63,237,638,178,358,579,376,435,368,50,537,238,421,235,557,424
167931,1089,604,381,243,-77,681,147,494,164,234,466,398,1357,205,172,434,-38,212,623,185,384,486,312,426,371,51,530,288,451,270,559,456
167932,1045,562,282,187,-72,648,59,389,118,188,440,343,1308,161,116,420,-93,149,568,116,351,340,229,367,319,4,507,273,398,189,445,357
167933,880,428,127,37,-60,508,-41,218,-4,66,285,234,1178,18,-6,269,-248,20,429,-35,176,130,136,219,143,-186,269,197,232,-76,85,-97
167934,719,293,-11,-102,-58,364,-168,104,-148,-62,135,116,1058,-111,-132,134,-314,-74,301,-154,48,-4,90,124,36,-312,84,105,189,-95,78,-92
167935,647,205,-70,-209,-40,238,-289,-8,-259,-157,36,0,941,-238,-236,46,-485,-201,188,-243,-57,-23,-93,-5,-84,-430,-42,-114,-3,-244,-39,-188
167936,637,202,-95,-212,-66,261,-269,13,-259,-171,39,10,931,-232,-239,8,-465,-212,177,-245,-86,-22,-96,-10,-90,-429,-70,-115,-1,-257,-45,-181
167937,712,287,-37,-146,-83,331,-187,116,-191,-112,109,91,1010,-144,-166,28,-438,-130,245,-172,-12,18,-41,72,-23,-344,40,-51,77,-183,11,-79
167938,875,423,141,-11,-48,484,-63,255,-51,44,270,217,1117,-22,-8,182,-302,12,376,-20,123,52,101,195,126,-204,146,75,186,-61,88,-35
167939,967,502,301,146,-56,570,80,380,65,160,385,361,1266,103,102,307,-81,140,502,102,249,181,283,318,254,-95,222,267,336,77,205,81
167940,1067,577,360,237,-63,661,169,474,171,241,519,429,1370,189,187,378,25,249,617,186,346,250,399,416,351,0,302,395,453,183,331,183
167941,1056,629,395,260,-53,673,197,505,204,256,484,425,1403,206,168,435,66,260,632,194,370,273,412,434,369,28,366,413,480,210,403,192
167942,972,542,353,209,-67,603,80,459,161,200,366,367,1340,143,105,378,-44,190,582,122,275,344,291,368,297,-34,292,248,381,114,357,176
167943,818,327,174,69,-67,446,-139,286,6,27,148,234,1195,-8,-55,234,-242,53,447,-27,94,177,134,247,145,-194,120,91,213,-63,172,57
167944,713,168,1,-88,-69,320,-286,106,-146,-98,23,76,1062,-139,-206,91,-367,-87,303,-180,-45,-11,18,78,-16,-362,-11,-116,7,-266,-70,-204
167945,656,143,-91,-164,-47,229,-375,25,-237,-202,-43,-35,961,-231,-289,-167,-494,-187,191,-271,-138,-34,-78,-2,-107,-447,-55,-236,-87,-350,-121,-315
167946,680,73,-66,-138,-52,292,-428,63,-228,-179,11,-41,968,-219,-240,-220,-484,-156,218,-243,-105,-19,-34,61,-53,-391,-23,-54,38,-257,-54,-222
167947,769,198,29,-59,-59,340,-358,179,-143,-125,77,65,1055,-156,-164,-45,-398,-42,315,-175,-7,37,79,182,53,-307,51,33,170,-138,47,-112
167948,853,335,146,66,-63,451,-171,302,-2,-15,261,232,1191,-26,-55,180,-354,118,440,-32,139,92,257,344,211,-158,208,152,364,59,231,39
167949,958,485,239,179,-59,622,34,427,123,116,399,367,1350,108,80,391,-191,238,590,103,317,139,378,430,326,4,388,235,459,163,356,235
167950,1075,550,385,252,-58,656,171,525,199,199,444,464,1431,173,160,485,-52,321,680,197,431,354,406,506,408,115,580,398,502,195,359,246
167951,1121,577,415,271,-62,674,235,556,207,218,466,451,1459,206,159,505,39,334,664,190,424,410,449,530,391,106,541,444,490,172,328,159
167952,1061,512,310,236,-53,654,187,512,163,186,466,427,1407,151,132,414,-39,265,599,143,332,366,398,466,347,25,351,274,402,126,309,205
167953,907,365,140,92,-57,504,-7,360,20,41,302,309,1266,6,-3,287,-187,133,473,14,211,264,287,329,229,-80,248,139,298,66,275,277
167954,735,257,20,-79,-59,381,-152,214,-148,-104,173,145,1110,-126,-121,151,-341,-42,320,-84,115,194,123,193,92,-174,288,43,195,-43,226,234
167955,666,193,-111,-189,-39,292,-192,59,-255,-169,105,-6,990,-209,-187,50,-447,-179,199,-161,40,138,-20,85,-1,-256,258,-57,72,-161,129,131
167956,699,248,-69,-185,-39,327,-126,77,-252,-154,147,24,992,-201,-171,124,-487,-162,233,-185,34,143,-61,73,-21,-282,181,-60,62,-198,4,-52
167957,756,374,16,-98,-48,386,-61,156,-165,-96,195,111,1057,-123,-105,221,-512,-76,295,-92,96,267,61,168,62,-221,231,106,184,-112,50,52
167958,858,519,144,-16,-52,470,13,243,-49,9,306,209,1154,-4,11,350,-349,60,411,35,249,439,198,258,186,-88,401,214,280,-36,156,104
167959,1017,674,266,94,-57,592,141,328,65,121,420,317,1265,123,128,499,-197,169,561,170,381,505,298,403,320,42,529,238,370,92,311,218
167960,1110,721,361,178,-84,696,277,410,137,207,494,428,1344,200,193,547,-49,239,619,219,397,540,366,475,373,57,441,245,414,138,324,219
167961,1162,740,378,214,-61,724,325,456,188,254,566,476,1387,237,232,572,30,286,679,265,453,778,414,505,425,126,580,286,462,197,425,357
167962,1128,684,340,162,-50,661,247,445,140,204,455,420,1363,184,166,488,9,272,643,200,397,709,416,465,390,92,597,205,451,206,426,404
167963,943,509,199,8,-62,534,26,299,-13,32,260,252,1198,19,-22,317,-107,156,492,2,235,386,297,352,228,-80,415,290,382,114,273,168
167964,796,340,62,-131,-74,404,-117,151,-159,-125,144,113,1070,-145,-164,202,-225,13,347,-149,85,208,140,212,79,-251,222,375,345,12,156,63
167965,693,225,-53,-213,-56,264,-212,44,-259,-230,60,-11,947,-254,-274,139,-286,-114,208,-248,-17,149,-2,52,-35,-356,92,121,143,-139,53,22
167966,733,258,-20,-190,-68,275,-158,79,-251,-224,107,13,931,-258,-287,137,-290,-109,205,-249,-20,234,-2,42,-50,-340,154,4,88,-153,89,58
167967,817,372,74,-101,-44,372,-56,182,-151,-141,208,126,1020,-173,-194,160,-195,-16,271,-182,71,303,98,162,27,-286,232,36,180,-90,132,131
167968,938,523,228,28,-65,445,16,304,-35,-45,287,287,1151,-45,-94,353,-86,125,379,-71,202,330,249,280,124,-159,363,141,283,28,236,249
167969,1047,610,374,166,-72,552,111,457,74,73,411,455,1298,73,22,481,75,259,532,68,323,466,418,421,256,-20,506,311,454,204,387,394
167970,1142,665,439,248,-70,676,171,579,178,178,509,548,1386,162,143,540,135,340,622,152,408,541,485,515,350,34,574,379,546,275,446,418
167971,1167,666,441,252,-81,700,222,574,180,203,548,517,1364,174,157,589,75,345,629,183,427,466,452,501,376,65,593,357,517,295,476,465
167972,1145,648,417,220,-59,653,215,488,124,156,534,480,1322,150,118,533,61,295,595,146,381,420,392,453,305,20,527,299,457,200,402,325
167973,961,533,258,76,-50,540,81,398,-7,29,413,329,1207,13,5,300,-101,127,453,6,237,402,229,303,161,-133,379,187,323,41,234,145
167974,800,451,122,-87,-56,376,-86,247,-156,-120,223,182,1068,-130,-129,117,-299,-40,307,-120,92,232,92,138,24,-271,246,41,161,-107,97,33
167975,733,311,-6,-188,-47,268,-240,133,-245,-217,84,71,956,-220,-239,5,-374,-152,194,-217,-38,11,-21,9,-86,-386,85,-122,42,-246,-16,-106
167976,723,220,-23,-221,-43,256,-286,77,-243,-174,62,12,934,-223,-248,5,-370,-160,174,-231,-53,-19,-23,-7,-99,-420,27,-150,4,-291,-54,-203
167977,758,293,26,-158,-47,342,-230,120,-197,-98,156,18,984,-141,-161,63,-414,-152,223,-140,9,-3,-26,46,-38,-353,54,-97,56,-243,-2,-88
167978,818,367,76,-48,-69,508,-189,228,-75,3,282,105,1091,-35,-43,167,-327,-64,311,-73,90,3,51,140,47,-248,112,41,155,-148,91,1
167979,927,570,168,87,-53,589,-54,335,58,117,365,214,1208,81,72,268,-203,48,468,30,187,140,178,275,179,-150,209,149,238,-45,171,80
167980,991,689,287,160,-71,645,89,403,128,209,427,314,1290,171,144,317,-121,150,585,118,274,330,266,398,290,-27,366,281,386,39,275,119
167981,1038,712,333,190,-69,680,151,422,153,233,481,350,1333,208,171,393,-105,220,623,162,320,395,348,454,362,19,388,379,463,154,378,256
167982,1022,689,264,158,-53,669,107,387,106,204,490,294,1288,162,147,383,-187,179,597,130,295,289,316,409,336,-3,318,240,411,138,351,193
167983,884,505,140,45,-47,538,-2,238,-5,60,340,162,1175,35,7,338,-309,38,446,12,184,77,170,299,206,-119,210,110,303,16,200,-59
167984,718,320,-31,-104,-46,402,-116,92,-115,-67,164,23,1026,-96,-123,245,-421,-92,341,-100,72,35,40,191,98,-228,82,25,208,-77,113,-169
167985,618,186,-192,-218,-37,300,-215,-70,-252,-178,79,-131,886,-228,-225,169,-606,-234,201,-209,-22,-132,-118,31,-20,-323,-35,-94,72,-215,-9,-262
167986,605,163,-188,-219,-67,288,-225,-69,-247,-189,73,-150,879,-224,-202,36,-661,-243,170,-190,-58,-150,-105,27,-19,-305,-28,-38,106,-196,50,-157
167987,657,271,-119,-112,-54,361,-142,37,-149,-114,53,-58,971,-141,-167,31,-450,-128,273,-145,-3,-20,18,157,64,-232,2,78,179,-86,134,-114
167988,770,414,6,10,-58,454,-31,166,-45,1,174,80,1098,-29,-36,152,-303,25,400,-3,95,103,173,284,175,-130,83,314,333,28,195,-19
167989,961,521,171,135,-69,587,98,326,88,116,353,244,1235,100,110,342,-156,159,530,135,225,204,287,395,300,2,233,376,406,140,295,138
167990,1053,588,277,209,-75,665,197,402,158,204,426,328,1331,182,182,431,-63,224,624,211,336,288,343,443,350,70,352,255,390,147,322,168
167991,1068,655,351,248,-58,695,265,440,209,243,514,364,1359,201,249,369,-86,269,645,246,374,344,351,450,372,95,374,259,408,149,311,165
167992,1036,582,307,198,-27,669,209,395,164,212,478,335,1328,162,209,281,-95,212,584,175,312,307,249,381,325,27,306,72,290,50,247,111
167993,895,456,165,58,-68,520,43,227,3,76,302,149,1161,22,28,197,-349,6,431,32,159,183,15,186,158,-125,185,-178,122,-78,163,38
167994,724,280,0,-92,-61,369,-129,89,-134,-80,158,5,1020,-118,-146,131,-610,-135,277,-82,49,142,-73,68,28,-239,83,-269,10,-153,94,43
167995,617,149,-118,-198,-54,285,-245,7,-223,-188,29,-61,931,-205,-240,-13,-639,-218,181,-204,-76,47,-142,0,-92,-387,-36,-274,-76,-280,-62,-192
167996,621,234,-56,-176,-38,293,-265,57,-209,-188,38,8,952,-224,-243,-65,-550,-213,185,-251,-113,-35,-168,-58,-144,-441,-118,-164,-86,-360,-170,-398
167997,752,333,72,-73,-37,369,-174,196,-111,-99,144,171,1057,-126,-160,62,-363,-64,323,-147,-1,52,17,90,-12,-303,32,24,99,-185,3,-143
167998,878,497,224,15,-61,443,-35,301,-11,0,247,283,1174,2,-41,184,-240,76,460,-32,123,211,205,244,127,-168,226,185,293,-8,195,7
