,Fp1,Fp2,F7,F3,Fz,F4,F8,FC5,FC1,FC2,FC6,T7,C3,Cz,C4,T8,TP9,CP5,CP1,CP2,CP6,TP10,P7,P3,Pz,P4,P8,PO9,O1,Oz,O2,PO10
48403,167,195,448,157,26,486,135,502,131,127,318,335,340,-90,341,277,343,236,54,264,150,582,510,343,407,496,539,31,351,269,23,468
48404,177,227,552,157,31,529,110,544,151,134,317,375,370,-72,339,313,427,269,68,270,128,566,627,365,407,484,492,110,349,271,14,453
48405,147,201,599,150,43,554,102,545,160,131,305,361,396,-74,317,399,378,325,77,267,111,615,881,414,420,484,517,118,443,356,86,426
48406,161,177,668,155,32,526,71,580,151,129,260,368,383,-75,300,388,290,302,73,260,89,524,477,375,421,449,474,183,449,340,20,217
48407,182,217,461,170,45,531,99,538,145,135,250,409,371,-77,309,364,386,296,70,255,96,470,367,387,435,468,447,317,446,302,-14,303
48408,141,243,454,201,40,567,102,494,116,117,261,317,349,-77,310,310,377,228,64,251,88,476,458,369,413,470,443,411,481,338,42,423
48409,182,261,468,158,20,537,108,500,130,113,271,324,348,-71,308,299,338,244,65,248,80,536,462,348,399,465,479,176,422,340,68,483
48410,148,274,433,150,21,516,109,432,137,119,306,337,332,-77,308,299,333,242,47,231,80,587,422,325,366,436,480,-18,329,258,27,455
48411,93,201,448,198,30,511,120,446,145,120,271,324,341,-86,304,380,324,243,24,229,72,483,442,306,333,421,459,25,248,165,-56,430
48412,78,144,483,234,40,514,149,506,155,94,249,350,344,-102,293,385,320,231,13,210,15,444,465,308,329,397,413,86,261,183,-55,440
48413,69,157,473,196,35,537,125,526,148,105,260,387,337,-102,288,362,339,224,14,206,22,329,463,301,335,417,421,37,290,200,-37,376
48414,87,205,460,197,43,565,118,487,160,121,305,398,334,-101,297,363,333,196,27,222,61,473,494,323,354,439,474,22,335,285,15,407
48415,52,250,449,212,45,569,95,502,154,111,256,381,322,-105,290,325,231,187,20,229,45,492,484,341,341,418,463,122,345,252,-49,350
48416,21,218,503,230,42,552,75,555,163,107,211,335,341,-87,261,315,391,241,16,215,33,474,492,332,350,386,448,22,273,159,-163,253
48417,71,229,435,255,45,546,101,574,180,131,294,383,374,-76,319,437,378,297,53,252,101,671,544,381,395,453,511,145,396,302,0,462
48418,34,238,440,262,42,519,101,562,180,143,278,386,371,-80,311,374,395,307,58,263,107,610,552,396,404,490,520,158,433,356,88,555
48419,81,210,462,240,26,461,67,533,169,134,265,346,351,-103,288,307,388,247,36,235,110,550,517,361,381,464,501,142,380,295,29,477
48420,143,150,471,230,40,491,94,539,181,147,323,329,347,-81,318,328,373,237,50,233,122,492,500,339,368,438,509,104,365,232,-59,290
48421,79,61,410,201,32,551,24,413,170,138,374,358,319,-88,326,236,339,177,21,226,85,572,427,293,345,412,500,-42,269,179,-64,445
48422,104,38,388,197,29,544,-108,402,147,135,441,343,280,-85,325,225,316,135,1,219,87,600,470,270,304,389,546,11,278,186,-101,384
48423,188,183,481,213,29,491,86,461,163,126,282,229,294,-74,292,305,352,188,13,193,30,511,540,279,309,374,315,123,344,228,-67,368
48424,227,245,479,227,43,477,146,419,167,126,204,213,308,-75,290,432,311,204,34,202,57,508,506,296,329,412,443,150,371,274,9,611
48425,238,244,446,223,45,485,12,416,160,112,214,279,276,-107,263,349,262,176,-5,192,26,587,453,260,292,383,452,131,333,203,-71,385
48426,216,245,461,173,35,498,66,422,173,111,200,321,281,-98,253,343,277,176,-17,170,6,500,475,244,260,334,366,87,326,167,-150,100
48427,213,249,475,156,25,516,90,437,156,110,205,307,280,-113,246,359,287,198,-10,164,35,559,488,251,269,339,388,94,335,211,-133,116
48428,212,189,446,123,23,514,80,454,144,100,213,294,288,-110,237,354,281,204,-22,163,21,523,497,277,276,350,354,138,317,169,-119,189
48429,163,106,416,199,36,499,70,487,149,107,203,288,292,-101,245,359,287,180,-20,183,28,528,480,260,280,352,388,-48,231,136,-116,274
48430,108,68,412,262,14,493,64,543,151,103,201,305,292,-97,253,338,347,185,-1,184,26,594,504,276,290,393,441,31,289,203,-43,370
48431,134,86,439,152,22,489,19,545,156,97,189,277,300,-89,225,272,421,176,10,179,-26,650,514,277,290,390,431,146,332,240,-54,390
48432,115,68,450,116,19,488,23,515,152,106,188,200,272,-91,226,232,380,160,-12,146,-22,461,476,244,262,345,353,95,289,165,-124,258
48433,61,136,432,172,26,485,39,496,157,120,209,234,313,-80,239,280,340,192,-17,174,-1,411,475,246,295,352,401,73,287,173,-95,343
48434,27,111,429,204,18,458,-41,441,143,106,179,289,283,-92,225,314,311,190,-3,167,8,461,461,237,286,362,415,47,269,176,-115,346
48435,4,16,456,181,2,431,-59,408,104,85,150,268,269,-111,240,347,285,170,-18,178,29,421,462,246,302,387,422,65,291,195,-45,371
48436,-3,69,472,206,4,433,-60,470,129,106,144,227,300,-88,263,235,237,177,10,216,78,498,481,286,335,424,456,128,343,255,4,477
48437,-34,139,376,219,0,444,-51,444,145,109,150,200,276,-92,262,163,217,154,11,202,62,433,447,274,313,417,432,113,320,231,-11,454
48438,-92,140,344,245,-1,418,-41,429,152,92,147,245,263,-100,247,240,328,149,0,178,1,451,439,264,308,385,357,15,282,174,-84,355
48439,-61,121,453,290,7,431,-52,461,151,82,126,244,269,-85,221,298,220,152,-12,177,-1,475,415,259,290,372,356,21,268,171,-123,290
48440,-30,96,248,243,12,464,-67,445,153,83,143,296,278,-100,210,288,176,149,-14,160,-16,422,398,260,281,359,378,77,307,191,-115,292
48441,-13,108,325,228,0,442,-85,481,165,94,161,287,289,-105,205,260,278,154,-22,142,-29,440,416,247,286,328,323,41,284,157,-177,142
48442,45,158,424,199,27,435,-66,447,176,88,149,201,302,-109,201,113,254,184,-21,152,-21,462,423,252,302,334,366,64,304,186,-93,238
48443,141,220,410,163,39,485,-10,364,152,87,234,183,301,-122,251,169,217,167,-35,159,9,428,408,256,273,353,358,-14,274,171,-108,302
48444,142,228,397,141,36,439,42,325,141,111,260,196,269,-110,273,377,203,137,-27,179,39,541,418,257,294,365,350,-13,273,199,-130,313
48445,118,139,404,114,19,348,-67,390,148,101,193,200,288,-107,250,355,206,177,15,200,29,528,453,284,321,384,386,58,338,243,-45,394
48446,71,81,415,119,-5,408,-91,397,138,104,216,190,305,-105,249,272,168,221,18,195,18,431,730,302,312,373,383,41,326,231,-54,332
48447,45,56,417,181,-12,441,-27,447,154,90,196,228,314,-109,258,290,244,208,13,211,38,413,642,309,323,375,411,16,307,212,-60,363
48448,40,71,396,196,2,470,-21,494,154,105,221,262,326,-97,251,318,346,197,33,220,43,501,293,324,335,413,450,144,378,292,12,430
48449,56,114,382,185,-11,496,35,522,136,107,251,339,325,-82,261,317,356,184,26,204,52,420,298,305,331,388,419,138,333,231,-51,360
48450,68,94,310,133,-21,468,78,473,140,112,280,332,307,-81,295,268,360,127,10,215,70,490,445,298,333,406,422,115,351,229,-52,380
48451,58,94,290,148,-6,488,-27,489,150,132,354,220,300,-80,322,195,331,124,18,214,93,572,483,312,336,433,437,201,426,287,-7,384
48452,23,85,328,190,-6,473,-60,503,154,129,333,135,299,-97,302,255,289,144,-4,196,62,469,396,271,322,432,432,45,336,215,-58,387
48453,43,97,343,152,-9,404,73,473,150,93,87,164,291,-103,269,359,232,121,-7,184,47,512,388,236,285,410,453,-77,217,113,-131,371
48454,81,61,392,56,6,440,-22,388,162,96,149,239,302,-79,262,365,196,157,12,200,36,486,398,245,302,392,413,-31,229,123,-153,225
48455,51,-21,326,39,-13,437,-39,386,156,106,175,222,320,-72,288,323,175,167,13,222,51,523,445,303,336,425,463,194,377,240,-71,278
48456,-22,-16,314,129,-14,448,-58,413,141,112,148,186,301,-66,272,299,228,171,29,243,65,445,487,338,364,438,492,318,445,308,-14,367
48457,-1,57,333,133,0,465,-63,416,149,93,170,206,303,-66,267,302,253,180,29,237,53,391,430,306,354,414,443,86,327,231,-61,324
48458,39,116,424,185,7,465,-38,475,147,101,191,218,322,-75,256,287,202,145,7,192,6,513,361,249,310,353,373,-239,182,102,-153,218
48459,-11,157,388,198,4,458,-5,494,143,105,211,206,296,-85,252,287,211,123,13,178,5,430,361,261,293,354,351,-180,200,103,-191,210
48460,-10,125,350,208,-1,481,-2,423,136,105,218,223,284,-85,266,317,252,103,11,188,34,508,385,277,309,358,399,-84,230,125,-135,227
48461,-31,2,348,195,6,465,-19,437,145,99,203,195,294,-109,254,291,231,121,0,169,0,573,390,273,292,326,369,-72,185,56,-211,177
48462,-53,-31,365,197,-1,543,-36,459,144,114,189,189,306,-97,258,249,203,157,15,167,21,449,391,262,281,335,408,-83,188,71,-206,261
48463,-64,14,320,202,-20,571,-77,405,142,94,161,167,283,-106,223,205,147,146,-10,159,2,425,362,255,279,329,385,-98,223,118,-146,290
48464,-23,76,343,148,-1,381,-92,338,133,91,181,85,274,-99,240,175,114,113,-14,144,-37,380,351,236,267,321,341,-108,214,84,-179,220
48465,48,120,370,136,17,278,-99,340,126,98,181,135,264,-99,267,227,197,131,-4,176,20,468,376,261,268,329,387,-31,243,128,-119,303
48466,29,122,381,179,45,449,8,370,143,110,201,199,282,-96,275,413,236,133,2,190,48,526,430,270,295,362,429,80,316,206,-48,375
48467,11,93,381,213,57,536,43,411,142,120,246,190,282,-106,289,456,221,159,14,225,48,495,431,284,327,403,474,100,349,244,-27,450
48468,35,69,386,231,23,463,20,416,156,97,245,249,275,-115,263,303,255,146,3,194,42,520,431,277,301,382,448,62,316,188,-91,434
48469,74,118,352,197,26,439,-22,393,161,89,202,354,281,-103,255,246,231,127,-25,185,48,531,425,250,297,364,446,27,261,112,-126,433
48470,98,153,311,171,7,383,-3,400,151,89,184,326,300,-111,240,326,173,139,-2,195,36,489,419,250,309,387,426,-15,249,145,-85,426
48471,134,115,421,181,17,356,3,435,175,95,208,126,329,-102,259,420,299,180,33,211,61,529,476,300,333,403,402,123,318,165,-123,285
48472,146,116,563,175,36,416,16,459,189,98,207,61,323,-102,276,443,280,162,22,209,91,502,494,324,343,427,471,146,353,196,-102,260
48473,120,87,415,183,51,458,3,476,186,110,161,201,326,-94,268,346,282,180,29,228,80,502,479,319,349,442,550,48,337,215,-76,242
48474,3,78,285,142,24,476,-30,427,156,114,171,236,303,-93,257,243,258,175,22,208,46,519,469,300,341,403,352,8,307,184,-92,253
48475,-18,97,345,162,35,494,-55,416,146,103,191,206,284,-92,256,205,239,130,-1,198,26,441,451,257,304,365,347,6,221,126,-151,131
48476,-27,98,334,171,22,504,-62,373,161,96,164,202,289,-80,242,253,216,123,-8,191,-4,399,422,248,305,371,294,-21,224,129,-110,272
48477,-40,-1,306,141,-7,423,-142,347,160,77,117,174,268,-73,207,213,197,114,-9,170,-23,438,422,232,298,333,319,-91,192,84,-197,263
48478,-47,-3,237,114,-3,383,-134,361,182,97,122,132,287,-69,220,260,177,142,6,189,-16,405,423,263,304,339,306,-19,193,72,-216,231
48479,-82,42,208,103,-13,371,-57,353,160,93,130,107,278,-86,244,362,144,103,8,202,10,420,355,238,305,349,338,-177,152,81,-163,307
48480,-50,113,256,105,-9,385,26,386,145,83,200,166,285,-98,258,371,137,114,-2,186,27,525,383,230,290,345,321,-138,191,83,-186,237
48481,-52,108,338,158,-2,432,-2,411,150,75,296,222,291,-94,259,283,213,144,9,193,16,456,421,277,309,364,323,-39,254,133,-134,226
48482,-25,89,398,119,-22,434,-83,416,150,64,265,239,305,-115,227,281,246,166,-1,170,-18,406,481,275,294,320,261,113,296,133,-204,5
48483,41,99,433,89,-27,355,25,428,165,48,21,301,323,-113,195,306,217,202,17,150,-23,325,510,296,303,305,261,149,332,152,-195,82
48484,92,132,437,148,18,420,39,445,177,92,151,276,338,-75,239,309,238,201,42,187,7,311,479,313,314,347,343,62,298,160,-145,233
48485,57,108,404,179,-7,435,22,435,173,78,160,228,312,-109,244,306,267,229,41,184,14,454,697,299,316,346,360,-15,279,161,-154,279
48486,94,104,407,206,-7,437,5,459,174,93,178,220,304,-112,244,288,299,219,14,184,38,529,662,301,306,362,422,-155,211,130,-141,361
48487,156,98,452,185,12,487,-5,481,185,114,194,305,335,-89,255,271,349,164,23,189,68,406,278,273,317,371,505,-146,207,145,-100,420
48488,63,82,366,166,9,483,-2,410,178,103,171,358,296,-100,244,279,290,105,-4,176,57,350,237,231,290,343,460,-49,242,165,-111,375
48489,-79,77,399,174,6,486,11,426,160,88,204,235,270,-126,216,296,120,52,-41,133,-28,596,259,190,242,266,338,-83,171,68,-225,194
48490,-151,87,337,197,17,481,9,429,158,94,184,177,277,-116,205,332,251,81,-25,117,-53,524,317,194,239,252,322,-47,184,63,-232,160
48491,-124,79,311,248,34,453,-19,474,163,88,182,166,281,-115,203,314,217,100,-23,118,-40,427,340,200,227,251,297,-55,176,65,-244,225
48492,-104,24,308,227,19,380,-124,457,150,85,119,111,285,-114,198,266,172,100,-38,111,-80,451,360,211,232,249,308,-26,231,104,-211,246
48493,-76,64,312,162,10,351,-112,447,160,92,137,120,280,-102,194,281,233,116,-44,120,-48,430,344,214,247,277,389,41,216,82,-206,339
48494,-52,68,320,118,25,395,-58,410,147,88,172,197,262,-100,226,320,192,133,-39,140,-14,486,351,240,248,298,445,83,254,114,-155,402
48495,16,20,358,143,47,476,-32,406,158,121,186,213,271,-103,223,318,215,126,-36,131,-32,512,357,223,229,270,371,-27,212,71,-206,296
48496,76,69,388,177,18,490,-28,395,146,105,174,119,261,-120,216,296,257,79,-48,127,-12,531,356,205,232,277,394,-60,188,62,-181,406
48497,53,45,353,181,17,486,-1,464,155,103,198,163,266,-118,217,284,210,100,-46,134,2,527,348,199,236,289,422,-14,217,103,-173,391
48498,-9,46,270,162,20,505,1,476,139,109,197,209,263,-117,211,257,242,92,-42,147,15,473,391,188,225,293,412,19,235,90,-173,344
48499,-19,72,273,148,11,505,2,484,152,108,189,140,272,-113,230,286,230,110,-49,139,16,437,417,192,237,284,374,47,237,74,-209,191
48500,-7,11,298,145,-2,458,-10,498,159,92,185,126,292,-98,228,348,191,126,-25,143,13,362,436,221,237,302,388,46,243,83,-192,198
48501,12,-96,255,186,-16,442,-33,445,151,77,169,203,278,-119,214,418,205,116,-50,127,-9,262,427,203,227,303,399,-101,185,70,-187,239
48502,5,-67,242,222,-19,403,-46,391,160,77,185,239,280,-100,217,331,250,127,-36,133,-8,624,491,222,235,315,412,-7,253,132,-131,320
48503,1,20,312,229,-7,420,-32,470,185,84,202,264,318,-98,235,210,244,136,-14,141,39,708,431,226,244,312,421,2,245,111,-125,304
48504,-21,69,341,239,8,492,18,492,194,90,216,250,321,-100,218,217,213,93,-28,131,11,511,362,207,226,270,388,-54,180,45,-188,229
48505,-61,63,301,163,-3,450,3,433,172,94,183,168,326,-102,218,317,170,94,-17,143,-8,511,397,222,233,307,404,-2,236,89,-171,266
48506,-67,65,311,54,-26,419,-9,433,179,96,161,164,339,-85,208,233,184,153,0,154,-28,579,427,242,250,324,391,141,321,184,-78,395
48507,-48,32,343,53,-32,392,-47,403,176,76,129,225,329,-104,197,210,181,149,14,145,-22,493,465,268,268,320,418,241,372,238,-52,476
48508,31,91,474,154,-16,391,-54,371,154,77,122,251,326,-91,186,241,248,141,4,148,-21,492,453,242,267,312,437,94,310,164,-93,422
48509,34,108,502,195,5,400,-68,405,159,73,138,187,307,-98,177,235,254,122,-15,141,-20,571,386,217,261,308,435,-172,196,127,-100,385
48510,-58,86,256,78,21,425,-39,387,155,89,212,181,324,-88,205,246,243,135,-17,138,2,518,399,236,243,321,477,-90,217,144,-111,344
48511,-86,41,350,73,1,454,-88,392,172,107,302,197,313,-103,221,289,231,158,-16,133,20,465,423,246,234,330,514,57,272,147,-131,265
48512,-69,8,382,111,-18,555,-180,424,177,108,284,261,302,-108,211,329,147,167,-16,131,-15,514,434,253,243,311,314,161,342,213,-69,377
48513,-53,68,361,98,-21,437,-22,402,188,80,32,240,292,-103,185,390,215,116,-28,123,3,529,450,239,254,312,426,136,320,212,-61,333
48514,-66,109,311,134,-12,232,-58,375,165,64,87,147,266,-121,180,342,204,76,-70,110,4,430,368,175,221,304,416,-139,157,69,-179,276
48515,-15,67,347,160,2,267,-111,372,139,64,70,134,269,-136,153,210,206,57,-63,86,-19,397,335,167,218,279,347,-209,94,-23,-299,165
48516,28,73,401,159,-4,414,-92,377,163,77,108,170,268,-128,201,237,180,36,-49,134,58,465,359,194,267,324,496,-102,179,41,-255,167
48517,39,48,330,107,-10,451,-148,306,131,72,118,132,214,-152,187,271,145,38,-75,126,-21,557,349,194,244,333,474,-119,197,65,-214,122
48518,45,21,346,141,3,436,-110,306,156,94,157,160,243,-128,213,336,324,52,-45,149,-26,558,393,226,297,358,333,-36,284,149,-109,242
48519,56,37,360,166,-6,410,-61,365,159,104,151,160,265,-107,241,354,246,99,-26,171,42,448,412,248,299,392,454,49,357,231,-18,424
48520,43,1,342,171,-3,345,-16,441,148,100,182,151,262,-127,239,406,202,95,-48,154,72,432,389,242,304,393,477,-2,302,192,-39,426
48521,41,-61,388,220,0,399,-8,504,152,80,172,218,280,-119,226,428,216,85,-52,147,29,452,374,232,302,378,491,-70,250,163,-54,450
48522,-10,-44,410,215,12,460,1,477,173,95,186,268,290,-115,225,351,246,96,-31,166,16,511,404,241,302,365,453,-38,267,169,-85,324
48523,-34,33,363,213,18,399,43,503,177,84,159,228,283,-133,225,372,251,67,-51,152,19,533,381,225,287,371,443,-106,230,126,-105,282
48524,-40,143,315,228,27,391,26,555,173,68,151,55,295,-128,201,385,242,95,-41,152,23,480,381,245,299,361,460,-41,256,165,-73,298
48525,-7,182,264,242,17,414,-14,557,174,69,158,57,305,-124,178,349,274,161,-17,141,0,443,587,275,299,332,415,92,305,187,-76,280
48526,-57,106,261,242,0,441,-34,539,183,60,138,184,328,-125,165,302,192,194,-11,126,-17,453,738,306,306,337,394,140,358,219,-70,238
48527,-54,45,249,207,-5,445,-69,505,187,74,96,247,332,-122,180,254,134,208,-8,140,-23,424,307,306,307,344,388,257,422,271,-54,225
48528,4,101,220,142,9,440,-21,499,172,82,111,181,273,-124,192,286,187,102,-20,148,-24,453,183,247,290,347,419,-7,345,243,-19,299
48529,50,126,327,129,-8,383,-66,483,153,87,126,247,256,-115,200,276,236,64,-32,158,-5,429,286,237,300,378,464,4,333,261,-8,396
48530,-15,114,323,118,-18,381,-4,332,150,76,154,259,256,-117,211,198,189,85,-26,167,0,451,363,268,308,401,443,75,381,310,90,391
48531,-57,145,348,149,-23,358,-33,279,138,71,152,171,249,-104,214,141,204,116,-29,178,0,501,355,279,315,387,451,50,405,336,96,467
48532,-6,177,440,154,6,408,-10,343,130,84,176,170,263,-95,228,260,226,157,0,172,1,444,352,283,323,367,447,-13,370,247,-44,443
48533,-44,191,446,111,17,411,-8,333,129,75,177,189,244,-120,221,320,202,143,-5,167,-22,420,348,260,307,337,416,-44,300,168,-92,341
48534,32,228,494,102,19,434,16,381,153,97,241,248,279,-105,244,363,250,165,-13,197,23,500,316,273,308,374,482,-211,228,140,-66,381
48535,20,196,445,92,13,456,29,434,141,95,231,244,294,-103,265,372,227,164,0,202,64,525,366,289,331,419,573,-151,309,227,33,583
48536,48,172,432,193,22,460,40,464,158,102,234,250,314,-90,256,406,249,143,18,199,70,595,437,319,356,449,580,-3,415,318,117,659
48537,75,193,435,257,9,415,68,465,163,85,208,213,311,-104,237,386,300,145,13,208,57,563,464,297,342,447,578,49,403,303,89,543
48538,105,202,446,232,10,468,72,474,179,100,249,216,328,-85,271,384,287,172,0,210,69,555,488,307,329,422,559,124,407,271,5,432
48539,56,109,459,195,1,453,25,491,174,99,264,220,327,-116,228,355,267,199,-5,169,33,551,514,296,313,381,477,142,392,222,-23,308
48540,66,37,489,156,17,501,-1,487,168,97,344,283,316,-118,226,302,369,197,-33,144,-20,607,493,260,282,342,395,99,335,177,-86,105
48541,47,40,365,118,25,544,-12,484,144,111,387,324,298,-113,249,232,361,183,-34,161,20,596,494,269,284,362,436,129,360,207,-61,212
48542,38,104,405,198,20,418,137,514,160,83,161,422,320,-110,268,275,379,198,-6,182,110,582,529,311,306,394,507,182,414,252,-9,300
48543,52,154,481,224,16,463,75,531,162,82,199,423,322,-102,259,362,391,200,1,184,76,615,530,287,314,364,502,173,400,231,-35,347
48544,162,209,527,187,18,521,91,522,183,103,237,212,342,-82,283,508,391,216,17,211,93,670,533,322,340,408,611,204,456,292,19,441
48545,153,211,556,203,16,489,82,467,170,70,198,231,329,-110,277,501,246,212,17,198,107,620,520,310,347,398,545,118,372,210,-23,419
48546,131,210,585,211,17,490,49,481,160,76,206,280,315,-129,251,425,241,207,6,188,56,597,507,292,319,373,450,108,342,198,-88,366
48547,139,216,365,113,11,488,71,454,147,96,220,340,329,-110,279,457,448,247,9,190,72,570,557,314,322,394,505,166,372,211,-30,373
48548,144,202,450,170,26,511,70,435,166,125,261,419,362,-94,320,490,405,302,30,214,131,583,597,352,343,439,585,173,414,247,20,492
48549,183,185,490,194,39,512,131,440,177,117,294,323,337,-82,303,449,449,248,36,221,124,655,599,354,358,441,553,126,402,242,-6,371
48550,181,206,409,161,53,513,107,456,173,104,286,293,343,-88,286,451,443,226,30,221,129,502,589,358,359,460,577,217,442,278,19,415
48551,172,243,462,213,64,527,127,511,181,116,311,335,352,-102,301,479,440,222,22,225,156,567,588,316,363,468,672,192,410,254,4,426
48552,150,243,512,275,63,529,138,533,178,120,316,322,338,-105,308,500,374,237,31,215,143,732,540,296,344,457,575,131,344,205,-27,421
