,Fp1,Fp2,F7,F3,Fz,F4,F8,FC5,FC1,FC2,FC6,T7,C3,Cz,C4,T8,TP9,CP5,CP1,CP2,CP6,TP10,P7,P3,Pz,P4,P8,PO9,O1,Oz,O2,PO10
172635,-36,299,99,-192,-35,80,384,-59,-72,-59,233,-9,98,-240,164,160,69,30,9,97,-260,274,336,-81,-8,183,231,34,157,-207,-223,-280
172636,-100,289,75,-151,-49,68,381,-56,-76,-78,230,-26,113,-251,162,161,80,37,8,108,-248,295,319,-70,10,189,250,43,160,-186,-211,-243
172637,-146,265,23,-141,-36,81,347,-36,-89,-65,229,-74,127,-243,174,157,115,19,15,125,-258,273,271,-72,28,200,224,2,136,-221,-216,-256
172638,-139,241,-171,-137,-33,81,327,0,-78,-59,212,-107,97,-235,178,132,129,-54,19,129,-260,253,217,-85,18,186,159,-12,128,-214,-227,-294
172639,-123,231,-340,-167,-29,88,350,47,-88,-51,207,-75,97,-246,160,150,47,-3,9,120,-269,240,295,-98,3,160,143,-2,128,-207,-241,-271
172640,-107,203,-215,-164,-17,110,369,57,-65,-49,225,19,111,-223,185,163,78,24,21,129,-277,238,317,-89,13,191,151,13,138,-225,-252,-271
172641,-82,87,-94,-159,-31,81,340,20,-55,-54,213,-8,104,-218,187,163,125,18,23,131,-282,227,322,-89,14,202,175,40,141,-214,-234,-297
172642,-56,54,-22,-188,-46,112,274,1,-93,-47,234,-29,101,-224,180,160,77,20,14,145,-276,231,327,-104,29,183,184,3,113,-230,-235,-265
172643,-49,191,0,-180,-21,176,252,41,-76,-18,273,-29,114,-196,209,166,60,51,40,166,-226,305,337,-79,45,210,233,10,154,-184,-177,-218
172644,-103,58,8,-190,-34,209,251,-33,-100,-27,212,-40,86,-246,184,138,72,8,6,148,-223,308,313,-89,37,222,249,36,164,-150,-163,-191
172645,-144,-151,-60,-178,-26,244,229,-54,-106,-46,128,-20,82,-261,181,113,90,-20,-20,114,-269,248,313,-103,22,206,216,73,172,-154,-176,-254
172646,-93,-3,-73,-205,-29,213,253,-28,-80,-40,97,-2,91,-253,174,156,65,22,0,102,-279,226,346,-101,3,214,192,42,165,-166,-175,-279
172647,-126,192,-32,-214,-34,83,311,-54,-97,-68,100,-59,80,-262,129,171,92,-2,-17,96,-315,205,333,-122,-17,188,176,24,129,-185,-204,-281
172648,-174,199,-131,-217,-55,32,231,-24,-97,-75,115,-49,71,-255,114,82,70,-19,-37,81,-349,190,303,-148,-25,151,114,9,92,-212,-224,-312
172649,-175,57,-213,-226,-65,37,215,-52,-89,-72,132,-251,78,-256,126,0,48,-11,-33,79,-351,161,278,-140,-17,154,104,-25,69,-219,-211,-348
172650,-258,-6,-199,-185,-82,-24,236,-117,-92,-94,116,-213,52,-245,112,-143,82,-43,-34,81,-372,177,280,-129,-10,156,109,-42,65,-216,-214,-327
172651,-306,18,-173,-131,-75,-73,247,60,-65,-108,101,-103,45,-248,101,-45,123,-82,-37,64,-351,229,240,-138,-5,170,166,10,107,-162,-170,-254
172652,-268,13,-176,-117,-62,-80,197,8,-85,-109,91,-134,48,-260,112,46,84,-52,-40,77,-335,214,260,-130,0,181,187,45,140,-141,-116,-242
172653,-242,57,-135,-153,-50,-68,196,-86,-92,-111,92,-73,52,-264,107,12,-27,-3,-43,81,-339,224,294,-116,10,192,190,47,155,-122,-115,-259
172654,-231,42,-158,-261,-70,-84,180,-151,-120,-121,62,-100,-2,-272,91,-6,-49,-81,-78,45,-358,233,243,-149,-25,177,190,-28,130,-133,-146,-280
172655,-258,63,-235,-275,-56,-79,162,-166,-105,-86,32,-127,-19,-262,85,-20,6,-148,-67,58,-342,261,207,-155,-34,170,210,-24,139,-130,-119,-242
172656,-422,-13,-288,-257,-78,-85,145,-193,-119,-100,0,-182,-34,-267,75,-44,-98,-136,-86,46,-378,248,215,-170,-31,159,189,-40,133,-120,-123,-227
172657,-395,-88,-330,-287,-85,-56,73,-182,-142,-108,-18,-244,-56,-274,67,-39,-123,-132,-97,45,-385,205,188,-164,-29,163,153,-53,140,-112,-126,-268
172658,-214,-63,-290,-266,-77,-18,58,-265,-133,-80,7,-278,-52,-266,96,-17,-50,-160,-87,61,-359,183,140,-163,-10,186,166,-75,152,-119,-118,-299
172659,-262,-5,-213,-326,-78,15,97,-346,-131,-80,43,-296,-76,-257,111,-15,-73,-234,-90,63,-355,203,121,-184,-27,194,179,-59,147,-118,-110,-286
172660,-444,-34,-335,-328,-73,-9,98,-293,-136,-92,46,-274,-77,-259,102,-26,-232,-188,-96,60,-386,188,176,-177,-18,173,135,-78,127,-155,-152,-332
172661,-343,-58,-378,-317,-79,3,114,-269,-144,-61,37,-304,-74,-248,107,-37,-234,-171,-80,71,-381,182,163,-172,4,176,134,-109,123,-163,-155,-346
172662,-241,-57,-264,-395,-88,6,144,-291,-140,-85,58,-325,-71,-242,101,-13,-210,-157,-91,67,-366,184,132,-173,-10,164,167,-117,109,-154,-144,-297
172663,-252,-61,-289,-364,-85,-49,153,-206,-138,-104,51,-348,-62,-238,97,-8,-146,-216,-97,62,-348,195,97,-174,-23,169,191,-114,73,-160,-126,-248
172664,-221,-49,-269,-354,-94,-101,148,-178,-134,-102,34,-377,-70,-246,83,12,-157,-230,-78,60,-318,145,132,-171,-16,181,204,-99,84,-159,-124,-249
172665,-258,-46,-239,-330,-87,-34,116,-193,-122,-101,65,-355,-68,-226,97,47,-181,-197,-67,78,-329,181,158,-182,-34,172,206,-99,102,-137,-139,-261
172666,-302,18,-355,-314,-93,23,94,-178,-130,-101,37,-340,-53,-224,82,10,-168,-227,-81,70,-343,212,125,-205,-41,170,181,-126,73,-160,-147,-293
172667,-307,32,-391,-319,-95,48,98,-213,-129,-104,48,-306,-63,-198,111,16,-152,-215,-66,89,-334,214,132,-184,-30,198,194,-109,114,-119,-129,-316
172668,-291,-6,-341,-338,-116,30,109,-268,-143,-103,35,-290,-65,-207,124,51,-150,-193,-65,88,-314,216,128,-175,-9,208,205,-118,104,-146,-129,-272
172669,-313,-49,-440,-323,-124,-22,158,-162,-140,-107,30,-287,-51,-210,117,81,-133,-156,-61,98,-300,233,115,-177,-1,227,223,-116,109,-101,-94,-247
172670,-302,-72,-443,-288,-106,-41,163,-109,-119,-113,78,-314,-42,-199,128,177,-114,-214,-54,113,-260,252,56,-180,24,257,266,-155,101,-99,-50,-204
172671,-366,-94,-324,-298,-98,-104,200,-403,-146,-128,74,-289,-98,-213,131,187,-130,-259,-72,113,-240,262,41,-201,13,294,293,-149,105,-71,-10,-153
172672,-357,-93,-246,-294,-95,-71,246,-502,-155,-115,95,-267,-112,-215,140,132,-207,-239,-106,118,-239,250,76,-215,-15,285,304,-151,79,-80,-28,-218
172673,-321,-21,-231,-281,-89,-77,253,-177,-143,-98,150,-303,-105,-210,139,-48,-189,-247,-88,114,-242,269,68,-221,-14,274,302,-154,77,-93,-29,-254
172674,-399,9,-348,-344,-97,-102,213,-268,-145,-112,141,-363,-113,-234,116,-13,-133,-281,-111,87,-253,326,49,-233,-23,275,310,-148,74,-115,-27,-217
172675,-457,7,-384,-314,-81,-84,163,-320,-131,-110,145,-325,-91,-223,145,142,-157,-227,-108,102,-220,302,71,-232,-19,282,326,-142,66,-99,11,-196
172676,-345,-148,-306,-317,-89,5,163,-288,-163,-114,129,-340,-109,-226,148,123,-166,-258,-125,91,-227,251,36,-246,-12,283,306,-185,42,-110,-10,-220
172677,-275,-263,-269,-292,-76,43,199,-279,-159,-87,124,-297,-102,-241,151,115,-129,-272,-109,114,-211,260,62,-222,-7,294,303,-138,83,-86,7,-195
172678,-324,-249,-240,-297,-86,70,165,-264,-137,-104,129,-283,-73,-253,151,123,-208,-220,-78,125,-185,259,108,-190,7,315,333,-115,126,-65,60,-145
172679,-336,-74,-202,-295,-102,84,174,-260,-137,-80,149,-286,-64,-241,174,147,-183,-184,-45,147,-173,253,148,-170,33,358,390,-86,162,-26,81,-157
172680,-325,114,-194,-361,-115,26,181,-283,-171,-100,110,-350,-81,-248,165,117,-155,-219,-69,128,-186,288,138,-178,31,337,337,-70,167,-28,43,-207
172681,-230,206,-260,-442,-118,-3,237,-264,-158,-81,134,-349,-86,-229,163,110,-119,-209,-50,145,-182,350,174,-151,43,350,315,-42,179,-13,65,-182
172682,-286,153,-307,-401,-111,-26,210,-236,-141,-87,140,-363,-64,-225,165,115,-84,-189,-43,154,-176,314,184,-132,71,354,312,-19,213,-4,105,-124
172683,-353,62,-316,-365,-117,-63,117,-225,-144,-106,92,-359,-54,-222,160,111,-147,-164,-26,151,-197,296,185,-119,73,333,341,-28,202,-41,97,-144
172684,-250,61,-291,-397,-94,-54,151,-177,-113,-75,98,-312,-24,-188,171,126,-165,-100,1,191,-153,361,226,-67,87,362,425,2,232,-13,98,-144
172685,-207,83,-321,-354,-114,-86,211,-134,-116,-106,88,-445,-15,-178,163,110,-104,-161,-2,184,-155,358,192,-76,93,352,441,15,230,-17,81,-102
172686,-211,131,-327,-325,-110,-85,198,-120,-141,-100,101,-276,-45,-206,152,117,-114,-197,-19,169,-157,338,189,-93,99,341,429,-42,181,-68,61,-121
172687,-199,123,-258,-319,-110,-73,209,-203,-121,-109,114,-233,-24,-209,173,120,-144,-153,3,180,-149,364,207,-71,133,369,440,-44,187,-76,59,-97
172688,-222,122,-174,-346,-101,-57,231,-290,-122,-94,101,-233,-31,-181,207,118,-129,-125,20,199,-124,386,192,-56,123,378,431,-21,189,-95,37,-120
172689,-289,168,-171,-341,-97,-42,215,-301,-132,-87,111,-244,-22,-194,206,118,-143,-149,35,212,-115,351,204,-57,119,368,416,-35,175,-133,-34,-195
172690,-328,144,-191,-360,-105,-52,220,-279,-155,-99,100,-260,-43,-202,213,91,-162,-156,37,204,-105,329,202,-64,133,378,406,-51,159,-138,-27,-191
172691,-361,72,-278,-362,-97,-45,224,-239,-139,-108,108,-298,-44,-219,202,96,-160,-148,26,205,-112,318,172,-69,123,388,405,-69,123,-144,-32,-181
172692,-314,54,-309,-332,-71,3,269,-280,-144,-87,131,-297,-41,-217,211,126,-134,-186,0,209,-104,342,171,-96,119,380,429,-30,125,-169,-57,-198
172693,-279,48,-318,-325,-76,-42,304,-277,-138,-89,121,-285,-51,-200,211,127,-199,-152,-11,206,-107,325,228,-87,106,372,415,-50,96,-215,-104,-243
172694,-261,-15,-306,-319,-70,27,221,-251,-130,-76,65,-299,-48,-211,216,130,-172,-164,-11,218,-90,354,203,-105,89,381,442,-66,78,-203,-108,-172
172695,-258,0,-287,-345,-56,87,193,-262,-140,-72,63,-355,-58,-217,229,141,-185,-155,-22,211,-72,361,199,-99,101,391,436,-61,60,-218,-108,-160
172696,-245,68,-313,-325,-53,61,230,-251,-161,-55,136,-413,-63,-219,212,143,-163,-172,-19,195,-101,340,173,-113,90,360,405,-78,30,-259,-129,-215
172697,-266,29,-308,-288,-64,102,285,-313,-148,-54,208,-402,-89,-209,228,163,-106,-219,-26,193,-113,317,160,-131,94,350,349,-60,22,-265,-167,-262
172698,-272,-46,-272,-350,-55,149,280,-453,-153,-49,179,-369,-96,-214,223,172,-126,-211,-28,180,-110,300,182,-117,70,337,356,-72,25,-273,-188,-270
172699,-280,-59,-204,-351,-53,82,280,-248,-151,-57,162,-344,-80,-216,206,160,-189,-210,-29,180,-102,328,191,-136,65,348,376,-100,9,-285,-167,-244
172700,-326,-7,-217,-345,-85,39,243,-210,-157,-77,146,-378,-82,-190,214,133,-216,-236,-35,197,-110,290,147,-152,68,345,374,-126,-16,-301,-192,-273
172701,-285,57,-259,-365,-80,61,190,-222,-161,-65,154,-352,-99,-196,218,209,-218,-230,-34,212,-101,290,153,-144,98,362,381,-171,-23,-308,-194,-250
172702,-242,45,-321,-364,-93,50,170,-202,-171,-72,149,-356,-74,-197,226,279,-212,-200,-24,218,-80,280,168,-155,109,375,375,-179,-22,-304,-176,-276
172703,-200,17,-324,-359,-95,30,158,-245,-151,-83,159,-337,-58,-182,235,223,-191,-217,-32,230,-81,285,145,-152,109,387,387,-129,17,-265,-169,-260
172704,-217,5,-286,-304,-107,24,179,-187,-134,-93,181,-257,-41,-181,230,140,-157,-182,1,235,-58,241,186,-122,114,413,431,-102,48,-246,-131,-230
172705,-251,67,-201,-311,-93,28,190,-67,-133,-92,123,-222,-11,-188,222,28,-99,-116,3,232,-79,154,196,-116,102,410,425,-82,44,-230,-115,-215
172706,-253,192,-145,-257,-80,6,177,-107,-133,-96,132,-232,-28,-195,214,169,5,-185,8,237,-76,288,157,-115,134,413,462,-73,45,-209,-78,-191
172707,-174,216,-195,-256,-85,5,180,-103,-154,-106,128,-235,-24,-210,214,208,-54,-177,13,242,-66,381,195,-112,147,428,496,-63,64,-200,-38,-153
172708,-199,181,-301,-284,-85,-21,212,-98,-146,-106,135,-187,-12,-202,208,158,-128,-95,-8,230,-66,359,255,-107,142,429,463,-32,77,-177,-60,-185
172709,-353,113,-344,-309,-111,-30,205,-104,-143,-113,130,-166,-16,-207,181,164,-119,-114,-10,203,-70,353,241,-140,112,401,442,-52,85,-174,-69,-178
172710,-378,5,-306,-277,-95,23,154,-88,-143,-84,133,-173,-13,-192,192,183,-93,-120,-1,225,-82,353,232,-114,114,409,447,-35,75,-182,-63,-200
172711,-283,-129,-298,-344,-104,24,170,-137,-172,-99,133,-223,-26,-196,188,166,-110,-150,-15,220,-106,321,232,-138,116,409,423,-39,66,-175,-61,-217
172712,-299,-91,-293,-394,-105,16,204,-199,-178,-94,128,-249,-45,-202,184,157,-121,-158,-12,199,-128,292,193,-171,120,391,388,-115,38,-192,-82,-243
172713,-243,21,-216,-438,-116,-11,193,-229,-188,-107,109,-276,-57,-202,170,128,-89,-163,-31,181,-165,303,182,-165,103,367,345,-82,62,-156,-85,-217
172714,-169,193,-159,-403,-88,-44,218,-225,-160,-89,123,-301,-39,-187,175,138,-58,-156,-17,190,-156,363,191,-154,83,361,369,-49,73,-130,-55,-169
172715,-156,223,-146,-401,-90,-53,225,-209,-152,-90,127,-231,-42,-201,176,162,-76,-142,-20,181,-167,335,182,-150,77,354,368,-66,60,-157,-73,-223
172716,-201,109,-175,-443,-97,-9,189,-240,-175,-106,93,-244,-48,-219,137,122,-134,-176,-40,156,-198,262,170,-192,69,348,329,-87,29,-179,-108,-298
172717,-224,-81,-214,-394,-98,-39,159,-264,-194,-104,45,-257,-86,-234,116,79,-155,-201,-72,142,-227,236,129,-209,45,294,296,-153,-13,-220,-136,-326
172718,-223,-127,-228,-400,-116,-23,147,-230,-180,-105,46,-239,-84,-221,120,72,-148,-198,-76,137,-236,227,122,-212,39,281,238,-154,-4,-219,-142,-345
172719,-318,-58,-323,-349,-128,-76,145,-125,-162,-111,53,-250,-72,-237,106,58,-110,-187,-81,116,-254,211,97,-220,30,281,217,-167,-3,-237,-174,-298
172720,-375,9,-362,-286,-109,-69,157,-73,-134,-132,25,-267,-63,-238,73,28,-132,-200,-88,98,-290,180,85,-218,11,261,199,-183,-20,-242,-199,-327
172721,-375,39,-331,-292,-100,-15,167,-122,-138,-109,-10,-287,-60,-230,81,38,-196,-162,-77,120,-274,176,137,-192,32,261,199,-175,-3,-244,-165,-343
172722,-369,86,-285,-336,-95,0,177,-201,-159,-117,0,-270,-105,-225,86,47,-105,-277,-87,126,-280,178,84,-216,59,264,203,-199,-19,-243,-158,-340
172723,-336,87,-289,-373,-102,-38,163,-197,-174,-125,43,-295,-102,-221,88,34,-128,-235,-84,117,-274,145,123,-204,54,271,212,-188,-15,-222,-136,-320
172724,-221,-30,-255,-358,-110,0,128,-157,-155,-111,51,-242,-63,-207,112,48,-131,-163,-36,138,-269,204,169,-154,85,319,221,-135,28,-161,-98,-308
172725,-160,-92,-234,-379,-122,17,111,-122,-150,-115,50,-182,-54,-225,103,69,-101,-146,-32,147,-246,248,182,-132,93,315,252,-108,74,-158,-83,-259
172726,-206,-28,-142,-380,-129,27,96,-203,-156,-129,28,-192,-68,-230,103,40,-68,-134,-47,152,-250,231,175,-133,85,300,255,-100,76,-153,-88,-237
172727,-226,68,-103,-363,-106,32,133,-320,-148,-106,44,-175,-47,-212,131,68,-17,-66,-36,171,-224,245,229,-99,108,333,298,-81,113,-113,-59,-203
172728,-242,147,-182,-371,-102,54,188,-418,-164,-106,81,-198,-47,-214,124,138,-20,-68,-19,166,-184,244,233,-97,117,350,334,-79,100,-128,-54,-209
172729,-192,191,-155,-356,-109,60,205,-149,-138,-119,80,-182,-24,-237,141,211,-20,-72,-16,158,-170,256,233,-88,109,347,326,-46,103,-139,-50,-192
172730,-123,208,-108,-296,-108,22,182,1,-139,-114,50,-220,-9,-222,133,160,18,-97,-2,169,-174,246,243,-88,90,335,313,-61,101,-139,-65,-205
172731,-87,173,-75,-296,-103,-14,182,-42,-138,-124,66,-328,-5,-213,154,55,67,-117,-11,149,-183,195,254,-87,93,301,250,-16,110,-135,-77,-274
172732,-152,133,-70,-290,-110,-84,205,-85,-130,-130,67,-198,-23,-222,120,-92,60,-119,-34,123,-220,170,297,-87,89,299,245,34,155,-108,-56,-253
172733,-154,172,-57,-252,-83,-73,225,-1,-105,-128,64,-47,14,-222,109,9,39,-45,-11,145,-219,272,343,-58,114,321,301,52,174,-79,-8,-218
172734,-189,181,-113,-231,-98,-42,224,-8,-124,-140,61,-68,12,-224,115,87,13,-48,-3,162,-200,275,324,-76,120,341,334,19,150,-101,-20,-229
172735,-211,254,-118,-241,-85,-11,200,-69,-114,-124,82,-69,0,-237,127,92,43,-82,-11,161,-167,286,319,-74,108,363,349,24,176,-78,-3,-158
172736,-218,263,-100,-250,-90,13,132,-99,-113,-89,70,-67,-16,-237,144,118,27,-80,-28,174,-156,292,329,-68,117,366,407,40,179,-59,21,-127
172737,-243,156,-166,-246,-72,18,150,-88,-123,-85,81,-105,-30,-244,142,114,24,-81,-45,166,-158,261,295,-83,88,350,406,51,174,-67,23,-134
172738,-160,113,-165,-290,-73,-46,138,-94,-113,-105,65,-116,-32,-229,140,114,26,-92,-28,160,-156,284,290,-70,80,343,418,32,183,-57,25,-137
172739,-146,181,-159,-306,-106,-41,201,-139,-134,-117,57,-130,-24,-234,118,117,-3,-91,-34,149,-158,314,295,-80,86,342,418,22,173,-96,-2,-115
172740,-125,103,-210,-314,-119,11,207,-112,-138,-125,65,-135,-13,-253,126,107,4,-102,-44,145,-170,306,279,-80,80,345,434,11,176,-80,5,-106
172741,-115,18,-237,-249,-92,15,218,-31,-117,-121,77,-147,-5,-264,121,119,-41,-110,-44,142,-176,285,256,-105,79,329,420,-28,147,-98,0,-124
172742,-46,146,-144,-268,-56,48,276,-32,-84,-72,122,-129,34,-232,147,180,-59,-87,-16,153,-148,265,266,-94,95,339,434,-7,160,-83,9,-109
172743,-62,112,-118,-233,-93,17,279,-65,-90,-94,102,-182,18,-230,141,161,-68,-96,1,141,-158,273,267,-96,86,324,427,8,156,-108,-24,-151
172744,-95,99,-246,-222,-85,10,319,-80,-98,-107,108,-181,0,-244,131,161,-61,-100,-12,136,-153,246,256,-91,67,312,384,13,141,-120,-23,-157
172745,-91,177,-128,-221,-51,61,325,-95,-89,-71,150,-204,31,-232,147,170,-62,-94,-20,130,-129,223,233,-98,55,324,404,2,105,-144,-45,-175
172746,-132,236,37,-240,-79,67,249,-102,-111,-100,144,-157,19,-252,133,183,-70,-127,-33,99,-145,262,213,-129,21,283,402,-18,68,-171,-62,-180
172747,-142,149,65,-254,-84,77,232,-118,-123,-96,132,-166,-17,-256,139,188,-65,-155,-67,99,-156,303,193,-135,7,275,369,-35,17,-198,-71,-179
172748,-155,-51,-74,-296,-88,109,222,-113,-119,-82,107,-176,-24,-262,158,154,-75,-144,-58,107,-155,308,201,-140,27,301,368,-28,23,-200,-79,-159
172749,-124,28,-35,-253,-59,166,273,-87,-124,-96,76,-256,-4,-250,170,174,-40,-113,-52,117,-148,309,215,-136,38,303,361,-14,66,-191,-69,-174
172750,-97,204,28,-247,-65,116,272,-101,-127,-106,98,-234,-11,-253,164,193,44,-103,-38,133,-123,333,229,-121,41,312,420,32,91,-131,-26,-122
172751,-59,240,-28,-221,-80,91,319,-46,-113,-86,143,-234,-20,-230,173,218,62,-118,-28,154,-111,322,246,-129,56,330,421,61,94,-90,-19,-127
172752,-106,158,-132,-215,-50,79,362,-112,-103,-89,185,-131,15,-223,188,241,35,-80,-28,152,-124,259,288,-121,56,339,408,63,101,-105,-35,-181
172753,-166,156,-141,-222,-68,29,334,-281,-123,-99,164,-79,-14,-238,181,252,74,-92,-21,156,-117,361,257,-132,60,338,427,43,106,-96,2,-80
172754,-182,222,-92,-216,-80,41,313,25,-118,-108,144,-120,-24,-259,176,303,80,-112,-33,142,-143,380,235,-143,57,333,390,22,80,-129,-18,-101
172755,-219,286,-138,-195,-78,76,313,96,-98,-74,189,-56,23,-221,191,275,99,-75,-19,172,-134,382,299,-100,83,343,372,53,122,-121,-30,-138
172756,-189,246,-214,-242,-115,29,290,67,-114,-97,175,-58,15,-232,173,160,78,-94,-34,160,-152,388,303,-104,74,330,374,47,135,-98,-30,-129
172757,-102,232,-153,-247,-89,74,306,-26,-113,-84,182,-54,11,-225,162,22,87,-66,-7,167,-127,396,336,-82,106,358,394,67,151,-85,-2,-101
172758,-83,227,-35,-266,-73,99,338,-87,-113,-87,176,0,17,-222,164,129,73,-10,1,188,-124,412,403,-61,123,372,411,92,180,-51,25,-58
172759,-64,227,40,-272,-78,105,352,-61,-118,-95,195,8,28,-245,169,230,106,-12,20,160,-128,406,367,-64,122,363,404,78,180,-62,-4,-96
172760,-15,273,35,-273,-68,118,366,-99,-125,-85,205,-35,10,-251,185,212,102,-32,-12,157,-130,416,348,-61,102,349,387,72,171,-74,-12,-100
172761,-61,330,-54,-266,-77,98,364,-16,-112,-87,193,-63,9,-252,168,195,89,-64,-28,146,-159,412,325,-88,74,323,371,68,143,-86,-8,-89
172762,-85,299,-165,-314,-84,42,305,13,-113,-74,161,-86,-16,-265,149,187,87,-81,-36,111,-176,381,292,-106,58,290,351,32,115,-116,-45,-125
172763,-207,266,-60,-288,-85,98,213,-141,-117,-73,173,-122,-38,-255,155,197,85,-85,-67,108,-191,398,279,-124,48,270,356,51,100,-111,-57,-108
172764,-207,198,-51,-239,-64,126,204,-196,-130,-79,184,-148,-30,-254,167,189,32,-71,-54,107,-179,404,290,-138,44,290,378,73,98,-119,-55,-46
172765,-115,41,-73,-261,-71,99,237,-106,-133,-76,141,-179,-13,-237,171,169,-15,-54,-61,104,-198,383,273,-149,22,276,355,0,48,-192,-101,-128
172766,-100,6,-126,-241,-58,100,176,-77,-134,-90,164,-353,-20,-231,170,174,66,-114,-67,94,-170,405,258,-148,7,268,345,13,34,-205,-97,-161
172767,-97,112,-158,-263,-58,124,219,-103,-126,-86,216,-162,-22,-237,194,234,129,-107,-53,135,-133,408,323,-118,44,304,386,120,120,-119,-30,-130
172768,-111,258,-88,-260,-63,154,327,-73,-120,-72,251,-10,19,-233,216,256,149,-58,-17,148,-115,431,336,-98,67,315,415,146,137,-100,-13,-79
172769,-131,262,-13,-231,-61,146,363,-40,-121,-72,241,-40,33,-192,219,264,142,-55,-2,163,-88,456,316,-82,90,331,445,110,112,-109,-10,11
172770,-77,224,31,-233,-74,115,358,-32,-117,-68,229,-55,34,-217,207,251,90,-43,1,184,-94,470,347,-95,102,353,469,104,116,-116,7,-7
172771,-103,173,-23,-256,-79,93,355,-37,-117,-72,211,-97,28,-210,194,221,90,-57,18,175,-100,449,330,-91,107,354,444,98,75,-139,-29,-89
172772,-147,154,-87,-239,-74,85,324,-87,-128,-80,184,-134,6,-202,194,214,48,-80,2,161,-114,443,295,-99,110,324,440,64,59,-159,-39,-27
172773,-205,154,-70,-201,-71,77,313,-83,-105,-81,166,-203,11,-217,193,217,35,-73,-25,143,-116,415,261,-124,64,344,490,50,64,-158,-55,-84
172774,-203,195,-136,-176,-94,59,320,-119,-111,-85,134,-194,-11,-248,161,202,10,-141,-52,156,-99,385,215,-159,54,344,488,32,43,-151,-59,-114
172775,-188,200,-169,-237,-78,61,314,-159,-130,-89,138,-193,-52,-248,168,198,-23,-176,-41,152,-113,391,195,-181,68,334,420,1,41,-162,-46,-99
172776,-165,164,-110,-299,-95,74,324,-153,-136,-71,161,-205,-35,-230,184,192,-47,-157,-26,145,-114,398,217,-173,59,340,380,5,35,-161,-44,-96
172777,-153,135,-108,-345,-87,77,352,-187,-148,-68,167,-214,-70,-219,191,183,-44,-185,-42,147,-114,433,195,-172,53,341,380,-5,43,-152,-39,-38
172778,-149,-52,-154,-379,-81,37,304,-175,-157,-77,138,-249,-66,-234,157,181,-56,-204,-58,141,-145,409,174,-190,45,340,367,-30,13,-172,-56,-112
172779,-184,-58,-207,-438,-118,38,217,-210,-176,-104,99,-314,-77,-250,126,150,-117,-225,-70,115,-177,368,112,-224,25,294,346,-104,-35,-222,-117,-169
172780,-215,95,-230,-421,-98,53,227,-448,-180,-88,113,-246,-101,-204,157,174,-14,-226,-68,150,-145,388,113,-205,38,309,374,-93,-35,-226,-109,-148
172781,-191,176,-199,-393,-91,71,193,-385,-174,-88,77,-350,-116,-224,163,168,23,-323,-98,125,-157,385,54,-266,25,293,348,-104,-77,-256,-111,-143
172782,-187,155,-197,-374,-90,88,194,-103,-147,-85,49,-353,-93,-239,152,212,-130,-283,-87,104,-183,338,102,-256,13,269,306,-116,-81,-275,-139,-226
172783,-193,45,-150,-382,-85,119,199,-194,-158,-93,80,-335,-84,-243,137,218,-195,-252,-96,95,-213,273,103,-251,-13,253,266,-113,-90,-289,-172,-238
172784,-159,93,-142,-363,-77,108,199,-289,-151,-74,87,-359,-85,-248,142,149,-178,-265,-89,98,-204,235,55,-258,-8,245,267,-154,-103,-279,-160,-212
