,Fp1,Fp2,F7,F3,Fz,F4,F8,FC5,FC1,FC2,FC6,T7,C3,Cz,C4,T8,TP9,CP5,CP1,CP2,CP6,TP10,P7,P3,Pz,P4,P8,PO9,O1,Oz,O2,PO10
92145,-242,-8,-352,-74,-224,94,-97,-78,-20,-196,55,-449,-11,-148,-21,-249,-121,-281,31,-6,-398,-67,63,-20,205,117,17,-201,-34,-485,-75,-173
92146,-236,-25,-359,-67,-232,105,-113,-92,-20,-193,39,-487,-19,-144,-43,-38,-133,-306,40,-18,-369,-101,0,-24,208,134,21,-249,-50,-460,-68,-144
92147,-225,-20,-325,-61,-235,106,-106,-84,-3,-178,30,-482,-3,-142,-36,-176,-131,-327,45,-5,-374,-63,-35,-27,217,136,53,-292,-55,-452,-59,-108
92148,-250,-24,-331,-69,-216,84,-143,-86,-22,-194,23,-488,-17,-154,-43,-185,-184,-323,44,-19,-389,-122,4,-31,201,104,42,-213,-23,-432,-67,-104
92149,-241,-40,-331,-45,-206,105,-138,-76,-11,-183,36,-617,-13,-140,-58,-84,-222,-303,39,-32,-429,-140,41,-41,205,86,36,-139,3,-434,-98,-148
92150,-245,-35,-316,-14,-201,107,-147,-48,8,-180,18,-655,0,-123,-75,-88,-157,-273,53,-46,-465,-86,92,-9,214,70,33,-75,55,-424,-97,-123
92151,-252,-29,-336,-28,-205,84,-211,-66,0,-209,-17,-578,-16,-173,-90,-182,-177,-309,46,-68,-500,-167,47,-29,167,51,-5,-106,18,-461,-100,-157
92152,-277,-70,-363,-39,-219,55,-265,-73,-2,-212,-59,-493,-29,-159,-121,-262,-220,-342,47,-67,-543,-297,-35,-65,144,24,-32,-215,-83,-511,-146,-190
92153,-277,-62,-348,-38,-217,35,-261,-46,-5,-202,-45,-419,-1,-148,-113,-344,-175,-330,48,-66,-542,-319,-48,-60,167,24,-3,-306,-132,-557,-157,-242
92154,-231,-74,-339,-18,-192,51,-260,-48,0,-191,-41,-423,-13,-131,-99,-567,-184,-318,39,-57,-523,-242,-53,-74,166,40,26,-281,-140,-551,-192,-272
92155,-244,-97,-360,-35,-204,38,-251,-61,3,-196,-53,-480,-35,-135,-92,-613,-217,-333,34,-63,-527,-229,-73,-77,151,28,-1,-288,-132,-545,-195,-313
92156,-265,-99,-377,-24,-201,43,-237,-78,5,-193,-31,-513,-29,-120,-81,-392,-261,-356,49,-46,-513,-232,-43,-53,181,25,-16,-170,-58,-486,-158,-263
92157,-224,-29,-362,-19,-192,83,-201,-86,21,-184,1,-494,-30,-110,-63,-247,-207,-342,63,-38,-524,-245,-16,-54,192,42,-104,-187,-85,-487,-152,-270
92158,-218,-67,-361,-47,-188,73,-199,-124,-15,-199,-25,-573,-69,-135,-86,-359,-232,-372,20,-67,-577,-343,-83,-99,176,11,-187,-396,-197,-585,-219,-303
92159,-214,-54,-349,-36,-173,90,-184,-109,-13,-185,-12,-585,-54,-142,-94,-578,-294,-366,22,-68,-570,-322,-107,-84,182,8,-175,-479,-210,-582,-195,-260
92160,-237,-52,-361,-34,-196,70,-226,-117,-24,-213,-51,-569,-60,-166,-107,-497,-290,-406,12,-65,-601,-329,-124,-111,159,-13,-156,-478,-206,-604,-230,-351
92161,-251,-79,-397,-70,-198,49,-228,-143,-13,-202,-87,-573,-60,-156,-130,-219,-275,-441,-10,-81,-598,-327,-138,-106,151,-30,-156,-384,-170,-603,-231,-336
92162,-267,-85,-413,-73,-197,53,-231,-129,0,-193,-80,-554,-58,-139,-158,-181,-374,-412,3,-90,-609,-296,-111,-73,170,-38,-209,-276,-108,-543,-203,-276
92163,-296,-91,-441,-68,-200,40,-258,-136,-7,-203,-108,-564,-60,-138,-185,-274,-412,-405,2,-104,-639,-355,-98,-61,177,-51,-206,-256,-92,-538,-200,-280
92164,-289,-114,-435,-83,-209,27,-255,-119,-8,-219,-98,-570,-44,-134,-164,-282,-345,-367,20,-104,-633,-310,-73,-47,185,-6,-138,-294,-101,-539,-182,-252
92165,-289,-128,-413,-84,-206,21,-262,-110,-22,-207,-106,-563,-36,-138,-143,-298,-280,-364,50,-69,-612,-278,-59,-46,194,4,-116,-331,-114,-532,-160,-227
92166,-294,-139,-392,-74,-221,5,-283,-129,-14,-201,-99,-558,-35,-140,-133,-330,-257,-356,57,-77,-593,-286,-47,-41,204,22,-100,-288,-87,-507,-155,-258
92167,-324,-169,-423,-87,-240,-5,-300,-116,6,-200,-105,-572,-50,-119,-132,-351,-203,-351,51,-68,-566,-265,-48,-35,209,57,-83,-261,-67,-477,-127,-267
92168,-334,-168,-430,-99,-237,-4,-314,-95,-9,-194,-122,-566,-31,-128,-126,-402,-197,-358,48,-52,-525,-291,-54,-25,223,59,-106,-191,-20,-457,-146,-270
92169,-318,-169,-404,-95,-237,-1,-292,-138,-17,-193,-107,-580,-42,-137,-118,-463,-353,-379,41,-57,-510,-264,-111,-46,205,52,-95,-292,-91,-502,-158,-280
92170,-302,-152,-408,-83,-247,19,-265,-106,-7,-184,-96,-569,-26,-117,-135,-538,-323,-349,48,-50,-538,-209,-98,-45,214,53,-68,-345,-130,-525,-131,-268
92171,-279,-123,-349,-63,-220,31,-267,-81,9,-174,-88,-534,-17,-105,-98,-689,-261,-333,70,-18,-530,-253,-67,-24,221,79,-47,-359,-72,-471,-142,-259
92172,-289,-144,-338,-52,-209,25,-270,-99,15,-180,-80,-560,-12,-115,-82,-708,-331,-345,52,-24,-481,-387,-58,-43,208,95,-57,-276,-47,-484,-109,-331
92173,-308,-194,-368,-54,-233,-1,-324,-114,15,-204,-116,-569,-4,-98,-116,-397,-297,-328,55,-25,-472,-460,3,-7,233,97,-41,-81,-4,-458,-69,-267
92174,-307,-177,-349,-57,-228,5,-289,-83,5,-202,-123,-534,3,-113,-119,-279,-251,-304,68,-24,-507,-353,14,13,237,81,-20,-17,21,-437,-66,-178
92175,-265,-124,-330,-20,-198,57,-236,-59,15,-176,-73,-520,17,-121,-78,-335,-274,-311,58,-23,-523,-185,-47,-10,222,70,-17,-220,-66,-477,-118,-193
92176,-262,-127,-319,-35,-216,48,-250,-68,-9,-181,-81,-516,21,-125,-97,-311,-259,-336,33,-41,-527,-234,-118,-66,202,63,-16,-526,-181,-539,-126,-189
92177,-267,-124,-328,-23,-218,47,-229,-65,7,-199,-63,-504,0,-129,-98,-242,-223,-344,27,-49,-521,-235,-111,-61,196,74,-27,-614,-210,-553,-146,-182
92178,-251,-101,-327,-27,-211,57,-220,-56,14,-195,-40,-513,-23,-143,-109,-251,-218,-342,12,-68,-518,-245,-86,-57,191,71,1,-499,-185,-537,-133,-170
92179,-200,-65,-299,-20,-221,73,-197,-57,2,-192,-39,-504,-16,-138,-108,-241,-215,-343,12,-66,-497,-257,-65,-47,196,72,72,-399,-145,-525,-130,-158
92180,-174,-52,-280,7,-190,88,-187,-53,7,-188,-23,-484,0,-132,-92,-271,-242,-329,20,-50,-497,-288,-54,-47,200,72,69,-389,-137,-523,-112,-183
92181,-171,-66,-281,-2,-161,84,-215,-38,7,-197,-48,-476,-11,-134,-99,-386,-256,-327,15,-49,-509,-240,-82,-53,184,54,16,-386,-152,-557,-140,-183
92182,-167,-60,-279,-8,-187,73,-216,-30,7,-210,-42,-487,-26,-144,-93,-544,-232,-341,14,-54,-506,-176,-88,-59,155,44,9,-322,-124,-557,-185,-206
92183,-178,-43,-291,-10,-184,79,-214,-51,15,-192,-17,-499,-4,-130,-81,-607,-210,-315,31,-42,-493,-198,-16,-36,162,56,-14,-234,-78,-519,-140,-217
92184,-190,-37,-306,-15,-180,82,-228,-49,8,-197,-17,-550,-14,-130,-96,-513,-207,-310,39,-65,-479,-222,22,-28,181,58,-43,-166,-70,-507,-141,-237
92185,-161,-3,-293,-10,-175,79,-209,-36,32,-178,-13,-695,15,-122,-76,-437,-269,-284,53,-71,-481,-198,-31,-20,181,67,-77,-211,-95,-520,-137,-250
92186,-212,-30,-296,-18,-175,68,-216,-49,36,-186,-53,-684,16,-112,-82,-442,-245,-292,31,-50,-505,-229,-18,-7,194,61,-57,-267,-72,-492,-146,-240
92187,-233,-35,-307,0,-172,81,-198,-47,35,-179,-32,-556,10,-111,-76,-299,-205,-285,51,-42,-483,-245,17,8,184,83,8,-274,-31,-479,-123,-247
92188,-240,-41,-303,-29,-203,69,-219,-69,1,-200,-57,-444,-9,-139,-91,-241,-179,-297,43,-51,-489,-270,-7,3,184,76,30,-275,-37,-478,-83,-168
92189,-251,-33,-322,-52,-205,82,-226,-62,7,-194,-80,-397,-21,-133,-96,-230,-242,-283,26,-58,-481,-253,17,3,191,84,69,-322,-42,-475,-42,-142
92190,-272,-48,-329,-63,-209,96,-220,-62,4,-182,-51,-414,-14,-124,-103,-237,-251,-246,30,-47,-468,-253,28,5,191,87,48,-269,-6,-438,-63,-180
92191,-242,-31,-317,-58,-172,98,-189,-54,1,-173,-26,-397,-2,-120,-68,-219,-174,-233,40,-25,-463,-201,50,16,196,113,25,-220,0,-436,-56,-137
92192,-243,-38,-332,-72,-194,101,-174,-66,0,-181,-29,-427,-2,-134,-70,-181,-181,-245,57,-26,-417,-113,73,19,206,146,74,-185,-15,-454,-40,-102
92193,-245,-14,-333,-57,-189,125,-166,-48,18,-176,-11,-432,4,-104,-64,-172,-160,-232,81,-5,-380,-148,102,58,233,167,93,-110,9,-419,-14,-84
92194,-235,7,-318,-47,-200,127,-150,-30,11,-184,15,-408,10,-110,-50,-169,-143,-203,83,28,-367,-130,96,64,253,177,103,-144,13,-403,9,-52
92195,-260,-31,-318,-70,-209,134,-168,-41,-3,-164,13,-427,-2,-112,-46,-181,-214,-235,73,17,-367,-116,40,50,250,185,121,-215,-1,-410,9,-39
92196,-248,-13,-309,-57,-190,132,-186,-44,1,-145,32,-423,-8,-98,-43,-269,-225,-240,55,4,-365,-94,45,11,243,192,169,-188,-7,-415,0,-14
92197,-293,-36,-351,-82,-206,130,-202,-65,-17,-163,27,-457,-39,-100,-38,-660,-175,-269,42,-16,-376,-109,48,-6,213,160,145,-146,1,-433,-40,-66
92198,-331,-25,-374,-93,-211,136,-217,-75,-24,-177,19,-495,-49,-119,-55,-827,-169,-294,28,-31,-396,-156,22,-15,200,141,102,-148,-35,-467,-82,-143
92199,-322,-40,-380,-94,-214,122,-232,-87,-13,-168,14,-520,-43,-103,-74,-473,-200,-293,19,-54,-387,-204,14,-27,181,115,71,-112,-22,-487,-84,-216
92200,-303,-60,-353,-79,-211,129,-262,-110,-26,-189,-17,-525,-62,-116,-98,-238,-240,-297,14,-74,-379,-214,9,-54,166,95,53,-167,-85,-513,-112,-206
92201,-302,-28,-347,-58,-199,110,-275,-89,-30,-188,-20,-500,-58,-149,-110,-258,-227,-301,10,-87,-417,-239,-11,-67,145,56,23,-237,-118,-520,-116,-174
92202,-253,-10,-322,-38,-189,134,-217,-69,-22,-182,-9,-465,-61,-143,-93,-472,-199,-293,-5,-76,-441,-196,1,-83,120,80,42,-257,-140,-550,-114,-217
92203,-263,18,-287,-21,-189,137,-206,-70,-1,-175,12,-438,-72,-139,-82,-518,-200,-302,-15,-58,-463,-164,10,-85,103,81,38,-228,-106,-545,-104,-179
92204,-270,-4,-306,-7,-182,150,-225,-35,0,-171,14,-409,-60,-140,-91,-137,-163,-273,0,-63,-457,-213,47,-64,116,77,26,-40,-23,-483,-89,-103
92205,-273,-32,-310,-11,-208,129,-226,-48,-3,-194,2,-433,-65,-154,-102,21,-212,-290,-25,-79,-489,-246,-9,-95,83,38,22,-202,-140,-562,-141,-157
92206,-291,-35,-303,-11,-219,107,-234,-58,1,-197,-20,-444,-63,-151,-122,-96,-233,-294,-21,-99,-501,-220,-10,-101,85,48,23,-261,-144,-575,-162,-179
92207,-303,-27,-296,-22,-211,111,-258,-59,-7,-191,-39,-450,-64,-151,-138,-194,-247,-301,-31,-108,-530,-238,-43,-109,76,24,-3,-366,-200,-619,-195,-225
92208,-311,-36,-321,-35,-223,91,-309,-55,-17,-208,-79,-465,-61,-163,-171,-274,-237,-306,-51,-134,-579,-318,-49,-108,44,-25,-54,-357,-216,-658,-203,-276
92209,-289,-38,-322,-34,-227,80,-314,-39,-13,-206,-95,-450,-61,-190,-198,-300,-251,-305,-58,-155,-578,-345,-37,-105,27,-32,-101,-316,-197,-642,-241,-287
92210,-297,-52,-321,-35,-214,101,-308,-48,4,-205,-97,-446,-52,-187,-190,-306,-251,-294,-47,-162,-585,-350,-23,-118,45,-33,-140,-326,-209,-666,-291,-319
92211,-307,-65,-317,-57,-208,96,-340,-73,-13,-209,-104,-462,-48,-183,-178,-336,-260,-294,-41,-157,-606,-395,-38,-100,70,-38,-142,-287,-161,-630,-274,-342
92212,-303,-69,-321,-50,-197,104,-349,-70,-7,-198,-115,-449,-68,-168,-186,-338,-274,-286,-26,-136,-586,-466,-46,-93,73,-40,-105,-343,-164,-626,-292,-341
92213,-299,-72,-366,-39,-185,111,-349,-58,-5,-174,-115,-452,-60,-154,-171,-391,-275,-284,-5,-116,-568,-524,-43,-104,84,-18,-46,-365,-158,-616,-271,-343
92214,-327,-90,-390,-58,-220,96,-367,-89,-41,-190,-132,-496,-83,-168,-177,-429,-359,-332,-48,-128,-591,-423,-90,-144,68,-34,-94,-464,-258,-682,-308,-387
92215,-339,-92,-389,-73,-220,85,-356,-63,-23,-220,-106,-475,-79,-166,-176,-413,-293,-320,-45,-135,-603,-347,-80,-144,60,-46,-99,-463,-278,-691,-320,-375
92216,-368,-126,-434,-97,-229,63,-351,-70,-28,-216,-118,-576,-78,-184,-179,-445,-397,-313,-52,-137,-581,-435,-25,-128,57,-47,-73,-283,-204,-650,-302,-421
92217,-382,-122,-443,-108,-251,62,-332,-93,-36,-198,-101,-723,-91,-179,-166,-420,-418,-333,-59,-138,-514,-414,-67,-130,48,-41,-58,-395,-201,-675,-305,-457
92218,-367,-122,-415,-112,-248,67,-331,-99,-28,-214,-95,-681,-98,-185,-137,-439,-380,-367,-68,-136,-464,-365,-117,-162,53,-45,-120,-437,-222,-666,-318,-468
92219,-345,-123,-393,-80,-210,69,-362,-82,-14,-195,-105,-543,-93,-186,-152,-638,-344,-365,-75,-144,-520,-312,-90,-160,49,-51,-147,-477,-258,-667,-290,-418
92220,-364,-142,-392,-82,-212,53,-383,-96,-22,-191,-111,-457,-115,-184,-137,-879,-308,-393,-81,-149,-579,-301,-133,-189,21,-82,-173,-595,-332,-715,-335,-380
92221,-367,-140,-388,-78,-227,66,-364,-92,-15,-176,-75,-462,-92,-174,-117,-836,-321,-369,-75,-145,-529,-336,-172,-192,21,-81,-148,-576,-355,-729,-338,-321
92222,-339,-151,-380,-67,-215,81,-352,-88,-5,-179,-57,-454,-68,-175,-127,-634,-360,-361,-40,-124,-556,-363,-172,-179,45,-57,-112,-570,-341,-718,-331,-339
92223,-372,-173,-387,-74,-244,65,-385,-110,-18,-216,-102,-470,-86,-192,-160,-510,-365,-379,-52,-150,-621,-401,-200,-199,5,-101,-192,-524,-338,-744,-376,-443
92224,-363,-172,-405,-78,-229,36,-373,-84,-18,-223,-129,-496,-62,-181,-199,-449,-343,-368,-52,-156,-638,-422,-139,-179,10,-116,-243,-401,-293,-706,-345,-422
92225,-329,-156,-369,-36,-201,67,-355,-59,15,-209,-106,-502,-48,-165,-176,-311,-403,-350,-38,-138,-606,-367,-139,-164,49,-90,-208,-421,-313,-700,-321,-425
92226,-346,-191,-390,-61,-226,42,-392,-68,0,-245,-131,-499,-70,-181,-199,-355,-408,-368,-57,-165,-632,-390,-187,-187,35,-113,-211,-613,-362,-747,-341,-430
92227,-326,-175,-369,-53,-240,44,-386,-66,0,-230,-122,-500,-60,-174,-190,-604,-359,-360,-57,-168,-624,-378,-162,-177,37,-114,-186,-596,-318,-722,-331,-376
92228,-316,-130,-343,-48,-235,74,-359,-76,4,-238,-93,-497,-65,-164,-173,-479,-378,-372,-37,-159,-591,-336,-131,-174,32,-100,-166,-458,-304,-721,-330,-341
92229,-292,-112,-329,-33,-228,77,-331,-35,8,-208,-97,-470,-12,-157,-139,-144,-400,-356,-25,-107,-535,-296,-121,-147,37,-67,-118,-430,-266,-705,-325,-311
92230,-305,-120,-353,-39,-239,55,-320,-32,7,-227,-113,-493,-28,-155,-151,-119,-394,-353,-24,-105,-526,-261,-122,-149,50,-60,-117,-462,-276,-707,-303,-302
92231,-296,-123,-343,-23,-230,43,-325,-38,11,-225,-100,-488,-31,-154,-152,-240,-339,-352,-35,-120,-540,-316,-94,-131,54,-53,-125,-427,-258,-712,-302,-307
92232,-304,-160,-320,-25,-245,40,-336,-15,6,-219,-117,-480,-27,-157,-153,-262,-277,-323,-31,-116,-534,-330,-68,-115,70,-48,-113,-375,-251,-701,-313,-320
92233,-309,-161,-344,-14,-237,32,-315,-34,-6,-224,-101,-513,-21,-157,-135,-272,-293,-310,-33,-110,-532,-333,-54,-113,52,-58,-80,-351,-236,-698,-302,-325
92234,-304,-146,-352,-4,-232,63,-293,-33,7,-203,-89,-504,-20,-147,-123,-361,-273,-301,-24,-107,-502,-306,-19,-91,73,-33,-56,-281,-193,-681,-279,-279
92235,-317,-156,-351,-39,-222,41,-317,-32,9,-195,-97,-510,-31,-161,-129,-519,-292,-332,-35,-130,-510,-294,-10,-85,67,-30,-81,-273,-189,-676,-266,-316
92236,-323,-135,-349,-17,-196,64,-267,-21,16,-178,-67,-468,-25,-165,-116,-489,-258,-326,-27,-102,-494,-281,-16,-88,87,-22,-70,-332,-211,-674,-297,-304
92237,-345,-185,-408,-36,-216,72,-261,-52,-9,-200,-65,-475,-49,-197,-109,-360,-279,-335,-52,-107,-482,-276,-53,-112,63,-28,-55,-313,-204,-661,-307,-300
92238,-325,-157,-385,-15,-206,78,-269,-57,-6,-187,-43,-470,-23,-193,-100,-234,-237,-327,-26,-107,-466,-271,3,-84,73,-19,-22,-238,-154,-627,-311,-308
92239,-312,-125,-376,-5,-200,84,-269,-42,2,-190,-45,-454,-31,-191,-122,-210,-226,-309,-18,-129,-499,-281,21,-66,72,-18,-2,-186,-112,-599,-261,-274
92240,-309,-111,-374,-3,-213,84,-259,-38,-6,-194,-45,-451,-14,-213,-124,-244,-202,-297,-29,-124,-502,-271,27,-74,84,-30,32,-233,-88,-589,-261,-286
92241,-276,-103,-365,2,-211,85,-221,-38,16,-185,-21,-435,12,-193,-102,-313,-182,-294,-14,-107,-473,-219,46,-72,107,-15,20,-235,-76,-563,-246,-286
92242,-277,-82,-355,5,-208,89,-219,-3,33,-176,-12,-416,7,-168,-103,-484,-170,-269,8,-88,-471,-216,74,-33,138,0,-11,-141,-23,-511,-206,-244
92243,-270,-93,-329,23,-207,104,-226,25,40,-162,0,-402,11,-168,-87,-488,-123,-258,21,-91,-479,-286,73,-25,134,-1,-60,-192,-72,-535,-181,-218
92244,-278,-94,-329,18,-188,118,-249,33,44,-161,-13,-370,18,-156,-85,-341,-100,-255,11,-75,-433,-313,75,-19,152,23,-36,-194,-77,-515,-145,-210
92245,-274,-91,-343,2,-185,103,-248,19,29,-194,-16,-393,14,-162,-93,-260,-144,-252,19,-59,-456,-226,112,-17,156,33,-21,-182,-37,-481,-130,-200
92246,-237,-86,-333,-9,-195,92,-232,-16,1,-191,-12,-477,-12,-190,-107,-244,-218,-285,4,-93,-513,-173,23,-70,123,8,17,-374,-131,-538,-163,-221
92247,-227,-90,-313,-6,-201,106,-230,13,19,-186,-30,-604,4,-180,-100,-373,-129,-275,12,-90,-504,-194,28,-37,151,33,41,-289,-95,-512,-140,-203
92248,-240,-115,-328,6,-190,100,-239,26,3,-195,-28,-618,35,-150,-96,-561,-122,-287,23,-54,-489,-326,65,-30,181,50,37,-128,-10,-472,-111,-231
92249,-277,-105,-347,10,-197,110,-259,7,0,-190,-30,-494,17,-159,-108,-405,-146,-294,28,-57,-484,-338,77,-44,168,41,-23,-20,35,-444,-90,-274
92250,-262,-112,-345,10,-194,102,-259,20,25,-194,-27,-358,28,-137,-82,-201,-80,-255,59,-33,-464,-191,153,19,189,64,-34,102,115,-379,-72,-248
92251,-262,-90,-342,2,-199,98,-239,11,20,-192,-38,-324,26,-150,-89,-272,-84,-251,51,-33,-455,-72,121,11,203,62,-3,-10,61,-384,-66,-215
92252,-260,-73,-343,17,-187,96,-205,2,20,-194,-20,-342,20,-148,-75,-307,-77,-273,43,-60,-461,-71,73,-30,184,52,-10,-234,-56,-462,-126,-216
92253,-232,-67,-317,25,-180,106,-220,19,27,-191,-5,-335,32,-126,-53,-249,-76,-272,48,-39,-468,-129,93,1,198,59,-28,-243,-70,-469,-102,-199
92254,-232,-53,-329,32,-186,130,-210,38,28,-178,-4,-321,45,-133,-52,-213,-33,-248,47,-17,-461,-120,92,0,229,69,-2,-343,-78,-471,-80,-191
92255,-250,-100,-328,39,-206,109,-201,55,26,-189,-30,-315,47,-147,-80,-193,-15,-209,61,-38,-454,-150,136,33,231,66,-20,-247,-25,-430,-90,-215
92256,-258,-135,-332,-2,-211,77,-244,48,11,-211,-50,-321,57,-146,-100,-176,-82,-184,74,-61,-472,-158,219,59,225,50,-34,-27,68,-402,-104,-257
92257,-248,-125,-325,0,-208,86,-256,40,9,-205,-50,-311,64,-138,-103,-312,-86,-187,101,-49,-501,-201,243,83,260,65,-18,89,123,-382,-88,-268
92258,-239,-115,-303,8,-213,101,-251,32,18,-189,-29,-340,56,-151,-84,-528,-91,-203,78,-35,-509,-226,162,52,231,77,-23,62,65,-442,-113,-298
92259,-237,-135,-338,-4,-209,92,-254,0,-5,-188,-48,-368,24,-152,-107,-347,-90,-242,46,-53,-504,-280,72,13,215,61,-18,-166,-76,-529,-189,-291
92260,-251,-141,-374,-9,-197,107,-261,-6,-1,-176,-54,-413,5,-165,-107,-103,-132,-285,35,-45,-464,-287,29,-15,225,42,8,-245,-114,-545,-180,-300
92261,-258,-126,-325,5,-192,124,-247,3,11,-169,-34,-376,5,-161,-83,-163,-174,-280,29,-51,-418,-258,24,-8,194,39,-52,-238,-105,-576,-208,-338
92262,-249,-112,-333,3,-209,111,-258,-8,9,-175,-37,-369,9,-175,-116,-366,-167,-282,31,-72,-482,-258,9,-24,183,12,-116,-312,-150,-566,-242,-279
92263,-229,-63,-324,13,-180,122,-216,26,22,-177,-9,-349,44,-160,-116,-407,-133,-249,52,-53,-517,-230,63,11,192,29,-67,-231,-100,-518,-233,-225
92264,-205,-27,-320,18,-183,128,-193,19,16,-170,-2,-363,44,-143,-96,-311,-139,-254,39,-55,-484,-204,61,-4,203,43,-34,-306,-130,-541,-208,-214
92265,-207,-42,-316,-8,-183,112,-204,16,17,-182,-14,-361,30,-155,-118,-218,-145,-253,48,-58,-496,-247,61,-5,202,24,-24,-312,-86,-536,-210,-207
92266,-198,-80,-337,-11,-204,84,-216,5,5,-195,-59,-354,15,-159,-155,-224,-122,-244,26,-76,-487,-226,66,-8,184,28,-8,-257,-72,-537,-207,-235
92267,-227,-73,-353,-3,-236,69,-213,2,-8,-201,-75,-333,9,-158,-147,-235,-132,-247,22,-76,-495,-226,52,-3,199,31,0,-275,-60,-543,-178,-259
92268,-204,-25,-334,6,-222,94,-209,-6,12,-204,-63,-368,2,-139,-124,-253,-233,-285,13,-56,-477,-251,12,-23,182,38,-8,-340,-93,-550,-171,-176
92269,-179,-35,-321,19,-204,105,-212,17,32,-207,-42,-377,15,-125,-115,-307,-185,-292,29,-44,-464,-272,-15,-47,172,40,-43,-447,-173,-571,-194,-172
92270,-185,-43,-323,8,-192,95,-229,17,12,-214,-52,-374,7,-132,-104,-338,-128,-288,48,-56,-450,-244,8,-30,183,26,-53,-436,-164,-570,-189,-195
92271,-174,-37,-314,23,-182,94,-210,17,18,-180,-35,-362,14,-129,-102,-352,-109,-277,44,-38,-418,-231,48,-17,215,28,-43,-413,-161,-571,-177,-210
92272,-184,-63,-326,1,-187,92,-195,22,29,-179,-29,-366,23,-132,-103,-369,-93,-263,40,-51,-479,-211,32,-10,187,21,-51,-413,-166,-600,-195,-224
92273,-199,-61,-339,-5,-188,77,-211,6,17,-199,-35,-379,9,-146,-118,-299,-84,-250,32,-57,-521,-199,51,-10,180,41,-44,-359,-147,-582,-179,-229
92274,-238,-56,-402,-32,-209,78,-194,-47,12,-208,-41,-412,18,-133,-130,-229,-126,-266,35,-45,-521,-210,38,-21,182,44,-38,-333,-125,-548,-141,-230
92275,-239,-86,-399,-29,-197,67,-214,-29,42,-212,-75,-409,40,-114,-141,-298,-146,-264,87,-39,-520,-216,65,-6,225,50,-24,-295,-96,-517,-128,-231
92276,-268,-131,-413,-14,-233,58,-257,-12,34,-206,-69,-449,37,-111,-138,-434,-228,-265,73,-57,-531,-236,29,9,219,43,-20,-307,-82,-504,-145,-252
92277,-296,-139,-438,-61,-250,41,-271,-42,16,-232,-77,-466,7,-129,-141,-389,-248,-280,46,-51,-549,-252,2,-15,178,20,-53,-374,-125,-534,-167,-285
92278,-312,-171,-447,-74,-250,17,-290,-66,9,-243,-98,-484,-4,-135,-161,-341,-243,-310,40,-68,-577,-317,-32,-35,181,5,-102,-356,-143,-565,-175,-330
92279,-334,-165,-465,-73,-271,19,-303,-55,0,-239,-115,-560,1,-129,-182,-325,-268,-326,39,-76,-603,-330,-21,-45,166,-8,-147,-360,-131,-580,-210,-375
92280,-353,-170,-493,-77,-241,16,-294,-70,-11,-222,-89,-691,-5,-155,-170,-317,-313,-317,33,-86,-589,-320,0,-33,144,-13,-141,-320,-103,-564,-213,-394
92281,-317,-151,-463,-45,-222,26,-323,-70,12,-195,-81,-611,13,-150,-150,-393,-289,-280,46,-82,-609,-367,31,2,157,-9,-130,-168,-34,-519,-172,-386
92282,-316,-158,-466,-55,-245,24,-347,-86,21,-211,-147,-524,3,-147,-174,-582,-286,-290,28,-95,-643,-413,44,0,145,-36,-137,-113,-27,-501,-201,-398
92283,-314,-154,-500,-66,-244,24,-334,-107,17,-217,-136,-468,-4,-141,-170,-604,-285,-325,16,-96,-626,-487,4,-45,131,-26,-118,-165,-89,-544,-225,-408
92284,-325,-156,-522,-72,-248,0,-324,-115,11,-240,-133,-495,-41,-145,-171,-448,-346,-352,0,-112,-630,-462,-60,-83,98,-21,-96,-405,-190,-625,-314,-443
92285,-336,-198,-530,-108,-274,-19,-362,-133,-20,-271,-162,-514,-68,-155,-193,-614,-383,-370,-33,-135,-658,-357,-115,-128,85,-78,-163,-591,-267,-679,-338,-432
92286,-335,-187,-540,-96,-261,-13,-359,-117,-15,-253,-148,-493,-42,-125,-189,-977,-357,-343,-1,-99,-640,-277,-120,-97,96,-63,-166,-493,-226,-657,-292,-397
92287,-301,-145,-516,-64,-238,0,-323,-110,-3,-236,-95,-462,-27,-123,-151,-1076,-354,-339,6,-104,-616,-327,-99,-70,116,-48,-185,-401,-196,-649,-289,-434
92288,-285,-134,-516,-86,-257,-8,-300,-131,-9,-248,-106,-479,-47,-159,-158,-664,-316,-353,-15,-114,-619,-487,-67,-98,118,-58,-225,-372,-213,-653,-302,-478
92289,-292,-128,-513,-94,-243,-26,-336,-142,-8,-258,-162,-520,-74,-177,-210,-217,-370,-373,-21,-132,-643,-566,-77,-126,106,-67,-207,-338,-223,-673,-324,-498
92290,-281,-117,-500,-86,-226,-20,-379,-115,2,-239,-167,-517,-56,-152,-223,-144,-288,-372,-27,-130,-648,-414,-85,-124,94,-77,-211,-283,-197,-669,-309,-425
92291,-292,-142,-512,-87,-237,-16,-385,-118,0,-247,-184,-518,-45,-143,-226,-298,-240,-375,-39,-138,-682,-259,-103,-151,76,-91,-247,-338,-237,-683,-337,-390
92292,-291,-163,-544,-83,-239,-4,-338,-155,5,-236,-160,-558,-43,-124,-201,-346,-285,-412,-33,-133,-670,-254,-204,-182,76,-73,-208,-416,-279,-721,-334,-367
92293,-296,-163,-575,-96,-250,3,-342,-185,-8,-228,-134,-588,-62,-117,-188,-332,-357,-426,-18,-106,-620,-256,-217,-183,87,-42,-162,-426,-276,-682,-302,-347
92294,-318,-191,-581,-101,-285,-20,-373,-180,-16,-251,-140,-589,-74,-120,-188,-293,-324,-424,-12,-111,-593,-268,-211,-168,93,-55,-141,-492,-309,-696,-293,-323
