,Fp1,Fp2,F7,F3,Fz,F4,F8,FC5,FC1,FC2,FC6,T7,C3,Cz,C4,T8,TP9,CP5,CP1,CP2,CP6,TP10,P7,P3,Pz,P4,P8,PO9,O1,Oz,O2,PO10
16298,338,746,105,-444,-68,275,-178,-36,155,97,266,33,318,-33,126,342,36,78,-15,125,117,339,277,185,283,204,453,98,167,143,328,279
16299,310,801,100,-412,-64,238,-162,-76,141,93,271,5,286,-58,103,246,-40,36,-42,110,75,352,147,127,255,193,418,203,197,164,306,241
16300,277,754,103,-379,-64,246,-130,-92,142,93,293,-25,280,-42,135,261,35,24,-35,140,127,385,165,170,278,220,486,293,251,230,342,239
16301,301,735,157,-419,-60,292,-45,-62,148,115,375,8,270,-31,175,321,112,25,-21,168,166,395,246,212,307,263,552,296,249,243,369,283
16302,349,834,188,-382,-77,283,19,-77,131,104,363,-35,273,-45,155,469,63,53,-24,166,177,412,247,192,301,280,531,96,231,239,387,343
16303,422,858,201,-427,-73,294,0,-50,140,94,382,-128,288,-44,176,391,43,48,-18,171,205,435,233,208,322,301,542,88,245,258,434,381
16304,402,886,201,-348,-49,320,20,-4,154,120,407,-84,276,-45,214,296,127,16,-21,194,227,498,189,197,327,321,602,218,273,303,444,440
16305,425,942,259,-337,-26,414,26,-15,120,109,365,44,256,-112,185,280,13,19,-60,142,208,460,127,155,275,268,560,136,218,230,386,354
16306,464,914,227,-338,-31,590,-13,49,137,141,392,100,271,-119,192,416,-48,62,-61,141,224,419,167,169,273,259,553,68,185,166,334,150
16307,390,775,246,-370,-49,509,-140,91,141,128,381,63,284,-130,168,428,-147,71,-63,130,208,389,197,180,277,256,564,130,166,164,334,77
16308,256,761,292,-378,-51,319,-243,49,125,101,334,103,280,-143,141,387,-56,83,-80,111,163,323,219,168,245,242,506,139,152,151,312,188
16309,229,705,296,-345,-57,404,-182,63,160,117,361,141,286,-121,145,337,129,120,-59,116,144,320,242,170,266,236,437,228,175,165,304,236
16310,374,800,380,-353,-54,309,-134,150,156,123,349,66,315,-131,160,335,89,78,-61,114,156,354,147,158,257,222,453,225,178,139,302,141
16311,402,837,375,-315,-46,266,-130,125,171,122,328,73,350,-102,161,330,78,117,-32,131,180,291,182,181,277,241,509,192,183,139,306,82
16312,454,845,254,-314,-74,231,-143,67,152,119,324,167,363,-109,156,345,109,158,-21,118,185,300,228,228,299,250,509,179,201,177,309,153
16313,543,885,289,-412,-77,307,-113,89,156,135,348,230,370,-82,176,345,96,160,-5,132,170,369,259,222,292,248,490,170,193,156,309,156
16314,500,801,323,-377,-52,346,-55,86,194,134,357,25,367,-81,172,340,52,127,7,146,176,346,236,204,286,254,490,169,192,182,324,203
16315,510,773,373,-363,-54,276,-117,82,196,123,320,-51,374,-74,166,385,68,162,15,151,157,340,226,221,296,255,448,179,201,185,343,225
16316,446,718,384,-393,-84,223,-221,69,144,90,259,-5,368,-94,114,324,-14,163,-27,101,106,275,216,194,287,200,425,149,164,155,281,109
16317,417,745,319,-342,-72,266,-164,-4,169,82,258,177,394,-88,114,302,63,233,-8,95,103,243,240,204,260,188,403,125,133,115,236,41
16318,435,795,231,-345,-71,319,-176,-82,198,102,328,262,410,-65,138,325,105,234,7,108,112,296,288,220,267,184,428,4,120,95,220,83
16319,443,834,178,-324,-83,218,-238,11,212,97,259,221,405,-75,96,201,97,204,0,107,94,362,287,215,266,183,457,51,148,96,254,60
16320,396,807,165,-258,-54,209,-269,97,220,100,251,152,419,-47,123,253,198,234,50,130,137,379,310,248,302,229,501,122,186,161,303,91
16321,302,846,100,-189,-37,248,-240,166,211,105,285,181,400,-36,138,285,185,171,52,131,177,361,233,244,335,251,522,178,208,206,314,167
16322,281,899,121,-139,-56,305,-180,251,227,94,294,117,408,-32,152,309,163,146,18,141,183,373,186,229,319,256,551,242,207,195,358,228
16323,313,677,209,-165,-69,493,-134,242,219,107,318,9,430,-35,161,428,94,179,32,145,166,398,220,266,320,259,547,220,235,236,372,231
16324,296,637,314,-207,-51,561,-154,189,212,142,334,6,445,-30,165,594,116,225,37,148,202,422,329,302,344,281,547,157,269,280,406,347
16325,236,614,532,-290,-26,350,-190,206,202,135,359,-97,449,-31,183,396,231,247,48,178,199,406,393,300,350,282,542,198,269,266,401,315
16326,277,642,529,-345,-54,399,-192,123,178,129,372,-23,423,-48,185,309,200,217,26,176,202,337,297,270,330,290,543,186,223,246,382,252
16327,410,802,477,-401,-55,348,-159,102,175,144,401,292,393,-56,218,365,150,217,23,213,241,330,247,274,347,326,555,204,245,259,413,291
16328,439,848,475,-381,-44,248,-164,186,186,113,345,355,432,-37,185,260,77,251,33,214,230,408,361,295,365,323,564,165,269,260,402,356
16329,460,789,447,-343,-67,276,-164,242,189,99,281,398,423,-59,157,282,136,230,23,182,203,384,374,276,356,317,544,136,227,259,392,337
16330,422,711,394,-306,-87,277,-239,276,179,102,287,356,360,-62,149,384,241,158,0,174,200,392,294,251,344,337,549,187,222,271,438,295
16331,427,634,373,-270,-59,436,-190,255,209,137,329,297,386,-58,192,353,251,144,14,201,243,441,298,265,368,362,622,188,227,273,451,314
16332,486,664,479,-339,-61,365,-135,65,177,121,322,283,336,-80,183,310,248,156,-13,193,242,406,301,286,371,362,634,254,230,272,462,367
16333,434,747,509,-319,-56,407,-88,99,184,136,345,221,324,-82,192,295,267,102,13,198,233,388,214,271,357,356,621,302,229,291,483,388
16334,398,681,413,-206,-48,288,-106,11,209,140,342,347,340,-52,201,330,272,87,10,198,254,392,202,261,352,352,605,327,245,287,475,377
16335,454,709,317,-381,-44,235,-115,16,181,118,327,367,333,-50,177,388,171,94,6,195,215,347,204,252,335,327,556,309,234,244,432,331
16336,428,712,192,-380,-78,368,-152,22,175,101,289,209,335,-80,158,425,39,116,0,157,173,301,179,206,316,284,508,190,163,208,385,272
16337,464,800,176,-370,-70,214,-185,-138,183,97,263,108,363,-58,156,369,-18,165,20,160,179,382,178,228,337,288,530,123,168,156,349,226
16338,448,776,226,-401,-83,142,-171,19,175,79,267,-54,372,-48,146,159,96,124,10,173,153,373,202,244,328,287,518,153,164,166,339,225
16339,371,739,133,-333,-105,193,-240,46,175,75,192,-169,335,-70,119,199,163,61,-12,155,141,338,178,222,325,267,456,140,138,145,313,165
16340,325,786,73,-332,-101,187,-196,23,175,89,259,68,340,-48,152,237,136,68,21,185,163,351,153,212,334,281,486,124,159,157,353,126
16341,300,782,137,-368,-94,183,-162,47,191,103,278,141,356,-36,170,284,46,123,32,204,184,296,206,255,352,285,527,123,168,197,387,82
16342,313,789,230,-345,-93,194,-155,31,192,103,295,157,356,-28,167,330,19,94,4,201,197,314,158,227,352,286,543,155,160,180,377,-53
16343,245,733,408,-443,-85,168,-239,-14,153,93,290,54,306,-45,149,313,33,37,-25,176,163,336,117,180,337,293,528,155,137,174,388,48
16344,241,751,377,-523,-88,108,-329,9,117,74,281,-38,288,-56,128,337,9,26,-46,143,150,232,180,154,311,261,500,87,115,140,351,208
16345,344,737,308,-505,-96,200,-322,25,127,68,258,-75,282,-51,105,402,-74,26,-52,136,128,240,204,170,296,244,461,70,112,137,350,291
16346,343,699,321,-504,-99,202,-257,1,130,68,224,-248,282,-73,105,398,-56,29,-48,128,112,335,199,162,298,250,462,29,91,122,368,300
16347,373,674,334,-499,-88,232,-209,-31,101,54,234,-199,254,-73,119,189,6,6,-77,137,153,371,198,150,273,247,523,99,119,132,370,239
16348,366,735,279,-474,-77,262,-183,-126,114,79,285,-77,208,-98,135,187,148,-14,-77,116,190,420,104,117,278,259,595,150,162,181,387,105
16349,305,689,289,-405,-74,293,-132,-99,112,94,325,-327,248,-103,136,376,111,-30,-72,140,227,475,107,118,286,279,633,160,167,193,421,162
16350,363,743,325,-403,-58,269,-109,-29,128,103,356,-165,287,-87,140,536,59,-2,-82,163,250,496,148,144,278,291,651,145,182,187,460,328
16351,422,799,369,-411,-54,233,-115,23,128,83,326,76,302,-92,132,387,24,44,-77,135,194,476,176,135,268,285,606,119,193,186,439,308
16352,441,794,391,-414,-71,205,-95,40,119,73,297,200,286,-129,98,223,26,56,-107,97,165,502,259,141,242,253,579,176,188,167,416,192
16353,461,811,428,-446,-73,177,-99,37,129,64,276,361,274,-138,97,206,184,85,-110,95,173,474,346,136,250,245,566,189,184,136,395,269
16354,445,820,439,-413,-60,129,-101,90,144,61,261,311,289,-116,90,273,196,64,-105,114,154,476,263,150,251,237,512,230,128,117,353,353
16355,438,752,413,-407,-42,368,-113,21,128,79,291,302,274,-110,106,371,107,69,-87,107,162,343,175,137,248,232,491,270,136,126,307,358
16356,401,702,355,-429,-59,438,-139,-58,114,63,285,278,256,-112,95,373,73,42,-94,90,129,236,152,115,245,199,469,310,145,100,268,303
16357,418,720,296,-401,-66,261,-152,59,141,69,268,250,268,-113,54,339,119,42,-95,79,94,257,136,134,220,170,440,244,123,63,250,224
16358,438,692,295,-358,-68,298,-202,174,171,77,219,237,290,-123,60,324,189,66,-77,64,78,270,171,138,210,144,414,181,128,51,214,210
16359,450,715,364,-403,-81,205,-211,151,158,35,146,220,295,-139,39,325,157,54,-90,37,50,279,235,113,191,121,376,94,101,24,196,174
16360,438,735,407,-399,-72,200,-175,125,183,42,222,315,309,-120,55,265,163,62,-85,36,43,310,270,130,199,115,370,100,111,26,184,158
16361,370,791,407,-332,-57,216,-179,129,188,56,234,326,333,-85,49,224,54,90,-73,29,26,332,236,124,186,112,382,221,131,35,182,151
16362,319,758,361,-346,-80,202,-157,177,175,42,219,131,353,-99,46,231,2,89,-81,23,12,242,226,139,183,83,386,217,119,50,150,110
16363,366,770,268,-302,-62,211,-144,202,204,39,228,117,363,-89,42,251,194,138,-69,28,9,209,273,158,197,96,391,257,156,49,166,88
16364,387,789,231,-245,-55,213,-195,204,223,39,203,178,354,-83,18,255,304,141,-59,14,-2,242,264,146,181,82,387,267,148,39,151,24
16365,431,766,386,-245,-37,231,-301,217,203,43,163,18,345,-98,4,326,265,92,-91,-12,-32,254,221,134,160,64,335,220,110,21,116,-129
16366,421,781,462,-303,-70,232,-348,48,150,31,143,-196,322,-108,-6,291,207,94,-127,-32,-60,237,184,114,145,22,309,277,111,16,111,-106
16367,434,848,483,-326,-68,160,-300,-27,166,39,172,60,309,-93,12,231,188,156,-97,20,-24,268,239,124,185,62,348,296,127,41,138,42
16368,418,773,472,-311,-54,285,-236,177,170,52,232,232,343,-97,25,285,152,182,-95,30,-32,238,304,138,195,78,305,188,100,31,135,146
16369,367,755,459,-348,-52,319,-238,112,166,40,247,301,331,-128,27,251,171,187,-90,1,-31,187,340,145,177,66,254,213,126,42,130,140
16370,302,803,395,-254,-49,300,-238,126,181,60,231,358,357,-101,43,187,237,177,-77,18,4,304,361,173,214,87,324,241,150,95,170,-55
16371,280,777,324,-218,-34,341,-273,185,194,93,256,239,381,-98,82,243,224,141,-60,61,36,309,320,181,231,127,391,269,140,98,188,-118
16372,336,787,359,-305,-24,447,-314,142,171,126,326,343,316,-108,125,230,246,162,-54,90,53,320,347,198,257,157,442,315,180,117,211,51
16373,338,802,318,-170,-3,394,-279,244,205,118,260,310,356,-119,120,262,269,173,-63,81,63,290,350,203,255,168,420,286,168,102,210,97
16374,425,830,375,-234,4,288,-214,189,201,113,281,263,351,-129,119,280,295,180,-67,88,94,305,281,202,266,156,424,239,147,79,202,158
16375,480,799,381,-307,-28,317,-166,115,185,97,275,6,350,-122,98,178,249,187,-47,99,75,342,243,216,260,160,399,234,168,115,210,226
16376,432,813,371,-299,-41,272,-159,84,184,88,251,-215,361,-111,76,195,152,186,-39,91,63,337,246,232,258,160,380,293,175,126,242,198
16377,479,890,395,-284,-16,237,-153,147,224,74,268,-102,410,-84,62,282,132,219,9,108,86,326,289,278,301,203,414,294,184,161,262,119
16378,510,869,452,-274,-24,238,-148,244,227,44,269,22,433,-89,53,306,148,226,4,92,91,300,335,263,282,194,420,242,178,133,263,175
16379,529,834,475,-321,-34,250,-148,214,223,75,301,422,438,-70,82,312,280,299,36,117,114,268,438,315,320,221,433,313,223,182,291,285
16380,522,768,509,-334,-67,214,-178,221,211,65,255,449,402,-66,73,282,274,267,22,128,111,287,431,320,338,234,428,314,231,203,318,292
16381,519,778,547,-353,-58,148,-141,240,230,74,283,271,416,-34,75,286,299,239,38,157,145,400,403,315,335,256,479,316,242,210,342,247
16382,504,755,547,-325,-53,228,-107,229,228,65,274,329,407,-36,89,311,274,225,26,121,146,431,344,301,328,255,484,246,203,190,320,255
16383,451,755,511,-314,-62,248,-80,191,215,79,274,332,387,-43,97,352,228,220,26,120,125,381,346,285,338,233,460,184,157,153,294,231
16384,490,817,488,-360,-55,250,-102,175,238,107,290,339,411,-5,125,392,182,259,50,161,155,381,470,331,359,249,472,151,172,174,319,236
16385,468,759,467,-396,-90,228,-177,161,216,69,201,318,392,-17,84,364,201,252,15,122,119,391,501,293,334,230,472,120,161,141,294,227
16386,369,682,416,-402,-111,229,-209,183,185,50,196,270,354,-37,64,365,143,167,7,101,90,355,295,245,303,207,426,166,132,118,273,215
16387,360,707,391,-396,-101,243,-177,178,193,64,262,248,365,-64,112,362,139,182,9,120,101,372,266,262,324,223,446,209,128,139,276,210
16388,378,716,342,-372,-93,256,-133,188,221,64,317,166,378,-31,129,358,305,147,14,169,144,415,284,273,351,256,526,330,190,197,358,293
16389,390,745,323,-325,-82,297,-94,135,215,91,363,166,342,-31,145,419,356,121,30,196,207,456,265,294,373,296,549,376,233,240,400,380
16390,395,763,363,-289,-67,296,-52,111,191,130,384,122,339,-21,194,447,310,147,44,205,221,496,264,285,383,295,535,410,258,256,410,346
16391,355,752,284,-281,-76,268,-67,86,201,133,356,-8,381,-29,178,474,309,207,49,207,232,516,318,301,382,307,580,363,284,250,407,205
16392,288,726,183,-317,-106,255,-100,91,182,118,350,20,352,-50,136,537,250,228,12,199,224,491,376,329,361,302,596,288,257,242,371,156
16393,283,706,216,-383,-91,256,-85,114,177,117,346,113,355,-40,144,467,220,249,12,190,214,493,433,333,361,296,611,300,270,239,378,197
16394,268,725,125,-361,-69,311,-126,141,196,136,358,229,371,-49,143,467,279,237,31,191,209,538,362,326,376,309,615,438,320,270,408,287
16395,309,702,137,-341,-66,419,-171,98,188,130,383,305,334,-70,150,549,356,198,10,176,214,541,362,336,365,305,611,437,317,265,401,259
16396,349,691,237,-347,-73,393,-185,117,174,111,401,173,316,-78,134,408,191,148,-11,162,198,455,317,304,351,278,558,342,268,222,366,153
16397,383,730,372,-357,-73,353,-152,172,194,125,417,188,374,-60,169,380,200,183,10,182,223,508,312,294,373,287,559,267,279,242,383,183
16398,420,769,523,-357,-70,378,-117,107,186,133,430,305,363,-68,182,409,145,228,26,188,225,555,382,316,391,310,585,343,313,265,423,259
16399,410,783,537,-403,-73,300,-62,-75,171,123,420,392,326,-65,167,478,113,279,23,182,227,527,415,340,383,328,609,377,318,280,462,325
16400,372,780,520,-382,-87,253,-15,94,176,95,381,301,353,-63,143,459,205,243,5,166,206,515,405,303,367,301,607,400,278,257,446,244
16401,348,710,499,-352,-83,246,-78,200,199,93,388,257,374,-52,157,446,308,225,29,155,218,453,448,294,353,289,607,352,262,245,419,249
16402,368,713,461,-324,-80,185,-104,226,213,88,374,322,388,-47,133,435,286,248,1,119,192,412,467,287,328,269,559,244,229,224,371,344
16403,374,701,421,-332,-87,273,-86,229,227,94,371,365,405,-30,132,434,235,237,20,134,196,484,424,298,333,286,564,259,223,241,380,324
16404,356,722,382,-352,-93,248,-95,248,211,69,358,163,387,-44,114,449,174,185,0,132,174,484,325,259,316,252,529,232,181,196,371,227
16405,296,689,395,-377,-113,234,-111,261,219,62,360,106,388,-68,98,470,171,152,-32,113,158,484,279,210,268,226,532,195,124,148,335,276
16406,209,698,406,-308,-114,226,-118,188,211,65,342,10,375,-71,85,428,215,151,-42,114,143,515,296,225,293,228,541,255,171,174,354,275
16407,268,706,386,-332,-93,214,-124,154,187,78,317,-209,344,-74,91,399,166,131,-41,125,162,499,268,214,289,228,532,294,180,198,363,271
16408,241,686,358,-337,-101,218,-156,120,187,75,232,-35,355,-62,102,423,134,142,-37,141,190,436,254,216,290,258,560,330,216,213,392,326
16409,214,691,346,-390,-93,253,-234,115,182,81,230,149,352,-76,88,402,173,160,-51,120,174,462,250,224,293,265,560,299,207,226,397,383
16410,182,707,319,-420,-89,278,-231,205,190,93,289,155,393,-58,103,400,175,156,-40,108,155,445,337,218,281,243,569,211,200,203,375,365
16411,233,679,345,-378,-84,284,-172,193,212,84,277,56,401,-43,102,437,170,170,-27,136,174,485,433,266,298,260,589,161,248,216,422,344
16412,307,671,396,-332,-60,295,-148,152,218,95,300,132,391,-48,104,426,263,194,-20,156,189,491,462,287,324,265,588,225,273,235,441,327
16413,388,705,456,-338,-58,249,-147,188,201,91,291,314,381,-74,74,423,269,214,-31,130,174,450,374,273,323,278,598,381,286,239,410,295
16414,401,726,465,-350,-59,250,-152,237,188,87,284,445,378,-89,102,401,279,217,-30,109,187,425,321,286,312,265,593,462,305,265,448,274
16415,413,751,411,-354,-43,255,-119,221,183,78,291,502,365,-102,104,388,319,210,-38,97,171,415,326,272,317,245,529,424,291,256,421,300
16416,384,732,387,-362,-48,266,-142,217,186,84,287,437,366,-134,98,302,285,196,-58,98,134,296,347,262,322,237,497,326,269,232,405,323
16417,371,712,427,-387,-50,326,-158,215,202,86,281,190,370,-122,93,241,206,195,-47,88,127,299,360,275,297,235,516,252,241,233,399,256
16418,384,714,450,-358,-60,297,-211,205,187,75,232,-196,356,-141,62,280,204,177,-67,56,112,269,391,246,271,198,501,173,189,174,358,201
16419,408,738,435,-344,-61,192,-227,144,176,56,190,-118,371,-145,48,245,215,184,-86,23,45,232,360,233,244,161,469,161,147,134,323,196
16420,330,664,353,-344,-51,213,-258,143,193,63,188,122,356,-117,17,157,209,153,-101,26,9,245,234,187,236,142,420,300,168,147,325,310
16421,277,640,246,-389,-55,217,-319,209,180,79,173,148,359,-128,-7,98,132,130,-96,13,-19,250,185,172,205,107,366,296,181,115,278,285
16422,275,647,267,-383,-74,241,-323,189,191,55,170,222,366,-133,-5,43,91,141,-99,-9,-23,235,227,190,209,89,367,272,183,105,274,275
16423,235,630,307,-390,-83,226,-372,141,160,46,156,216,328,-130,-22,74,107,112,-101,-7,-24,217,266,195,208,100,374,230,175,108,279,300
16424,252,618,345,-417,-66,263,-367,94,163,86,174,234,294,-97,8,97,117,113,-88,30,-9,207,315,207,223,119,359,220,182,98,235,246
16425,272,610,298,-440,-71,256,-375,74,134,64,126,204,263,-110,-7,132,121,73,-133,8,-40,138,292,168,186,70,301,143,120,32,163,30
16426,281,612,275,-439,-70,136,-381,37,139,60,98,137,254,-126,-6,171,118,36,-136,8,-30,149,235,146,172,86,308,66,73,32,184,16
16427,234,561,246,-443,-98,165,-346,-100,116,67,95,229,211,-148,-14,9,-56,12,-155,23,-17,183,222,115,164,91,326,21,21,24,187,60
16428,231,555,155,-423,-105,206,-315,-318,134,63,109,337,203,-129,8,-51,-70,25,-152,35,-4,178,244,107,174,114,346,-22,13,-28,151,-40
16429,285,597,226,-533,-87,193,-319,-129,137,65,133,189,225,-112,21,42,-101,36,-142,45,-7,88,299,124,167,112,369,-40,8,-15,165,-47
16430,277,622,327,-484,-64,211,-331,-14,167,93,159,55,263,-88,53,127,-5,14,-122,67,30,101,244,131,184,143,405,104,39,22,179,28
16431,264,634,311,-394,-70,140,-366,36,175,75,150,-66,254,-123,25,210,81,-30,-171,64,33,188,82,79,168,134,415,232,28,12,181,10
16432,306,636,316,-391,-55,315,-357,112,165,96,197,-330,260,-141,53,284,124,-64,-178,65,77,215,20,57,184,132,432,251,35,9,191,-19
16433,284,612,356,-387,-75,304,-396,78,158,98,181,-440,284,-141,66,238,64,-50,-175,72,76,192,40,77,186,150,417,181,21,-3,166,-163
16434,247,634,387,-379,-75,159,-363,82,173,89,193,-177,314,-144,47,138,43,55,-136,88,63,279,174,139,210,167,436,135,51,32,208,-81
16435,255,640,370,-351,-80,181,-368,96,174,81,207,103,326,-155,70,165,46,84,-128,74,72,204,252,159,209,159,442,154,86,40,208,105
16436,175,615,293,-333,-99,204,-365,117,166,39,168,181,317,-171,37,218,52,80,-132,43,59,227,233,160,185,134,395,168,87,45,191,156
16437,178,641,287,-332,-70,246,-259,121,171,61,224,224,323,-142,61,250,128,126,-114,75,74,302,206,169,225,155,393,191,101,78,214,127
16438,222,639,303,-340,-73,265,-243,159,181,77,217,19,323,-138,67,332,195,118,-118,55,87,248,187,157,226,129,387,86,83,58,188,70
16439,217,657,279,-319,-63,244,-203,198,199,84,218,-104,364,-105,67,340,199,147,-74,58,98,241,223,196,239,151,393,168,97,69,187,-41
16440,181,627,273,-296,-60,228,-239,127,191,68,242,41,377,-134,59,281,121,124,-89,46,90,312,215,202,232,152,439,246,106,56,190,-52
16441,279,608,231,-340,-73,237,-292,46,172,73,251,266,344,-145,72,306,144,130,-97,53,111,356,236,204,211,158,483,244,120,64,205,91
16442,299,565,174,-341,-81,247,-291,211,194,84,290,331,358,-127,69,296,167,151,-88,56,82,374,302,197,230,146,420,199,103,71,219,213
16443,302,584,258,-416,-79,240,-272,204,183,58,271,269,336,-121,53,251,211,138,-93,50,64,384,344,195,226,128,378,223,136,94,243,297
16444,316,642,373,-435,-73,213,-209,140,204,55,231,164,336,-99,42,185,197,109,-104,58,66,411,306,185,214,119,384,236,106,95,242,260
16445,352,706,410,-372,-54,228,-191,112,214,66,217,236,354,-92,37,272,188,121,-88,72,46,383,249,162,217,115,407,206,59,47,211,174
16446,294,628,334,-397,-79,187,-288,55,173,52,194,273,314,-115,10,319,144,96,-125,30,12,325,212,107,162,59,359,69,-9,-21,148,119
16447,284,606,343,-383,-63,200,-330,77,185,61,195,261,334,-102,13,373,148,83,-130,23,11,312,235,114,155,62,357,-8,-40,-43,114,142
