,Fp1,Fp2,F7,F3,Fz,F4,F8,FC5,FC1,FC2,FC6,T7,C3,Cz,C4,T8,TP9,CP5,CP1,CP2,CP6,TP10,P7,P3,Pz,P4,P8,PO9,O1,Oz,O2,PO10
68358,462,248,526,142,50,391,-27,432,189,162,244,-113,385,35,168,189,95,177,102,8,157,-5,169,261,208,243,423,79,387,198,155,185
68359,474,247,560,145,57,397,-36,445,184,166,254,-123,384,24,162,208,74,186,83,14,164,0,176,261,202,241,475,191,423,241,228,293
68360,495,275,560,154,78,401,-9,452,189,174,268,-100,387,8,151,213,92,181,63,-9,178,24,162,236,171,235,452,141,351,183,202,191
68361,493,259,558,141,58,375,-9,451,191,140,252,-99,373,-9,140,185,90,177,62,-41,127,21,150,219,141,192,385,131,338,143,95,41
68362,511,245,569,174,61,367,2,476,195,114,250,-91,380,-24,122,184,141,182,26,-71,121,54,164,201,95,154,353,70,235,18,-26,41
68363,520,249,575,193,66,378,9,498,194,134,263,-54,411,-29,125,195,176,198,31,-57,134,101,121,215,90,155,383,-11,236,48,43,46
68364,543,273,618,183,51,390,38,531,221,128,279,-30,445,-8,147,203,241,242,79,-40,129,90,178,247,131,175,408,75,343,143,110,35
68365,549,261,641,186,55,380,36,543,201,104,238,-16,437,-13,142,204,252,256,86,-46,137,52,231,247,144,176,408,138,352,119,93,90
68366,568,267,661,183,55,375,53,538,202,112,246,7,421,-6,148,252,246,236,70,-47,166,104,189,219,125,172,415,-28,227,6,39,147
68367,541,265,638,188,60,366,41,535,208,130,267,7,425,1,156,284,201,231,76,-21,168,140,144,201,110,204,448,-208,151,-30,33,168
68368,505,243,608,185,47,352,28,535,199,123,229,4,420,12,131,291,171,232,65,-32,163,103,159,209,128,216,444,-127,199,29,44,145
68369,485,243,597,175,42,351,43,534,210,130,252,-40,421,5,139,289,175,210,59,-9,178,112,148,234,163,228,462,-61,265,77,87,173
68370,500,215,598,161,38,343,21,522,207,133,263,-59,420,20,145,247,193,219,84,6,178,128,192,269,160,242,468,-3,330,147,153,216
68371,505,236,608,177,57,353,27,507,210,114,253,-53,418,33,145,190,178,262,103,9,176,126,255,316,210,254,432,148,457,242,202,259
68372,489,245,602,184,39,353,17,511,224,118,230,-49,425,30,141,169,150,254,125,28,176,124,280,368,262,286,459,311,597,351,274,301
68373,499,250,616,187,50,354,36,504,217,124,233,-35,420,31,157,183,200,274,145,65,211,93,324,402,277,312,486,426,649,398,310,326
68374,503,261,626,170,61,344,38,505,200,114,245,-1,420,38,159,214,208,279,136,60,212,138,269,363,258,286,489,201,531,300,246,299
68375,505,251,631,180,40,333,-13,525,223,115,212,49,462,31,144,238,266,296,137,26,213,132,235,342,245,274,470,-54,382,139,135,302
68376,500,234,633,174,44,343,5,537,237,115,211,61,468,49,153,264,284,307,153,43,187,93,253,351,260,271,487,-17,350,114,136,299
68377,469,219,624,158,34,332,12,527,212,94,211,45,447,51,145,278,193,296,141,46,195,131,245,339,263,270,491,29,408,151,124,277
68378,483,236,641,159,37,336,25,515,206,93,226,40,437,49,150,297,205,306,144,52,208,147,278,343,288,286,494,112,447,147,118,173
68379,525,293,664,176,50,352,84,513,215,110,218,44,458,66,176,336,231,326,167,75,229,191,320,385,307,319,515,240,515,257,183,240
68380,535,323,671,173,42,374,74,520,212,97,241,69,465,58,188,339,268,329,183,95,237,214,355,430,340,359,546,347,592,331,237,336
68381,558,336,684,196,75,389,104,540,223,122,282,94,465,87,200,316,282,327,196,105,249,227,333,432,362,360,541,224,555,289,218,272
68382,563,347,696,189,75,388,114,527,216,101,272,85,465,74,192,312,311,318,174,82,235,231,291,387,343,333,503,108,467,212,153,181
68383,540,326,687,184,47,369,61,523,201,89,256,62,459,74,187,320,324,315,183,92,243,277,313,400,345,338,535,132,465,244,188,255
68384,540,310,655,174,28,350,67,518,191,79,255,68,446,85,197,316,316,305,192,104,228,278,299,391,344,328,521,112,449,238,179,254
68385,523,285,659,146,28,349,69,527,200,94,264,72,467,85,193,310,311,310,195,102,219,248,309,377,330,312,509,111,434,206,152,227
68386,547,291,673,166,40,371,63,534,207,117,290,84,485,95,184,304,343,329,203,106,233,218,325,393,347,313,483,182,465,221,151,220
68387,528,284,656,163,23,372,66,527,211,112,302,73,469,92,194,292,300,304,214,116,245,185,331,410,363,341,511,255,526,297,229,261
68388,481,265,608,139,29,359,83,517,190,120,281,34,432,85,198,286,246,300,199,130,252,122,315,417,360,353,537,286,556,342,269,341
68389,500,286,617,137,41,362,77,504,189,107,261,52,445,81,213,282,272,296,188,120,240,166,315,402,356,345,513,282,551,326,273,331
68390,502,307,623,134,27,357,82,500,193,106,286,69,437,92,207,278,282,302,167,96,247,182,333,380,332,301,489,238,520,275,172,220
68391,511,287,595,138,33,350,74,475,174,109,305,53,425,71,225,291,283,277,166,101,253,178,298,359,313,316,506,160,460,233,183,280
68392,499,266,604,136,18,348,57,466,185,95,267,33,433,63,212,269,288,272,168,100,225,165,251,338,289,300,487,143,404,171,125,241
68393,495,277,604,149,15,368,75,497,212,121,273,20,450,92,256,274,322,296,184,121,231,177,278,385,328,300,477,239,477,231,166,215
68394,485,273,591,139,15,376,76,489,234,124,287,17,457,122,254,275,311,284,198,117,223,130,241,366,317,297,465,170,414,163,105,187
68395,486,255,579,132,14,355,67,477,208,102,268,10,445,110,209,248,272,268,183,83,201,126,201,330,303,255,442,109,366,134,60,155
68396,456,240,587,128,-7,341,65,478,194,96,273,26,438,95,209,255,247,267,170,86,204,159,209,306,284,258,430,54,375,144,95,187
68397,464,243,571,122,-16,356,99,483,218,123,295,28,449,106,208,291,238,282,157,82,212,186,262,330,302,265,457,103,397,174,130,235
68398,468,233,570,133,-13,347,42,493,224,123,281,47,474,120,201,261,229,285,175,94,203,141,297,359,309,279,460,203,457,239,163,226
68399,460,200,592,147,-9,322,0,505,219,127,267,47,467,106,188,243,207,294,203,75,200,74,318,382,303,275,453,266,533,319,202,231
68400,475,182,596,148,-13,305,10,507,211,96,253,56,452,84,162,232,224,285,168,42,179,97,283,345,277,232,431,199,486,249,142,203
68401,487,210,619,158,-8,331,27,522,229,106,258,64,473,85,173,257,281,278,170,56,199,139,282,331,275,250,448,153,420,192,126,217
68402,463,199,602,154,-18,322,44,496,217,107,267,30,460,88,168,269,268,276,157,52,192,147,269,309,263,222,432,124,366,103,71,201
68403,468,199,635,160,8,344,72,531,225,127,296,33,477,92,178,279,265,266,149,49,194,170,205,287,238,183,395,-49,250,-6,-1,155
68404,443,186,603,139,-6,327,55,506,217,131,288,7,493,89,166,251,219,271,167,46,175,161,193,298,239,229,416,6,331,119,89,192
68405,436,143,569,136,-10,326,26,501,228,119,282,-7,499,110,176,212,228,288,181,72,169,136,231,342,268,238,400,218,478,251,137,204
68406,398,106,549,116,-31,306,-8,502,212,114,267,-22,472,104,158,199,193,245,172,56,158,119,212,293,250,230,375,143,430,179,106,179
68407,387,116,535,112,-25,309,-3,481,216,133,300,-45,460,115,185,248,176,248,157,74,196,111,169,284,255,258,444,-55,331,153,145,321
68408,381,106,548,115,-30,303,-6,478,210,135,275,-49,461,115,180,252,132,240,150,88,212,97,152,283,264,274,473,-107,294,159,193,419
68409,385,114,558,104,-26,322,-5,481,212,126,251,-67,451,110,166,230,157,221,153,72,186,79,154,265,243,251,434,-64,237,51,92,296
68410,399,130,574,106,-12,323,-3,462,214,134,261,-112,434,108,189,237,163,221,133,70,170,107,137,238,231,236,379,-81,230,-6,2,129
68411,366,115,539,90,-3,322,-28,452,213,138,231,-114,433,114,174,204,151,175,128,66,150,77,100,228,224,227,356,-134,250,1,19,40
68412,300,73,461,56,-16,323,-77,407,186,122,215,-153,401,113,171,163,145,155,144,55,144,53,85,231,242,234,350,-128,267,35,18,44
68413,265,35,427,17,-48,312,-103,373,184,121,195,-163,382,101,144,133,96,149,126,70,136,-17,97,240,243,243,338,-62,328,125,47,52
68414,259,46,425,20,-47,309,-96,378,190,113,195,-168,368,112,166,146,77,160,130,75,157,-89,105,264,258,271,358,-10,389,197,130,122
68415,275,56,431,27,-46,297,-97,352,159,111,188,-192,364,110,164,161,58,147,139,103,150,-25,103,261,277,278,401,49,415,220,190,236
68416,297,54,427,35,-52,300,-99,341,156,108,191,-183,350,81,160,148,76,120,109,81,124,8,87,218,228,229,333,-53,296,58,27,91
68417,308,74,450,51,-10,337,-68,382,191,138,218,-145,362,101,189,155,96,151,122,91,150,81,119,230,250,248,361,-39,282,66,75,70
68418,288,60,408,40,-17,302,-68,351,171,131,191,-153,344,83,178,130,93,169,134,84,168,105,167,280,298,279,436,70,409,218,233,275
68419,296,32,397,43,-26,318,-71,337,180,130,172,-168,366,83,149,125,97,185,150,106,192,93,196,321,324,320,464,210,531,334,329,432
68420,307,52,412,62,0,303,-137,350,192,124,143,-146,377,77,162,138,103,183,164,114,195,53,205,343,348,343,505,212,538,372,387,524
68421,333,76,417,68,3,294,-124,353,183,119,139,-139,369,80,162,131,114,169,147,97,164,82,195,324,316,307,432,218,482,239,227,243
68422,349,74,414,83,-5,308,-78,362,200,110,157,-123,380,91,140,112,151,192,152,88,139,83,231,326,328,272,359,360,511,230,98,-164
68423,334,68,422,87,0,310,-91,377,201,114,178,-139,402,98,149,148,157,187,175,97,162,83,197,317,331,284,380,199,439,191,104,-75
68424,330,69,444,76,-24,290,-102,366,188,98,132,-141,381,89,151,159,135,146,142,76,153,61,105,261,283,268,395,-121,314,118,103,67
68425,325,63,429,69,-20,284,-84,357,204,99,150,-154,397,89,146,158,126,169,136,64,169,58,109,274,287,277,407,-105,378,154,107,52
68426,313,48,438,76,-14,266,-113,358,191,99,143,-139,406,79,151,136,143,188,167,99,179,103,152,301,301,304,431,17,402,192,156,105
68427,308,50,471,87,-29,278,-125,376,217,113,154,-137,435,84,154,162,160,192,172,102,184,141,133,291,298,309,460,-87,344,145,162,183
68428,308,45,464,102,-29,277,-118,379,218,92,164,-128,427,67,153,170,168,209,159,80,183,159,150,278,314,298,469,-74,349,159,162,236
68429,299,48,457,103,-28,281,-115,393,222,120,173,-102,450,88,168,177,156,241,189,90,208,177,201,322,335,337,529,79,463,270,281,435
68430,284,37,421,85,-40,291,-127,369,218,95,174,-129,449,100,177,177,140,229,187,117,207,169,205,343,326,333,554,150,505,305,307,510
68431,313,28,457,108,-17,305,-106,400,224,111,180,-108,453,93,163,203,177,250,180,111,231,182,231,343,331,347,571,143,488,285,279,512
68432,311,18,491,117,-21,311,-96,426,221,109,179,-94,463,95,166,204,218,284,202,105,209,183,256,368,348,335,534,208,545,327,271,377
68433,339,49,515,96,-25,301,-92,429,196,92,162,-93,453,90,154,184,214,266,206,95,189,166,238,386,345,298,490,231,572,334,242,235
68434,391,108,573,144,2,337,-45,468,226,121,187,-57,472,100,177,209,247,299,232,99,197,175,302,407,365,329,476,327,614,372,269,142
68435,381,132,543,144,2,344,-9,480,217,121,197,-21,462,78,148,196,271,291,207,77,187,157,279,348,320,289,437,210,464,213,189,125
68436,356,107,525,113,-4,330,-61,446,202,119,174,-8,461,87,139,196,266,293,190,70,191,162,270,357,330,295,497,132,446,217,245,365
68437,364,111,523,126,6,342,-54,455,219,119,179,-26,469,84,140,218,237,296,195,83,198,176,262,367,335,300,519,119,466,236,223,403
68438,372,106,533,121,0,340,-49,461,211,109,182,-39,453,57,134,201,215,279,198,85,177,140,266,366,303,277,456,196,514,246,165,211
68439,364,113,542,132,17,340,-41,455,217,115,205,-22,450,46,146,194,248,288,205,87,198,129,317,382,327,291,447,292,582,338,227,131
68440,381,128,522,129,8,335,-19,445,192,104,198,-38,426,45,154,184,265,281,174,67,173,158,286,347,306,260,416,189,498,278,189,46
68441,397,119,524,129,10,318,-30,438,184,101,177,-34,423,30,148,181,300,260,152,54,156,163,284,332,262,236,404,198,465,192,85,-2
68442,416,126,528,124,27,341,0,416,179,123,174,-44,400,31,149,186,304,223,125,48,172,194,211,260,257,203,393,60,317,54,9,-36
68443,384,124,523,125,22,350,-16,424,175,105,207,-24,406,41,138,175,306,203,102,23,140,128,177,223,228,159,326,-39,221,-64,-112,-186
68444,390,126,556,125,27,351,-6,451,189,109,225,-32,425,64,169,199,305,236,142,53,152,146,195,268,261,219,364,70,325,63,-7,-90
68445,399,120,557,124,12,327,-16,475,181,113,234,-33,430,47,187,223,317,259,150,71,176,175,224,286,277,249,413,174,405,165,106,115
68446,417,170,544,148,43,339,41,446,198,130,271,-41,459,73,211,246,329,282,175,94,214,200,287,335,310,289,463,261,462,234,173,242
68447,410,171,550,137,42,357,60,457,210,135,261,-34,461,62,192,254,304,300,187,88,223,137,290,337,333,299,485,242,471,236,181,270
68448,417,159,553,139,23,358,63,479,197,120,280,0,446,62,185,273,325,275,160,64,202,177,247,300,286,255,430,53,354,125,93,123
68449,429,163,563,131,15,329,19,464,176,101,262,-16,433,40,163,269,317,235,131,26,160,172,192,264,228,176,333,-80,260,27,-52,-147
68450,425,169,556,138,26,345,48,461,181,109,269,-30,434,44,172,271,318,239,133,31,168,146,210,270,254,202,361,24,354,144,68,24
68451,425,166,533,139,31,341,60,446,185,103,269,-90,419,46,158,238,269,208,117,40,167,165,216,267,253,217,391,104,430,234,162,206
68452,420,156,523,146,36,350,45,445,184,102,287,-86,429,47,168,212,220,200,127,51,174,137,228,280,256,219,421,218,461,277,175,287
68453,422,147,526,138,42,358,25,455,185,108,276,-74,420,49,172,202,246,188,123,45,169,92,236,264,251,218,417,319,453,220,153,291
68454,438,157,550,179,38,366,18,471,199,124,279,-66,423,58,180,209,243,175,107,35,121,61,204,234,223,188,347,278,426,182,79,130
68455,426,144,545,179,37,355,6,450,196,102,274,-91,388,31,165,191,217,126,65,22,123,96,120,186,194,150,320,78,308,99,7,35
68456,450,165,561,178,40,365,27,459,200,111,263,-79,395,43,178,191,213,136,67,23,154,115,114,181,189,189,353,61,324,154,62,93
68457,454,148,565,182,41,366,37,470,207,109,245,-58,400,51,181,161,247,154,70,28,123,58,95,181,183,146,288,-39,261,64,0,-96
68458,417,104,486,171,38,356,15,431,198,113,249,-95,403,41,186,160,223,127,71,42,134,64,92,163,187,160,325,-89,242,40,0,17
68459,414,110,478,151,25,331,-2,426,186,120,239,-148,406,20,180,192,210,124,85,50,184,118,62,157,203,200,418,-121,238,75,84,286
68460,421,106,494,163,31,331,3,428,184,122,244,-125,403,36,195,180,209,156,97,70,202,124,75,196,217,259,459,-19,312,152,167,438
68461,450,137,512,184,49,361,0,446,205,124,248,-87,411,60,199,184,207,174,118,81,195,170,106,215,236,270,484,-9,305,161,185,459
68462,485,171,541,169,50,355,2,445,194,118,239,-87,412,63,185,176,180,194,116,67,157,133,90,210,224,217,404,-30,287,120,92,206
68463,459,183,537,157,30,349,-3,431,202,129,223,-80,436,77,189,172,182,191,118,66,147,91,108,225,244,227,365,31,325,118,43,9
68464,437,179,504,126,26,346,25,416,192,119,214,-118,410,66,174,165,194,157,99,28,126,72,119,208,221,198,300,36,284,36,-98,-212
68465,435,167,496,113,19,347,0,411,171,100,202,-165,404,50,161,156,212,160,80,30,137,108,108,229,220,192,330,91,335,90,-35,-178
68466,418,147,476,118,14,326,-38,403,186,101,193,-156,421,63,178,143,219,181,115,69,179,148,180,284,264,245,417,256,458,245,135,-50
68467,426,149,458,128,24,342,-32,396,200,117,201,-148,444,85,210,175,228,204,161,102,201,183,198,301,300,283,470,291,448,246,197,141
68468,436,160,472,132,35,354,-2,373,205,136,225,-155,430,89,211,195,253,205,158,115,222,194,179,295,328,314,471,185,424,237,238,325
68469,395,155,437,102,10,339,13,355,182,112,223,-166,427,78,180,164,185,198,148,96,194,105,173,298,315,302,465,148,453,272,253,260
68470,400,182,445,109,32,346,-11,359,189,119,198,-158,440,75,162,143,171,214,152,90,164,27,186,329,312,278,439,174,468,297,218,151
68471,422,143,439,119,14,314,-109,356,170,85,136,-163,422,44,131,101,192,179,143,65,119,12,160,292,271,229,380,77,413,216,130,45
68472,403,115,445,101,12,316,-102,360,167,68,135,-139,408,48,124,87,215,196,145,50,102,47,194,320,288,232,382,185,447,214,127,70
68473,396,114,442,122,14,321,-90,357,174,87,144,-139,403,58,135,96,220,186,134,64,130,36,202,319,287,260,416,85,426,211,144,127
68474,408,116,428,112,28,324,-62,345,169,92,150,-157,410,57,131,94,165,145,125,53,131,7,147,277,263,242,385,-29,344,127,87,84
68475,403,155,413,103,18,359,-53,345,187,120,147,-156,417,81,137,138,175,170,139,76,141,43,149,307,276,256,419,56,356,151,125,157
68476,398,131,388,90,0,321,-97,341,171,97,131,-165,404,79,150,108,175,186,142,86,141,36,179,325,284,273,469,181,437,234,201,282
68477,359,79,366,86,0,306,-132,338,178,106,115,-169,422,90,117,67,183,222,184,91,132,29,225,354,310,278,442,319,547,333,227,263
68478,341,53,359,65,0,301,-154,329,188,99,118,-207,421,78,111,69,178,207,180,79,129,54,223,349,303,248,391,284,544,289,153,112
68479,323,39,337,55,-7,273,-187,308,188,101,101,-253,385,59,102,52,135,168,134,54,113,49,206,312,270,243,391,149,479,262,161,133
68480,347,41,354,66,-10,275,-171,309,177,88,95,-250,381,48,106,40,130,153,118,42,104,64,159,272,250,223,396,35,422,212,149,182
68481,361,58,358,69,-9,285,-166,308,156,73,79,-242,375,39,87,44,116,119,90,12,81,52,86,198,209,177,332,-83,243,42,0,72
68482,395,85,411,110,10,315,-169,333,179,91,111,-208,403,71,99,90,161,116,117,35,94,44,104,243,234,180,346,-52,290,76,6,69
68483,408,71,433,104,-3,293,-174,345,187,95,87,-195,417,61,106,86,184,141,120,39,103,19,139,236,247,194,342,32,361,130,42,138
68484,390,29,419,103,-6,283,-186,331,176,102,76,-192,417,74,112,49,125,161,136,48,104,-20,187,273,273,231,386,94,430,241,169,304
68485,389,41,430,105,8,271,-213,360,175,89,81,-192,416,67,96,17,157,167,134,40,84,-68,189,268,255,207,396,128,422,228,171,363
68486,376,53,423,85,-7,260,-207,354,169,64,42,-218,375,37,65,-27,166,147,111,-6,27,-76,126,219,217,152,285,65,368,159,58,75
68487,381,57,412,83,-2,272,-180,327,175,69,53,-238,375,34,48,-36,131,121,91,-14,6,-49,82,205,200,117,246,-15,321,131,10,-27
68488,400,64,405,78,10,292,-163,327,165,85,71,-253,345,35,54,-20,121,94,90,-8,27,-32,80,189,196,108,274,-72,261,56,-3,85
68489,375,65,376,91,3,279,-167,328,154,80,62,-220,342,31,63,22,117,95,70,-17,15,-53,78,179,172,103,265,-83,263,50,-3,54
68490,396,91,381,99,28,310,-158,334,160,96,82,-202,366,53,80,59,112,115,88,3,21,-47,109,209,194,116,258,-2,324,79,12,25
68491,407,108,389,95,43,320,-137,339,172,113,105,-223,359,56,90,61,108,110,101,6,37,-60,113,188,190,120,266,13,323,94,6,61
68492,385,85,379,76,24,299,-136,318,163,118,90,-237,359,54,92,30,97,130,114,10,66,-58,158,226,222,141,303,150,397,203,85,145
68493,378,84,352,78,16,313,-116,297,156,109,86,-249,361,56,119,14,79,127,107,22,78,-24,156,235,230,163,348,176,369,171,134,263
68494,371,81,362,55,-13,294,-123,285,134,81,96,-251,361,52,82,-11,99,126,93,7,56,-12,140,222,229,148,308,162,352,133,78,169
68495,376,84,362,65,1,290,-104,312,140,110,117,-231,364,58,85,10,142,115,106,3,36,4,85,194,193,112,255,-72,238,30,-42,-73
68496,380,70,382,63,14,272,-113,301,145,94,104,-221,362,54,75,5,180,102,87,-13,10,-23,63,184,170,64,162,-47,226,-52,-209,-391
68497,324,32,342,56,0,279,-101,291,146,92,132,-270,362,53,85,18,147,112,102,5,32,-10,64,189,201,81,189,17,276,1,-155,-294
68498,333,58,343,56,-13,300,-125,290,133,116,105,-277,341,51,99,53,129,97,89,0,39,19,32,170,189,96,238,-107,248,15,-84,-98
68499,350,83,371,54,7,303,-175,268,126,104,87,-247,348,52,100,49,152,97,72,-11,47,38,34,140,166,87,255,-204,159,-80,-143,-59
68500,321,72,364,41,12,298,-158,266,128,115,82,-276,365,74,132,56,119,101,97,19,104,9,84,176,214,133,318,-143,251,13,-10,113
68501,297,36,316,23,10,284,-185,262,123,114,99,-299,370,82,143,75,77,107,94,40,122,23,99,210,221,167,334,-98,294,67,49,201
68502,308,28,307,14,5,278,-192,257,120,104,99,-275,355,72,126,62,60,110,91,27,71,11,86,191,195,136,272,-101,231,3,-50,-3
68503,305,50,336,14,4,278,-169,262,119,89,90,-251,342,53,96,51,93,122,82,0,18,-79,52,157,168,83,201,-89,213,-47,-177,-301
68504,302,59,340,9,11,272,-147,307,121,95,100,-229,349,41,90,25,139,136,68,-1,31,-118,57,164,169,80,197,-22,243,-14,-130,-286
68505,321,68,354,24,0,285,-134,310,121,102,116,-233,352,33,114,49,130,151,75,0,56,-51,82,181,196,129,260,-2,285,47,-11,-106
68506,326,67,357,27,-2,303,-118,309,123,94,121,-239,333,38,116,89,120,113,68,0,88,-6,76,189,198,175,338,-62,292,89,54,45
68507,331,75,362,51,12,300,-87,299,125,86,134,-219,343,43,128,114,140,124,78,51,133,43,95,193,214,223,401,-68,273,89,70,140
