,Fp1,Fp2,F7,F3,Fz,F4,F8,FC5,FC1,FC2,FC6,T7,C3,Cz,C4,T8,TP9,CP5,CP1,CP2,CP6,TP10,P7,P3,Pz,P4,P8,PO9,O1,Oz,O2,PO10
122703,264,-80,707,165,-74,221,174,581,227,106,214,285,441,7,148,135,192,45,111,76,136,46,122,54,222,176,364,128,465,116,110,-104
122704,262,-69,675,168,-68,228,163,576,215,72,225,269,433,-16,152,-14,162,36,112,58,147,62,112,28,215,160,320,105,465,93,135,-139
122705,247,-75,624,154,-84,214,162,611,202,80,231,276,453,-5,170,-30,177,58,119,52,169,60,160,39,234,152,229,120,460,99,127,-124
122706,285,-37,650,169,-77,242,181,630,239,99,251,317,497,30,193,141,249,104,132,90,211,-81,203,71,265,172,208,155,479,131,115,-85
122707,289,16,697,161,-45,269,223,607,254,122,291,302,492,31,213,257,237,66,121,90,214,-12,124,45,268,192,243,149,480,131,109,-78
122708,288,10,699,138,-83,279,234,585,211,116,298,287,459,14,211,191,226,41,102,73,213,85,110,26,271,191,269,192,491,136,146,-84
122709,286,28,671,124,-105,281,240,578,207,102,322,296,455,12,207,96,219,47,100,98,206,94,149,53,284,217,326,311,575,172,145,-38
122710,282,27,668,142,-87,286,239,613,206,109,318,299,458,7,215,121,145,72,107,92,171,17,219,82,277,218,376,507,623,197,163,-50
122711,282,14,701,148,-92,256,228,620,214,102,305,323,466,18,199,133,139,76,118,107,147,42,233,99,281,217,364,577,681,225,190,-79
122712,298,9,721,148,-78,274,267,601,223,118,326,321,469,28,205,213,168,64,122,103,177,110,166,93,281,232,394,477,656,221,195,-53
122713,287,40,738,171,-74,282,285,609,219,105,339,308,465,3,197,362,281,40,99,82,183,174,90,26,266,203,395,116,453,87,154,-50
122714,315,39,771,176,-71,290,289,612,231,119,346,314,470,-2,198,386,346,55,93,60,183,166,80,22,274,201,393,-88,379,75,122,-40
122715,306,34,743,176,-73,300,293,630,242,114,354,330,502,14,204,412,373,94,124,87,184,154,158,72,285,209,383,29,484,126,160,22
122716,268,6,686,190,-69,277,259,646,256,95,332,359,537,16,205,410,249,145,148,84,199,172,250,148,322,236,381,336,671,253,249,42
122717,227,-36,647,174,-72,267,240,611,245,97,325,331,528,-4,196,354,279,140,148,71,187,152,243,136,319,226,387,457,732,283,216,41
122718,217,-28,683,168,-83,276,234,633,226,109,309,344,504,-29,177,347,397,118,95,52,150,131,226,93,267,168,342,293,579,174,156,1
122719,272,-5,739,176,-78,267,239,653,237,95,310,351,492,-39,179,326,379,111,52,21,151,138,207,68,215,144,313,216,510,109,117,-18
122720,348,59,823,207,-42,298,290,684,251,103,345,365,490,-36,202,333,338,82,56,11,160,162,107,1,193,114,314,-52,332,12,55,-26
122721,327,44,799,201,-50,311,263,659,249,116,331,353,485,-56,181,261,353,83,68,4,126,129,97,14,178,103,302,-101,342,19,48,-44
122722,331,41,756,219,-41,310,279,654,259,139,342,365,501,-31,184,199,376,121,95,32,153,76,174,72,210,120,294,86,487,120,92,-50
122723,293,33,737,211,-66,321,287,655,249,116,349,369,496,-23,199,175,387,135,96,40,152,-17,214,91,215,125,318,210,533,160,132,-54
122724,323,49,733,194,-65,301,324,652,225,118,356,331,484,-36,196,217,315,100,77,28,146,-61,170,64,210,128,344,198,499,121,114,-43
122725,294,44,721,182,-78,307,313,638,228,110,355,304,448,-66,198,271,252,48,41,4,136,46,81,-20,146,85,295,-34,348,-7,15,-83
122726,274,62,739,201,-88,340,316,648,244,120,363,312,470,-28,202,234,225,55,44,11,133,167,42,-25,143,70,268,-67,348,1,15,-72
122727,249,52,723,192,-87,324,319,664,241,126,348,339,470,-37,202,-93,172,65,48,20,123,138,59,-29,161,84,281,46,396,26,26,-102
122728,223,42,687,166,-77,324,321,634,247,131,370,296,479,-23,224,-244,208,69,41,31,128,81,64,-22,193,95,291,111,442,63,53,-110
122729,232,41,680,166,-63,310,347,640,245,147,401,242,495,-9,260,210,285,92,60,58,183,90,129,9,206,130,326,200,490,91,107,-59
122730,255,26,676,170,-74,310,324,649,243,131,371,104,476,-21,237,518,209,81,42,43,173,96,80,-29,175,117,325,34,386,27,60,-89
122731,223,3,693,178,-83,287,268,629,232,102,342,153,477,-35,219,481,220,60,60,46,179,43,50,-25,164,112,396,-60,348,1,21,-94
122732,253,9,706,181,-62,289,275,655,231,115,331,266,516,-21,214,432,315,70,87,53,183,95,89,18,189,110,447,38,405,36,70,-138
122733,239,-1,677,178,-80,285,269,639,247,117,323,339,478,-23,212,330,291,58,86,57,189,83,109,21,196,110,380,131,463,83,69,-93
122734,194,-39,691,169,-67,284,246,643,240,98,318,379,497,-24,208,188,276,90,85,71,212,108,175,45,198,126,336,232,500,106,84,-92
122735,177,-29,687,146,-79,271,242,636,239,91,328,357,505,-27,227,245,253,102,79,57,219,110,227,57,195,141,342,271,533,121,101,-90
122736,193,-16,689,152,-75,287,263,631,240,127,352,339,505,-16,228,329,191,100,76,31,217,39,218,61,194,136,303,241,536,128,88,-75
122737,182,-62,688,132,-99,271,187,618,204,122,310,335,494,-34,210,211,227,80,84,30,195,96,138,62,207,131,237,168,467,102,110,-47
122738,144,-73,654,109,-104,265,208,607,206,118,320,314,478,-31,231,168,267,80,77,59,182,189,95,43,196,134,222,62,434,82,123,-59
122739,183,-32,650,116,-98,308,243,607,217,118,355,311,454,-23,221,284,302,68,74,63,138,195,106,34,216,142,250,64,451,93,127,-60
122740,201,-10,668,116,-90,318,266,594,219,126,368,319,473,11,236,371,306,87,106,89,157,209,130,56,235,169,320,141,481,119,171,-40
122741,200,-6,632,116,-100,299,254,584,221,112,325,309,488,4,251,360,320,109,106,90,182,167,179,67,260,186,415,214,542,173,205,23
122742,159,-22,592,104,-116,300,244,602,215,132,302,309,481,17,210,365,323,100,118,79,181,155,165,82,265,181,445,174,517,174,182,71
122743,169,-59,569,80,-112,259,216,567,205,109,267,295,466,3,178,300,287,81,104,52,148,96,145,54,249,163,412,167,499,147,176,27
122744,174,-82,540,47,-123,227,179,569,202,73,238,266,463,0,169,206,271,62,108,34,130,58,134,32,231,157,359,121,467,122,160,19
122745,177,-76,565,74,-108,216,177,567,219,88,256,275,459,7,175,50,245,72,95,56,160,-24,145,35,247,165,366,62,457,128,167,14
122746,172,-60,602,106,-116,208,189,556,213,93,269,307,463,8,209,150,267,92,100,59,170,-36,176,60,257,180,370,115,504,159,173,30
122747,200,-55,638,113,-93,226,215,595,215,117,287,318,469,28,233,347,273,108,110,84,188,87,185,82,285,211,371,149,543,181,190,60
122748,209,-64,658,123,-93,224,209,605,223,102,266,334,478,20,203,381,292,120,134,92,186,185,200,107,294,201,338,172,576,199,226,54
122749,203,-75,645,142,-103,217,182,616,235,98,253,341,508,29,204,318,346,158,161,100,165,170,272,143,328,226,361,224,589,226,248,83
122750,194,-95,635,152,-98,220,173,612,253,119,227,359,513,40,199,180,386,162,163,114,144,97,263,147,349,226,390,218,604,236,265,78
122751,178,-124,623,133,-108,209,124,583,233,103,214,295,485,24,185,99,296,119,126,80,128,103,210,113,308,200,392,213,586,233,199,65
122752,157,-139,634,115,-129,176,114,556,221,83,210,272,455,17,158,136,269,95,103,62,122,106,181,99,272,169,345,210,542,192,176,25
122753,162,-129,655,135,-102,201,117,592,232,95,216,305,481,33,166,-26,316,112,123,72,127,37,191,102,266,161,342,201,539,178,175,-17
122754,154,-147,649,122,-103,177,85,575,224,81,192,274,466,8,141,-44,282,83,107,49,116,3,182,116,246,145,329,220,547,168,150,-37
122755,128,-134,637,124,-89,171,103,575,234,85,194,282,460,19,154,262,258,107,116,46,120,34,201,108,255,148,324,243,557,172,156,-5
122756,158,-122,630,137,-78,198,115,599,245,88,180,298,468,30,144,249,262,114,111,51,109,15,226,97,275,167,343,164,527,168,166,0
122757,132,-152,599,112,-96,175,107,573,235,75,183,261,457,17,135,80,279,58,92,43,126,9,162,60,250,166,352,125,489,134,173,5
122758,139,-143,621,130,-92,179,115,593,236,87,200,279,457,25,159,166,382,77,100,60,160,45,181,73,276,199,410,202,524,156,214,-20
122759,143,-120,606,125,-94,190,115,587,233,83,198,270,461,19,163,292,341,58,115,59,183,55,201,90,296,215,436,264,569,187,215,-85
122760,187,-92,615,125,-91,199,119,558,224,64,176,226,443,-2,159,299,186,59,92,52,158,68,181,71,285,198,341,306,594,194,192,-66
122761,190,-94,625,142,-68,202,120,586,236,105,170,240,438,-9,144,254,160,72,82,53,135,66,199,85,279,173,274,338,602,212,207,-63
122762,211,-74,632,169,-67,222,121,604,245,109,187,237,445,-25,136,143,107,38,68,25,110,56,128,53,250,149,228,94,475,140,169,-60
122763,196,-90,590,164,-68,229,118,615,232,115,188,241,442,-22,140,-16,137,32,70,20,108,78,124,30,250,149,252,68,447,141,186,-42
122764,210,-113,595,143,-61,221,121,594,223,94,190,242,436,-40,136,-8,106,50,61,-4,121,33,121,37,235,131,249,127,479,140,165,-79
122765,240,-79,628,143,-59,253,172,560,231,102,220,233,430,-47,144,218,102,60,57,16,149,19,178,72,254,142,266,233,569,197,188,-123
122766,203,-81,614,136,-64,260,187,551,222,105,229,214,427,-34,159,306,129,74,75,19,85,26,235,99,281,153,261,410,679,265,229,-141
122767,156,-126,612,117,-73,232,153,566,224,113,212,234,425,-19,138,190,195,78,81,8,54,1,263,87,265,144,256,461,663,244,216,-164
122768,179,-92,605,132,-68,248,168,572,233,95,226,232,421,-28,131,76,187,34,76,24,81,-13,197,56,242,142,329,266,545,161,189,-76
122769,210,-66,636,129,-61,278,182,560,220,87,253,223,416,-18,137,90,256,-4,53,-4,75,-44,103,27,191,108,279,56,417,86,151,-80
122770,216,-86,627,120,-80,279,126,542,203,102,227,215,430,-33,127,54,306,0,56,-15,41,-57,107,22,182,90,225,120,460,122,138,-188
122771,177,-86,601,116,-80,279,144,545,209,96,224,205,423,-25,149,88,244,16,58,-4,51,-33,177,48,221,110,163,438,632,192,149,-157
122772,179,-91,593,150,-65,288,163,570,236,109,243,224,456,0,186,197,271,70,83,25,80,-61,272,95,242,111,156,733,764,267,190,-120
122773,157,-88,577,146,-60,264,135,565,232,123,233,220,461,-1,170,203,276,72,88,25,78,-139,245,96,244,100,165,581,705,248,215,-142
122774,152,-118,561,113,-96,242,106,522,202,83,204,147,415,-19,132,199,215,-1,32,-2,77,-104,87,10,210,94,189,36,455,142,175,-76
122775,165,-83,582,127,-94,246,113,532,197,88,215,115,401,-42,144,180,157,-35,13,-10,51,-85,-25,-29,177,83,164,-284,303,60,129,-82
122776,197,-66,636,155,-71,268,131,579,245,96,219,89,446,-15,165,100,154,-7,55,11,57,-153,13,8,207,84,181,-204,364,86,142,-116
122777,183,-101,640,172,-69,268,113,593,227,106,191,38,454,-22,141,59,185,8,61,-16,24,-71,41,25,220,90,199,-75,400,118,163,-115
122778,209,-89,628,200,-58,284,132,612,237,107,204,116,465,-30,132,-10,223,26,59,-4,36,-64,70,31,218,91,202,-52,413,132,170,-93
122779,253,-90,634,201,-56,276,124,606,245,123,202,226,483,-31,148,-57,196,48,68,-3,18,-168,143,47,222,93,205,-8,442,114,155,-81
122780,251,-115,636,211,-69,271,132,617,246,103,204,315,491,-32,147,108,119,80,62,6,15,-69,186,50,210,72,188,4,443,101,144,-141
122781,222,-91,624,203,-65,268,123,628,245,111,191,343,500,-18,133,210,162,82,77,7,19,-11,201,58,220,80,196,68,465,92,174,-175
122782,211,-73,581,197,-60,263,106,608,233,108,171,275,486,-24,133,173,180,55,73,-9,9,-31,155,52,192,68,206,121,472,117,150,-96
122783,201,-87,622,203,-64,275,114,613,242,121,177,243,470,-20,136,115,181,29,51,-31,18,-54,104,24,182,59,260,145,444,72,95,-108
122784,215,-120,638,185,-53,254,125,602,244,93,183,261,467,-35,111,121,170,18,12,-50,30,-70,68,-7,155,54,324,65,374,5,64,-95
122785,222,-117,609,169,-76,227,93,574,229,73,146,239,438,-61,92,12,217,-20,4,-57,0,-107,27,-36,128,34,282,-66,286,-45,3,-131
122786,220,-129,627,166,-89,261,91,545,222,91,156,193,421,-52,88,-125,164,-22,-2,-73,-17,-109,32,-42,97,16,201,-10,281,-71,-7,-231
122787,214,-125,627,177,-95,293,109,551,238,115,192,176,437,-39,99,-37,215,-18,26,-55,8,-105,31,-37,114,10,149,-8,279,-63,-7,-249
122788,195,-118,615,183,-84,270,78,568,250,115,176,209,451,-42,112,79,221,2,36,-51,26,-106,94,-43,127,25,144,0,318,-59,-12,-207
122789,212,-131,611,175,-78,271,68,577,247,104,152,223,439,-17,112,48,184,18,34,-28,57,-92,112,-15,140,45,118,60,334,-43,-32,-197
122790,217,-96,605,175,-78,296,74,565,230,109,167,218,442,-4,104,-59,205,18,39,-30,48,-54,96,-11,126,24,91,117,333,-66,-32,-191
122791,211,-114,615,178,-77,288,85,586,259,110,171,241,462,-14,117,-92,244,63,62,-27,69,-118,175,26,144,60,113,247,461,0,-8,-202
122792,196,-94,589,159,-71,272,93,566,257,113,178,212,465,-29,147,-132,256,46,64,-3,58,-151,151,64,181,61,122,279,511,43,17,-190
122793,204,-70,612,178,-56,301,101,571,255,116,183,217,473,-3,130,-261,211,40,84,-14,-5,-63,125,69,205,38,99,268,475,16,-17,-221
122794,202,-91,597,164,-92,288,100,561,244,92,179,212,452,-20,99,-83,134,25,56,-35,-35,-66,76,17,174,2,50,102,320,-96,-88,-226
122795,184,-108,582,148,-78,270,83,560,228,89,163,213,459,-14,113,164,75,46,64,-5,-18,-162,98,14,173,33,31,43,297,-65,-77,-206
122796,151,-124,598,148,-77,261,56,607,247,80,142,234,476,-13,107,168,118,87,90,14,-14,-176,148,39,178,32,59,63,331,-51,-73,-198
122797,103,-152,589,128,-99,256,66,581,232,92,166,235,476,-17,123,141,216,80,93,-15,-14,-76,109,35,175,28,84,7,309,-74,-83,-195
122798,127,-115,610,142,-59,275,102,565,259,126,204,240,462,-3,133,181,210,71,89,21,23,0,78,29,179,64,117,-47,266,-86,-75,-237
122799,146,-102,604,149,-55,276,116,546,252,118,195,224,470,6,153,232,148,64,90,28,51,-25,63,36,181,67,132,-129,240,-109,-115,-277
122800,114,-161,555,123,-76,244,63,518,224,104,158,208,454,-19,140,160,60,49,62,-3,20,-60,67,6,142,37,122,-115,241,-131,-155,-280
122801,108,-166,532,120,-98,243,42,505,232,121,132,184,440,-25,121,76,77,45,43,-13,-6,-116,57,-14,130,26,101,-78,256,-138,-143,-314
122802,81,-188,508,105,-90,211,23,489,230,88,120,155,416,-34,104,-21,93,1,30,-38,-22,-143,30,-34,126,14,36,-59,247,-153,-144,-311
122803,87,-179,500,96,-94,226,44,525,223,86,137,140,422,-27,124,-262,71,-29,16,-31,-28,-153,-18,-71,104,0,12,-75,225,-160,-143,-305
122804,108,-156,508,103,-97,249,46,516,239,127,164,141,416,-29,137,-368,56,-46,-12,-28,-14,-209,-45,-76,105,-2,91,-94,236,-159,-157,-312
122805,53,-163,494,104,-87,244,47,473,243,114,141,108,382,-49,105,-155,-21,-71,-26,-45,-38,-224,-69,-92,76,-21,71,-100,218,-164,-146,-366
122806,34,-194,503,89,-80,229,7,473,244,89,104,113,393,-49,77,-18,83,-81,-22,-56,-62,-136,-19,-71,85,-32,33,-2,263,-129,-168,-355
122807,45,-214,498,64,-90,203,10,484,232,82,96,109,397,-46,68,86,71,-78,-37,-72,-76,-228,-19,-60,97,-33,17,-61,260,-136,-179,-332
122808,66,-200,507,95,-109,210,27,479,210,83,95,147,389,-47,95,153,91,-39,-5,-48,-69,-299,42,-26,129,-11,60,3,358,-72,-102,-319
122809,93,-188,506,80,-86,234,31,501,215,107,99,135,416,-37,97,153,77,-14,27,-25,-49,-161,95,3,162,33,98,133,436,-13,-77,-285
122810,67,-215,521,82,-85,203,12,506,231,77,91,-6,415,-33,73,135,114,-6,30,-23,-38,-85,108,21,179,55,72,162,420,-14,-32,-285
122811,34,-198,485,83,-97,180,15,494,242,81,101,-7,409,-26,88,143,137,-9,38,-15,-4,-47,106,16,190,49,100,100,400,10,-20,-257
122812,21,-210,493,89,-88,192,42,516,237,97,126,81,408,-8,111,180,181,-34,41,-11,23,-13,15,-16,169,42,131,-110,313,-44,-65,-272
122813,24,-216,492,82,-104,211,68,505,230,89,130,210,424,-11,105,175,156,-29,51,0,26,-14,51,-4,168,67,183,-23,374,2,-6,-204
122814,42,-226,494,79,-118,190,70,514,242,92,128,256,433,-12,108,156,144,7,43,0,19,-119,68,3,185,69,224,-37,341,-6,-8,-186
122815,49,-226,526,90,-123,170,34,533,236,98,124,269,430,-17,88,134,198,3,48,4,41,-127,77,16,195,61,227,-48,331,-36,-22,-209
122816,56,-247,527,91,-144,139,-6,515,226,68,84,227,420,-26,95,100,149,-9,40,-2,61,-29,40,12,191,85,248,-23,346,4,-6,-185
122817,44,-240,492,71,-136,136,-10,515,234,81,83,202,414,-7,99,85,65,-31,39,-2,78,34,52,-14,190,107,258,2,357,-8,2,-195
122818,8,-208,461,77,-114,140,22,528,240,78,95,229,423,-1,114,11,-32,-35,31,4,94,20,41,4,201,94,204,-2,363,-11,9,-181
122819,17,-198,489,82,-96,159,14,557,229,91,108,243,429,-9,121,-66,-33,-12,47,0,83,-30,54,15,187,93,161,27,394,-2,23,-175
122820,37,-214,519,75,-104,159,19,537,227,77,113,247,443,-6,119,29,70,-18,54,4,88,-36,29,15,196,123,199,25,415,10,42,-147
122821,47,-216,514,86,-95,145,13,496,234,88,103,230,453,-15,112,167,274,13,61,23,98,-51,112,37,220,131,266,132,480,74,86,-163
122822,66,-216,546,85,-91,144,-22,534,235,77,95,224,463,-9,119,185,320,34,78,17,74,-8,153,60,238,113,224,182,527,109,102,-173
122823,70,-207,522,74,-94,168,-5,551,242,79,101,238,462,-3,116,131,254,25,84,13,45,-27,153,67,232,96,174,174,494,105,66,-143
122824,35,-214,500,72,-119,149,-22,520,215,72,88,235,444,-23,96,-103,170,22,79,-6,7,-51,144,48,199,76,125,63,422,24,31,-172
122825,73,-214,537,96,-108,170,8,549,235,83,100,231,464,-34,105,-142,167,45,85,23,16,-51,135,69,230,96,151,20,428,47,21,-173
122826,91,-189,570,99,-108,184,42,574,232,64,131,230,474,-24,120,176,202,63,85,26,56,-119,127,79,250,100,217,121,459,76,48,-202
122827,45,-200,559,99,-111,167,29,576,245,70,129,194,472,-30,123,296,215,56,84,23,50,-166,158,105,249,119,198,223,526,104,82,-222
122828,40,-215,546,94,-113,159,42,562,252,93,140,183,478,-9,143,243,198,65,103,57,61,-64,166,109,276,139,221,287,590,147,134,-232
122829,37,-204,563,105,-103,177,68,554,255,87,152,242,479,20,149,90,246,56,113,76,82,-12,170,103,294,144,205,206,560,123,129,-216
122830,64,-188,567,125,-103,178,75,551,242,86,155,243,477,17,159,-167,256,61,119,74,61,-13,169,101,301,134,185,175,491,84,102,-163
122831,69,-209,535,122,-112,161,64,546,246,68,149,206,448,17,169,-143,146,55,122,95,39,-65,120,92,281,125,185,197,470,92,118,-147
122832,68,-177,529,116,-107,170,98,560,253,91,169,199,461,27,166,101,112,53,119,94,86,-164,123,90,280,152,314,150,489,120,126,-148
122833,58,-182,534,92,-118,171,94,536,240,93,164,182,457,26,160,192,156,41,91,66,87,-141,130,52,270,156,365,49,435,68,103,-155
122834,66,-189,541,92,-114,179,53,540,228,91,159,173,445,29,162,40,89,44,102,87,91,33,84,66,256,168,338,-111,400,56,147,-193
122835,72,-158,539,87,-121,179,82,537,226,83,175,180,442,30,173,-178,15,20,91,86,94,45,19,56,284,155,248,-2,447,104,178,-81
122836,94,-139,507,63,-125,189,103,513,234,114,199,190,459,42,192,-22,144,32,97,79,109,-65,81,71,291,160,216,108,494,119,172,-22
122837,87,-152,525,77,-137,208,95,523,220,109,187,205,468,31,157,190,245,45,103,80,103,-2,113,94,284,178,227,156,494,132,170,-58
122838,82,-145,544,69,-141,198,106,534,206,85,167,197,455,2,149,312,252,48,103,86,106,121,125,102,284,164,247,205,533,152,207,-39
122839,90,-114,576,87,-117,215,110,547,226,82,166,220,484,30,182,358,225,87,143,99,144,123,168,138,312,186,257,322,622,226,237,-5
122840,92,-131,577,101,-130,212,91,549,236,86,155,215,488,33,189,298,226,92,152,101,150,71,190,158,331,207,255,379,667,256,259,-8
122841,131,-98,590,114,-112,201,101,574,224,98,181,212,508,40,210,284,251,126,150,114,179,12,213,151,335,213,249,409,693,255,269,-41
122842,144,-119,602,102,-106,221,127,559,217,84,202,214,505,44,234,264,207,118,162,134,190,-45,162,129,324,223,283,144,560,216,207,-39
122843,138,-143,624,129,-99,231,116,561,239,99,203,237,500,44,228,128,195,99,149,140,198,40,135,125,336,242,289,-26,490,174,214,-27
122844,106,-120,594,109,-132,203,99,556,225,82,191,256,479,20,216,40,165,71,127,122,187,120,160,121,322,208,249,21,488,143,188,-76
122845,105,-102,563,108,-122,191,104,573,233,79,184,235,484,24,215,16,92,64,145,125,187,110,183,125,320,194,273,36,500,119,161,-124
122846,143,-117,586,138,-113,204,104,628,276,96,213,287,526,57,225,30,109,120,162,143,193,11,193,165,338,192,299,138,545,169,176,-118
122847,137,-113,587,141,-108,180,114,624,259,92,225,285,554,57,225,124,162,166,190,144,214,-111,241,199,337,207,348,216,575,182,169,-55
122848,87,-103,561,110,-114,186,106,556,236,92,202,89,530,42,208,113,108,132,164,118,201,-56,178,164,308,206,435,195,581,164,151,-107
122849,117,-111,596,130,-115,210,121,570,255,106,218,66,517,39,200,134,89,119,152,97,141,60,166,134,306,169,395,200,572,146,186,-133
122850,165,-85,632,139,-91,245,176,602,272,116,269,181,505,33,218,272,160,89,145,105,140,50,159,118,291,148,288,79,502,104,131,-131
122851,164,-79,619,174,-89,264,201,624,257,121,271,290,488,36,203,274,198,80,129,91,115,5,155,115,264,138,174,0,476,101,135,-98
122852,171,-102,623,166,-100,228,159,614,245,107,240,316,479,26,177,9,206,98,137,68,68,-172,192,111,276,116,173,112,534,109,143,-113
