,Fp1,Fp2,F7,F3,Fz,F4,F8,FC5,FC1,FC2,FC6,T7,C3,Cz,C4,T8,TP9,CP5,CP1,CP2,CP6,TP10,P7,P3,Pz,P4,P8,PO9,O1,Oz,O2,PO10
67418,377,374,443,277,151,612,28,550,226,57,279,898,234,121,383,101,-526,-148,183,133,-209,-140,-229,118,75,6,-6,-406,-126,-397,-524,-291
67419,377,367,469,293,153,617,30,578,260,69,299,931,244,110,392,119,-496,-122,218,145,-203,-145,-198,145,89,44,38,-434,-101,-342,-423,-206
67420,338,312,433,284,131,574,-29,571,263,18,240,962,255,108,358,74,-528,-102,237,137,-212,-185,-140,173,115,73,26,-311,14,-227,-352,-129
67421,315,299,434,276,130,561,-64,577,253,22,217,966,256,123,352,35,-544,-103,234,147,-222,-199,-119,190,155,85,59,-243,76,-141,-253,0
67422,324,315,431,264,122,563,-42,557,233,32,235,973,253,118,372,42,-557,-110,236,161,-228,-193,-119,201,146,83,39,-209,69,-132,-260,-3
67423,350,329,435,272,136,590,-13,566,257,35,254,932,234,109,371,64,-560,-132,226,138,-238,-157,-176,148,101,33,11,-230,-27,-270,-428,-190
67424,348,317,395,277,134,587,-23,533,245,33,235,887,231,104,340,33,-557,-148,199,134,-255,-199,-183,153,100,18,-42,-149,1,-276,-457,-244
67425,332,317,385,278,129,589,-24,523,252,44,272,894,243,125,365,35,-552,-139,209,136,-249,-186,-159,170,135,49,-9,-104,67,-216,-377,-156
67426,331,332,375,264,122,605,6,550,252,56,287,900,223,107,375,41,-518,-155,211,155,-229,-172,-176,163,141,44,1,-194,31,-257,-409,-178
67427,318,329,346,248,124,596,-22,537,235,39,256,894,188,98,354,21,-506,-167,184,139,-249,-195,-157,148,115,11,-68,-86,4,-329,-486,-329
67428,324,326,332,238,144,588,-24,510,237,27,239,910,208,105,346,7,-523,-149,198,137,-269,-207,-139,146,118,14,-81,-55,22,-307,-481,-359
67429,335,303,329,237,136,597,-28,511,223,39,250,920,211,105,361,45,-550,-139,205,160,-229,-179,-137,151,151,61,4,-140,28,-239,-366,-89
67430,345,318,361,243,125,606,-13,496,220,46,249,891,188,109,378,50,-574,-181,196,158,-223,-164,-203,119,116,61,18,-324,-50,-311,-387,-49
67431,373,354,403,260,139,619,38,507,214,74,294,887,172,101,401,70,-555,-219,161,151,-236,-151,-246,65,78,14,-25,-453,-158,-418,-509,-138
67432,364,358,426,250,139,639,56,508,221,68,301,905,184,111,427,97,-526,-194,187,178,-217,-112,-211,96,98,48,-8,-336,-120,-356,-474,-140
67433,384,364,443,254,127,660,74,500,211,54,318,921,187,108,428,100,-502,-174,187,189,-195,-121,-202,101,113,42,-41,-272,-105,-358,-488,-284
67434,393,382,433,254,141,673,95,505,215,57,359,899,186,124,433,134,-476,-164,195,190,-192,-102,-170,120,132,49,-60,-227,-91,-366,-495,-393
67435,387,393,423,247,155,668,100,508,224,100,370,879,195,136,465,172,-462,-154,213,226,-151,-86,-157,151,169,103,24,-228,-46,-282,-382,-168
67436,364,367,386,227,146,628,53,484,204,60,360,891,166,121,452,131,-485,-179,192,209,-159,-124,-138,131,145,77,-5,-177,-27,-272,-394,-189
67437,378,375,379,230,133,635,37,489,195,59,355,870,186,128,452,131,-497,-206,186,196,-163,-125,-182,94,130,73,4,-259,-47,-270,-394,-186
67438,356,361,374,213,136,628,19,475,191,51,336,837,156,119,447,91,-502,-205,169,186,-172,-142,-182,97,121,63,5,-239,-47,-255,-390,-179
67439,344,377,391,222,142,622,16,479,204,46,330,866,159,111,432,85,-536,-218,145,177,-186,-188,-212,90,106,69,-17,-248,-56,-277,-383,-177
67440,368,382,389,235,163,649,28,499,216,71,352,856,169,123,428,97,-512,-199,162,197,-155,-178,-205,93,136,122,3,-230,-41,-216,-303,-82
67441,361,380,387,235,149,649,53,496,225,78,351,837,176,123,447,101,-489,-168,198,222,-154,-161,-175,125,151,120,16,-168,9,-194,-301,-46
67442,350,341,400,255,137,638,44,511,228,54,345,866,198,113,427,97,-506,-160,194,214,-150,-125,-156,143,175,108,18,-119,31,-209,-360,-67
67443,354,346,413,250,145,636,57,504,243,33,320,883,189,125,415,84,-567,-155,193,201,-168,-142,-163,138,159,103,-19,-116,-11,-251,-413,-151
67444,334,321,378,235,118,611,34,474,232,34,299,851,178,109,398,69,-572,-188,165,178,-192,-181,-188,104,129,84,-44,-155,-31,-288,-411,-141
67445,330,307,393,245,141,621,37,460,236,36,309,847,179,114,388,84,-595,-203,173,184,-215,-184,-208,98,137,67,-41,-240,-67,-294,-416,-215
67446,312,299,382,238,131,600,15,475,227,31,268,821,174,128,382,69,-586,-205,183,179,-234,-228,-226,90,146,75,-77,-265,-52,-281,-400,-301
67447,290,275,353,238,123,567,-24,459,208,36,267,792,155,102,379,29,-604,-228,151,149,-257,-241,-256,68,107,32,-119,-253,-54,-293,-420,-359
67448,292,274,365,232,121,576,-21,448,224,6,258,784,160,81,348,40,-600,-252,131,113,-294,-249,-254,44,59,-28,-184,-227,-97,-380,-592,-559
67449,305,289,374,238,135,590,-2,445,236,23,259,780,152,101,372,72,-589,-235,140,126,-278,-245,-242,49,56,4,-148,-191,-69,-368,-551,-437
67450,359,337,405,256,160,621,28,479,221,39,312,816,146,101,380,66,-555,-232,135,138,-261,-256,-277,19,55,-2,-131,-340,-178,-440,-579,-412
67451,339,358,392,231,126,605,38,486,207,47,312,794,114,75,389,51,-598,-267,90,129,-258,-269,-335,-28,22,-19,-116,-580,-325,-572,-595,-400
67452,340,374,392,262,140,630,70,486,217,45,307,828,140,102,427,72,-593,-241,127,157,-207,-201,-280,30,81,40,-55,-460,-167,-396,-454,-241
67453,358,349,389,252,147,628,81,473,223,56,324,810,140,116,439,86,-605,-238,144,170,-195,-200,-281,45,107,77,-18,-361,-84,-290,-378,-149
67454,325,334,368,233,140,635,74,459,215,35,326,782,135,100,416,78,-634,-256,152,168,-209,-184,-287,40,111,72,-52,-322,-96,-335,-460,-284
67455,272,284,321,201,110,607,5,431,202,15,302,795,150,115,411,58,-623,-255,160,176,-219,-212,-253,64,130,64,-48,-182,-15,-279,-430,-261
67456,223,232,244,170,105,589,-49,404,223,25,273,771,144,118,404,86,-620,-252,169,175,-216,-224,-223,89,153,74,-63,-124,31,-238,-400,-243
67457,150,191,195,149,100,571,-65,386,207,13,263,736,134,119,382,71,-640,-283,151,164,-249,-232,-267,71,136,67,-72,-199,6,-270,-414,-279
67458,149,197,195,161,98,578,-47,368,212,29,265,769,144,126,403,63,-615,-264,149,157,-249,-244,-224,98,135,60,-32,-147,33,-225,-338,-201
67459,197,262,232,162,120,595,-9,382,194,4,299,769,98,76,381,76,-648,-290,108,127,-240,-250,-315,11,103,50,-12,-411,-102,-285,-325,-28
67460,347,380,367,213,150,641,45,443,192,15,324,771,97,78,393,104,-639,-319,90,135,-222,-194,-394,-40,73,60,39,-623,-226,-319,-284,175
67461,428,453,450,249,159,663,63,470,222,44,322,795,142,89,393,79,-594,-299,107,130,-259,-213,-353,-9,79,46,-2,-476,-124,-271,-303,58
67462,395,430,413,217,150,647,45,441,202,41,284,786,118,91,383,41,-591,-302,116,141,-271,-205,-345,0,77,37,-7,-415,-114,-286,-345,-44
67463,374,396,399,228,149,639,31,428,207,34,273,771,110,77,376,17,-575,-299,114,128,-285,-274,-337,-12,66,0,-92,-380,-141,-392,-481,-339
67464,395,408,421,242,150,654,20,423,206,27,293,790,114,94,367,-3,-579,-291,105,101,-319,-307,-322,-38,37,-68,-213,-407,-249,-576,-753,-704
67465,400,412,387,234,152,663,31,433,215,30,297,803,134,109,370,8,-608,-287,116,130,-299,-271,-297,-16,47,-39,-185,-354,-203,-513,-664,-598
67466,361,383,351,215,161,650,57,411,215,54,301,775,143,125,388,32,-632,-292,159,164,-248,-266,-273,39,102,33,-86,-247,-35,-278,-434,-296
67467,340,352,341,195,145,638,29,398,208,27,286,763,118,134,403,34,-649,-286,151,174,-252,-261,-262,45,118,33,-78,-233,-36,-285,-415,-225
67468,350,361,319,199,140,639,42,403,191,44,302,739,114,126,405,57,-662,-290,147,172,-225,-255,-256,43,143,70,-30,-262,-4,-216,-326,-85
67469,339,371,300,192,131,637,19,400,181,46,284,742,121,120,414,74,-663,-301,135,155,-211,-232,-271,20,114,64,-35,-275,-77,-308,-395,-99
67470,320,371,285,211,135,640,12,397,196,35,307,750,121,125,421,116,-610,-288,150,164,-234,-218,-243,21,86,38,-65,-263,-185,-475,-587,-257
67471,321,364,301,202,127,626,14,394,222,38,312,768,132,129,405,102,-582,-275,158,182,-227,-231,-218,32,86,34,-89,-225,-149,-455,-595,-467
67472,330,339,312,202,133,624,-16,417,229,32,293,781,146,121,403,91,-575,-264,171,186,-221,-214,-204,27,111,52,-80,-177,-86,-395,-553,-444
67473,357,341,349,228,143,623,-5,424,235,34,301,776,158,126,416,47,-555,-254,156,181,-210,-191,-196,45,106,51,-69,-171,-68,-356,-501,-371
67474,339,329,339,215,136,624,-5,431,240,28,300,771,132,116,417,39,-560,-247,161,184,-202,-162,-182,45,110,89,-19,-111,-17,-307,-432,-285
67475,341,331,335,213,144,650,1,445,229,46,316,779,162,112,423,81,-567,-235,171,176,-184,-112,-188,47,115,108,33,-245,-31,-303,-392,-210
67476,322,318,323,222,131,632,-20,414,199,45,289,768,152,114,415,85,-614,-244,172,171,-171,-107,-214,59,124,119,53,-297,-42,-281,-371,-141
67477,300,314,314,189,122,627,-15,389,193,22,288,757,142,100,381,101,-615,-247,165,165,-163,-71,-248,62,126,113,50,-336,-82,-300,-364,-156
67478,329,361,315,220,151,653,11,413,224,54,333,775,165,107,412,158,-610,-229,180,186,-143,-82,-224,89,148,138,76,-274,-31,-266,-360,-119
67479,327,353,297,215,157,641,-12,409,215,45,313,791,147,131,406,148,-604,-224,191,180,-143,-96,-176,112,163,122,81,-190,42,-207,-322,-99
67480,316,336,331,209,145,625,-17,416,225,47,302,795,147,132,412,159,-585,-207,202,202,-138,-65,-183,92,156,124,103,-211,16,-218,-329,-97
67481,280,310,339,215,121,610,-52,410,217,32,295,795,154,127,403,148,-568,-198,200,202,-138,-56,-185,110,154,131,112,-190,35,-187,-269,-20
67482,298,314,349,225,118,619,-36,434,208,25,286,823,171,128,393,150,-533,-160,219,202,-150,-27,-132,144,178,158,125,-94,90,-122,-204,49
67483,308,334,359,230,120,619,-28,460,220,33,304,836,180,120,401,145,-528,-164,211,178,-135,3,-137,144,157,149,116,-81,59,-164,-232,65
67484,315,339,379,228,140,616,-5,490,241,54,320,847,216,148,426,153,-547,-128,236,202,-106,-9,-99,164,173,153,141,-50,114,-122,-192,154
67485,322,349,409,244,151,636,37,495,248,48,328,900,237,170,412,167,-480,-95,233,193,-118,-57,-90,163,164,130,85,-78,67,-218,-319,-18
67486,307,332,386,219,131,615,27,468,214,30,315,881,235,142,400,170,-473,-127,231,194,-121,-86,-139,127,145,118,72,-161,2,-256,-364,-43
67487,320,361,405,219,146,620,46,456,233,52,320,902,232,157,435,206,-458,-130,219,208,-97,-62,-144,118,163,160,138,-235,0,-186,-238,135
67488,338,338,423,224,133,627,41,457,230,59,290,909,239,170,444,191,-491,-105,223,213,-89,-65,-89,162,189,169,155,-147,83,-119,-150,200
67489,324,324,415,256,150,616,5,486,235,61,292,906,250,158,439,203,-494,-109,236,249,-80,-48,-74,171,215,190,211,-173,73,-98,-135,290
67490,337,325,404,230,150,613,18,484,239,56,273,893,228,159,416,201,-456,-131,221,206,-119,-37,-104,135,163,150,142,-219,25,-189,-237,22
67491,333,306,361,214,127,605,-3,463,214,45,281,895,236,139,382,162,-473,-133,207,157,-193,-97,-78,135,114,50,-40,-81,22,-295,-474,-485
67492,340,301,338,202,121,606,-2,451,200,19,299,871,186,118,398,166,-473,-182,171,134,-222,-107,-120,99,84,0,-85,-183,-70,-407,-598,-573
67493,336,318,379,227,155,619,17,483,234,46,320,889,206,138,421,210,-434,-193,189,161,-165,-62,-166,70,101,50,-3,-324,-169,-451,-519,-344
67494,339,297,369,240,153,602,-6,480,231,49,318,873,214,130,417,182,-457,-199,186,157,-140,-69,-168,81,125,84,15,-277,-97,-344,-420,-182
67495,343,283,388,248,157,592,-39,487,220,39,294,862,225,134,391,141,-481,-173,186,158,-172,-90,-180,92,131,75,18,-251,-33,-277,-396,-159
67496,298,264,363,236,138,566,-47,485,243,25,246,837,212,128,380,96,-506,-180,207,169,-191,-116,-162,114,138,80,33,-171,30,-207,-330,-59
67497,281,243,352,231,138,560,-47,482,257,26,246,827,213,140,347,68,-521,-189,207,153,-193,-144,-168,134,144,92,25,-117,78,-164,-302,-4
67498,290,252,354,242,140,559,-56,466,262,-3,239,854,198,141,330,63,-519,-182,188,136,-224,-150,-156,123,134,43,-26,-131,55,-227,-396,-150
67499,306,253,329,245,153,595,-77,467,269,2,248,855,204,159,359,86,-531,-183,199,148,-207,-132,-137,130,152,61,21,-123,100,-148,-335,-154
67500,286,218,319,214,132,569,-90,451,231,7,237,844,179,138,314,66,-544,-194,201,134,-233,-166,-145,110,145,58,-19,-151,91,-168,-373,-269
67501,252,179,336,212,121,542,-124,438,229,2,205,835,175,139,304,56,-511,-176,186,141,-256,-190,-114,122,139,34,-79,-76,96,-227,-451,-361
67502,257,200,358,214,114,559,-110,457,244,4,226,823,180,138,338,62,-520,-209,189,139,-262,-183,-174,108,132,15,-115,-156,15,-291,-497,-459
67503,287,239,346,217,138,584,-41,472,271,11,256,803,171,140,339,85,-557,-237,179,152,-249,-146,-235,73,139,40,-64,-323,-50,-301,-449,-339
67504,292,257,370,237,127,577,-56,472,257,12,239,817,156,127,347,72,-547,-234,182,154,-218,-153,-220,53,123,50,-40,-291,-75,-302,-410,-263
67505,286,263,356,253,134,574,-62,467,262,29,243,823,188,137,348,73,-546,-200,182,147,-214,-158,-232,64,109,66,-23,-289,-60,-274,-398,-265
67506,261,254,352,240,150,563,-47,449,258,18,262,797,180,114,349,71,-537,-219,164,137,-229,-158,-280,33,105,38,-34,-349,-93,-320,-446,-281
67507,238,213,331,207,124,561,-89,440,250,5,251,752,166,115,328,74,-592,-249,143,139,-235,-167,-285,29,102,36,-28,-294,-76,-313,-423,-254
67508,235,205,312,220,141,573,-81,428,262,13,271,747,173,138,337,92,-597,-249,165,165,-205,-162,-264,61,112,80,-2,-269,-59,-270,-364,-164
67509,225,218,274,202,146,583,-82,407,260,20,278,760,159,136,362,95,-596,-226,191,165,-175,-168,-251,63,118,91,23,-252,-52,-273,-332,-61
67510,205,178,249,181,107,567,-128,386,238,18,244,742,161,119,351,69,-632,-249,173,150,-191,-180,-262,43,119,83,24,-269,-56,-260,-321,-63
67511,202,185,232,169,99,541,-139,390,230,7,220,727,175,107,332,67,-675,-261,165,134,-219,-200,-287,40,97,50,-15,-334,-87,-296,-360,-214
67512,216,179,229,178,116,550,-131,362,237,2,217,696,165,114,325,53,-680,-274,163,140,-216,-216,-305,37,85,59,-21,-399,-119,-327,-388,-202
67513,199,166,231,166,105,555,-118,348,236,15,233,697,152,106,337,38,-661,-294,149,129,-215,-200,-354,12,64,43,-23,-502,-231,-415,-437,-186
67514,162,154,194,148,102,541,-120,338,238,5,221,702,163,109,342,39,-664,-280,167,123,-236,-249,-356,28,81,44,-40,-476,-201,-388,-444,-207
67515,133,130,187,148,110,533,-159,357,246,9,200,706,172,129,350,51,-677,-257,174,156,-210,-218,-354,39,92,83,15,-479,-165,-363,-421,-15
67516,147,117,183,169,121,540,-157,382,263,13,207,735,201,138,367,44,-670,-210,201,172,-182,-212,-302,72,104,82,3,-405,-119,-343,-438,-78
67517,137,99,198,166,117,543,-153,369,259,12,203,756,202,136,347,34,-672,-204,210,154,-205,-235,-284,90,120,68,-11,-351,-80,-308,-430,-177
67518,167,119,249,170,109,523,-144,385,243,-13,156,792,189,122,316,30,-673,-202,183,131,-262,-245,-278,71,91,25,-70,-347,-124,-419,-517,-432
67519,191,152,268,192,116,550,-145,402,267,11,186,807,205,129,332,35,-640,-162,208,150,-228,-239,-208,115,119,48,-87,-189,-32,-350,-494,-583
67520,203,136,281,190,115,543,-127,404,247,6,219,768,190,134,348,41,-614,-194,200,171,-205,-199,-258,90,121,73,-8,-308,-67,-346,-437,-397
67521,167,114,254,171,103,534,-142,411,247,13,222,756,184,135,332,58,-598,-226,207,159,-208,-161,-259,79,116,76,13,-371,-132,-375,-477,-330
67522,141,114,238,161,103,546,-136,418,265,0,231,774,189,152,348,104,-592,-197,216,177,-186,-142,-224,108,146,79,38,-310,-79,-359,-451,-282
67523,146,116,252,169,98,557,-101,400,250,-9,250,759,169,131,358,109,-583,-208,194,158,-179,-142,-227,98,144,82,61,-360,-67,-316,-385,-179
67524,160,131,248,203,125,558,-84,419,266,-2,276,770,176,137,379,80,-582,-190,197,170,-170,-122,-194,123,146,102,63,-275,-36,-273,-369,-172
67525,167,153,248,196,128,551,-82,430,258,14,266,779,181,132,348,65,-554,-169,215,162,-182,-130,-189,140,148,97,70,-220,-19,-279,-346,-128
67526,159,154,260,195,120,552,-91,425,260,10,239,795,166,127,339,76,-557,-183,208,173,-158,-122,-218,138,150,115,121,-302,-31,-239,-280,28
67527,151,132,253,185,117,541,-115,405,252,2,218,789,171,115,337,49,-567,-199,200,144,-157,-146,-241,117,131,119,121,-320,-44,-214,-271,42
67528,157,125,243,168,101,530,-113,402,214,1,228,793,136,103,336,56,-581,-187,186,151,-159,-135,-205,112,114,99,109,-259,-16,-222,-287,22
67529,169,131,270,175,113,541,-99,414,227,15,244,829,126,119,338,95,-550,-184,196,146,-166,-76,-149,143,130,97,113,-180,40,-203,-314,-30
67530,175,148,299,189,107,541,-92,443,244,-4,233,824,144,111,306,88,-498,-152,198,131,-202,-75,-118,168,134,71,55,-68,61,-218,-378,-228
67531,219,192,340,202,129,578,-25,461,259,27,267,851,201,139,338,103,-474,-119,226,172,-158,-60,-78,195,159,107,83,-8,98,-186,-341,-149
67532,247,217,373,219,132,575,7,463,260,38,281,883,198,131,346,101,-433,-121,217,141,-172,-83,-88,153,135,78,38,-132,37,-261,-420,-231
67533,229,211,355,191,112,570,-14,444,252,14,297,888,174,116,339,110,-438,-118,192,122,-180,-158,-102,151,144,41,9,-193,24,-277,-459,-316
67534,201,192,322,185,100,570,-36,443,243,26,299,894,191,122,350,115,-483,-100,223,154,-174,-135,-83,177,159,82,56,-151,87,-189,-356,-159
67535,214,181,339,204,112,549,-49,455,253,17,292,932,214,146,369,127,-448,-53,252,178,-143,-122,-23,244,197,125,97,26,223,-67,-261,-39
67536,196,164,297,178,97,540,-48,429,239,18,269,902,204,133,375,127,-443,-75,243,180,-140,-109,-48,213,187,132,109,21,173,-121,-283,-12
67537,173,160,275,157,79,524,-69,416,241,0,260,885,195,138,364,109,-440,-92,217,170,-139,-111,-81,171,177,118,100,-122,106,-173,-304,5
67538,194,157,285,193,85,520,-86,409,251,5,243,905,205,139,337,98,-425,-109,218,173,-150,-106,-84,164,160,91,64,-112,61,-262,-423,-171
67539,213,156,280,199,101,522,-60,422,247,9,243,917,210,167,336,85,-432,-113,225,166,-156,-100,-103,134,149,84,29,-169,2,-336,-472,-282
67540,214,191,282,212,100,535,-38,457,263,29,250,915,232,184,376,125,-425,-111,245,199,-131,-84,-102,157,185,108,68,-168,0,-290,-420,-149
67541,211,184,278,189,84,516,-66,464,258,20,211,898,203,169,375,106,-423,-112,225,210,-136,-86,-106,156,198,127,52,-120,42,-246,-441,-157
67542,200,170,261,184,83,535,-54,466,248,5,232,911,209,175,355,104,-414,-110,224,200,-149,-97,-74,167,189,116,40,-91,61,-242,-426,-145
67543,192,176,300,165,93,564,-31,476,250,5,261,908,217,180,380,119,-399,-95,236,232,-146,-103,-48,180,207,130,70,-22,90,-206,-354,-88
67544,224,161,329,183,94,557,-24,475,261,10,272,903,214,155,381,134,-421,-83,237,211,-149,-88,-45,162,179,122,51,-16,82,-223,-379,-105
67545,240,206,358,218,96,551,4,496,262,18,265,925,211,161,377,143,-426,-68,241,208,-135,-81,-36,168,186,112,62,35,116,-166,-333,-94
67546,249,222,379,225,104,548,3,517,270,19,273,945,229,156,376,146,-398,-83,222,201,-140,-67,-44,154,169,95,60,-51,52,-229,-433,-105
67547,261,211,398,244,115,549,-25,528,274,7,296,936,230,145,369,143,-368,-89,218,187,-150,-94,-73,132,143,89,30,-150,6,-275,-446,-139
67548,263,220,413,258,114,571,-7,552,284,10,326,956,222,158,363,136,-349,-66,214,193,-136,-83,-41,148,155,118,68,-96,78,-179,-338,-59
67549,281,219,412,254,126,567,-25,536,283,4,288,956,205,136,352,140,-334,-68,197,176,-158,-99,-27,141,156,106,59,-26,93,-162,-301,7
67550,263,201,381,258,128,556,-19,515,268,10,259,897,193,127,350,171,-349,-87,199,168,-170,-114,-46,137,149,103,50,-27,100,-137,-277,69
67551,254,207,365,246,113,559,-7,531,276,17,276,911,191,129,348,143,-384,-129,177,161,-160,-100,-82,111,130,100,56,-158,48,-166,-295,38
67552,273,243,362,246,112,571,0,520,261,26,305,937,189,135,371,139,-383,-102,166,176,-140,-58,-91,93,117,108,89,-164,19,-187,-305,97
67553,281,219,377,246,123,579,-7,514,250,14,324,933,158,106,359,120,-369,-148,133,136,-170,-76,-139,52,61,63,37,-294,-112,-373,-442,-26
67554,301,229,407,254,143,590,6,522,261,47,328,964,187,117,353,113,-323,-108,159,148,-135,-49,-103,77,94,74,42,-213,-97,-384,-453,-38
67555,290,222,390,247,134,590,12,511,252,19,298,968,184,116,350,118,-311,-105,167,131,-141,-38,-91,73,106,71,44,-189,-86,-359,-446,-1
67556,279,230,398,239,118,562,-16,493,240,20,301,989,173,104,350,130,-311,-128,145,133,-148,-32,-76,70,101,60,29,-158,-76,-355,-471,-74
67557,278,217,410,248,133,574,-25,519,261,41,311,993,187,111,358,149,-307,-134,172,155,-146,-20,-62,85,115,94,68,-123,-51,-341,-430,-27
67558,259,207,383,227,144,565,-35,505,263,38,312,975,193,131,381,159,-347,-114,178,164,-129,-14,-44,132,156,130,114,-51,59,-214,-324,0
67559,246,214,373,224,144,584,-20,474,266,54,348,968,239,162,415,171,-331,-67,229,222,-60,-8,-6,211,221,182,179,61,183,-50,-155,134
67560,233,179,360,194,113,572,-30,457,242,50,323,941,208,157,404,166,-359,-81,244,228,-52,-9,-33,172,223,195,221,13,153,-49,-128,241
67561,226,189,351,200,106,554,-21,441,262,44,320,936,204,153,397,164,-355,-103,221,216,-84,0,-62,146,189,159,151,-9,55,-212,-326,25
67562,230,195,383,224,105,567,0,474,277,37,313,963,240,184,416,177,-320,-78,250,230,-82,12,-10,187,208,155,124,103,115,-215,-372,-168
67563,236,170,372,213,91,544,-18,487,262,35,291,918,213,152,398,168,-333,-90,244,220,-110,-21,-25,169,195,146,102,27,105,-185,-379,-266
67564,231,177,378,236,109,564,-8,489,260,54,299,901,189,158,398,179,-347,-131,211,226,-95,5,-77,140,209,136,106,-87,76,-203,-415,-230
67565,209,165,354,219,121,589,-1,480,285,57,307,884,194,168,428,214,-353,-154,217,247,-38,18,-113,138,225,200,195,-155,86,-146,-281,19
67566,213,157,323,198,135,593,1,462,263,54,333,862,189,168,444,213,-359,-168,219,251,-16,18,-113,143,221,243,246,-124,93,-93,-196,179
67567,198,143,330,212,123,584,-1,471,268,50,335,890,205,173,452,218,-346,-153,214,230,-13,20,-110,140,213,227,229,-101,22,-194,-249,171
