,Fp1,Fp2,F7,F3,Fz,F4,F8,FC5,FC1,FC2,FC6,T7,C3,Cz,C4,T8,TP9,CP5,CP1,CP2,CP6,TP10,P7,P3,Pz,P4,P8,PO9,O1,Oz,O2,PO10
69989,167,84,209,-140,-211,30,-148,104,-174,-285,-2,-88,64,-189,-429,-185,-937,-194,3,-143,-297,150,211,-52,-123,-207,376,-135,113,-99,-200,-130
69990,194,71,206,-102,-171,90,-134,134,-146,-247,87,-95,71,-145,-365,-334,-998,-205,37,-90,-239,171,123,-27,-81,-157,418,-96,163,-22,-122,-42
69991,186,36,157,-132,-180,110,-142,61,-172,-265,85,-88,53,-171,-379,-45,-1037,-215,28,-129,-231,149,81,-46,-103,-175,413,-147,110,-64,-178,-155
69992,134,23,86,-146,-212,97,-131,42,-186,-285,39,-90,10,-197,-409,186,-1001,-260,5,-179,-255,100,71,-70,-119,-206,409,-197,84,-135,-276,-202
69993,97,51,-14,-101,-170,107,-103,80,-182,-295,28,-103,6,-190,-404,308,-999,-265,-6,-157,-253,68,63,-82,-114,-226,411,-216,75,-150,-316,-170
69994,45,36,-73,-129,-188,91,-131,7,-183,-307,21,-127,9,-188,-413,302,-1082,-271,-17,-166,-300,57,54,-92,-148,-241,416,-245,37,-166,-300,-231
69995,78,36,-14,-129,-185,99,-206,-5,-187,-299,17,-126,25,-188,-400,264,-1108,-269,-6,-173,-288,111,87,-76,-138,-214,459,-191,70,-137,-257,-211
69996,94,41,53,-106,-192,86,-323,58,-166,-309,31,-167,58,-201,-382,49,-970,-224,-15,-144,-262,155,108,-51,-116,-188,451,-166,109,-106,-195,-152
69997,114,72,85,-94,-178,93,-339,88,-134,-278,65,-201,97,-174,-391,-61,-1019,-186,0,-132,-257,191,103,-35,-91,-164,463,-193,127,-60,-151,-99
69998,126,47,31,-111,-190,83,-289,82,-149,-288,41,-184,73,-171,-393,-193,-1107,-218,-21,-134,-266,151,82,-65,-117,-220,417,-193,79,-136,-276,-172
69999,84,35,-3,-116,-186,87,-151,94,-166,-280,10,-146,50,-187,-392,-496,-999,-250,-37,-162,-293,108,68,-85,-146,-245,385,-198,73,-141,-326,-201
70000,109,47,76,-118,-166,112,-101,57,-156,-285,27,-126,37,-187,-395,-363,-1057,-281,-39,-177,-304,114,77,-112,-143,-241,373,-188,58,-203,-360,-307
70001,176,65,132,-98,-164,144,-81,14,-143,-263,64,-126,41,-184,-356,-1,-1015,-273,-22,-137,-263,140,89,-105,-147,-243,397,-177,37,-259,-415,-285
70002,213,68,131,-91,-149,136,-105,40,-148,-286,77,-150,40,-168,-385,277,-917,-274,-13,-131,-250,179,85,-95,-134,-240,421,-188,58,-206,-383,-253
70003,178,58,85,-89,-171,87,-169,52,-152,-300,15,-163,21,-164,-414,365,-946,-252,-17,-166,-288,154,81,-100,-142,-235,423,-202,69,-181,-357,-218
70004,138,52,58,-82,-177,67,-156,37,-161,-295,-35,-169,29,-195,-460,312,-989,-249,-31,-177,-353,77,102,-86,-159,-250,393,-206,67,-184,-349,-210
70005,155,28,63,-104,-186,57,-183,40,-167,-299,-63,-174,46,-180,-479,271,-1009,-270,-26,-172,-341,127,94,-84,-167,-265,417,-207,43,-195,-364,-221
70006,174,5,98,-91,-197,80,-185,69,-141,-286,-40,-145,48,-178,-450,145,-1176,-248,28,-151,-325,171,99,-80,-127,-249,410,-226,24,-208,-382,-197
70007,142,-1,96,-85,-190,89,-245,45,-140,-271,1,-138,47,-169,-459,94,-1181,-254,4,-154,-347,96,92,-107,-112,-258,380,-236,32,-214,-360,-286
70008,112,6,77,-93,-196,89,-237,34,-146,-276,-9,-146,34,-174,-447,136,-850,-254,15,-153,-314,107,67,-81,-102,-233,404,-242,56,-173,-324,-235
70009,154,29,113,-86,-175,122,-185,39,-128,-275,-43,-159,43,-172,-443,205,-973,-255,13,-146,-275,126,80,-60,-74,-205,444,-234,77,-153,-283,-139
70010,175,29,130,-72,-171,96,-133,63,-123,-280,-63,-137,63,-169,-440,178,-983,-263,13,-157,-303,88,80,-45,-100,-224,398,-221,51,-201,-341,-263
70011,162,59,134,-63,-156,109,-96,87,-128,-269,48,-79,76,-155,-404,-93,-909,-243,41,-119,-301,155,99,-26,-76,-215,401,-196,75,-171,-330,-245
70012,164,58,108,-58,-147,97,-104,81,-130,-277,23,-61,80,-167,-403,-324,-862,-207,38,-126,-296,187,131,-10,-45,-186,388,-150,111,-118,-287,-156
70013,165,68,78,-57,-164,85,-114,98,-140,-287,-39,-35,91,-176,-433,-194,-901,-232,25,-137,-305,144,122,-41,-54,-198,321,-171,76,-160,-336,-188
70014,123,32,40,-77,-169,86,-83,93,-145,-262,5,-117,55,-173,-410,-145,-979,-238,0,-149,-266,77,89,-68,-73,-223,343,-212,67,-178,-344,-229
70015,80,8,-9,-106,-193,73,-73,43,-152,-272,32,-199,26,-175,-432,-244,-1056,-257,-17,-145,-319,21,84,-67,-86,-238,311,-239,62,-183,-349,-228
70016,74,-27,50,-116,-207,70,-242,58,-158,-285,-30,-172,52,-188,-460,0,-1004,-235,4,-172,-374,3,111,-49,-89,-251,314,-229,39,-195,-385,-281
70017,40,-87,98,-120,-214,86,-461,62,-150,-301,0,-183,51,-181,-435,186,-1041,-243,1,-178,-356,-51,95,-48,-86,-260,347,-233,27,-224,-424,-371
70018,96,-64,80,-104,-185,94,-453,60,-151,-292,74,-201,47,-189,-445,151,-1073,-265,-16,-178,-372,-52,70,-69,-94,-261,308,-266,10,-239,-415,-383
70019,121,-53,-14,-74,-163,88,-436,82,-147,-278,69,-175,39,-183,-462,-17,-933,-263,-31,-199,-421,-7,39,-89,-111,-307,237,-283,-18,-269,-440,-392
70020,99,-50,22,-52,-151,126,-360,78,-147,-276,49,-235,41,-178,-452,-192,-1003,-286,-31,-190,-419,-30,13,-105,-136,-330,245,-318,-59,-299,-485,-418
70021,83,-61,12,-82,-165,113,-228,66,-155,-287,-6,-322,28,-193,-494,-397,-1099,-314,-58,-189,-419,-89,-21,-122,-171,-340,219,-331,-88,-331,-533,-476
70022,121,-29,3,-110,-181,51,-160,62,-162,-333,-83,-312,43,-186,-495,-351,-1028,-301,-35,-191,-417,-87,-1,-112,-155,-318,221,-300,-47,-301,-486,-421
70023,141,7,31,-98,-178,56,-174,-1,-165,-308,-53,-232,58,-171,-455,-144,-968,-274,15,-178,-391,-68,49,-83,-126,-301,224,-268,2,-269,-438,-345
70024,137,20,44,-62,-162,77,-156,46,-165,-286,-6,-168,41,-163,-443,-37,-951,-247,-2,-168,-375,-15,86,-59,-120,-269,236,-223,40,-205,-389,-281
70025,157,29,37,-73,-161,82,-180,49,-165,-313,-27,-166,28,-199,-479,-71,-1024,-266,-42,-197,-416,8,71,-81,-148,-284,246,-257,49,-199,-354,-248
70026,167,20,68,-79,-153,67,-150,6,-182,-349,-76,-129,36,-233,-517,89,-1023,-275,-81,-210,-423,2,48,-110,-158,-325,228,-262,20,-214,-394,-343
70027,155,43,43,-63,-146,81,-120,64,-156,-335,-75,-56,58,-215,-490,215,-873,-221,-50,-190,-391,29,111,-76,-142,-294,279,-218,28,-218,-416,-371
70028,150,45,5,-67,-135,127,-70,139,-131,-311,-14,48,66,-194,-443,233,-885,-193,-31,-172,-357,39,195,-50,-141,-296,253,-227,40,-259,-432,-357
70029,189,39,76,-61,-157,115,-107,91,-168,-322,-21,-20,51,-217,-489,237,-978,-200,-50,-198,-388,29,144,-81,-161,-335,157,-271,3,-283,-451,-400
70030,257,100,170,-25,-131,118,-97,95,-132,-325,-32,-44,89,-189,-489,262,-1042,-200,-15,-186,-366,22,54,-68,-138,-300,159,-255,32,-244,-398,-337
70031,231,86,152,-55,-142,104,-127,84,-144,-334,-32,-139,76,-210,-470,163,-971,-232,-47,-203,-406,-7,20,-79,-156,-318,192,-270,-13,-254,-398,-349
70032,211,55,142,-82,-146,134,-175,73,-139,-322,-35,-151,97,-193,-454,134,-812,-214,-33,-179,-416,-59,44,-61,-125,-286,220,-277,4,-223,-382,-337
70033,190,31,112,-80,-138,129,-237,66,-139,-307,-54,-145,96,-183,-464,121,-978,-208,-29,-178,-392,-70,31,-45,-87,-276,230,-280,35,-189,-336,-340
70034,193,37,128,-80,-142,98,-207,81,-124,-316,-122,-146,92,-165,-473,76,-953,-218,9,-178,-373,-22,21,-32,-78,-253,266,-311,37,-186,-322,-322
70035,195,61,165,-65,-159,100,-203,106,-129,-320,-70,-139,86,-182,-467,6,-885,-207,-1,-171,-381,-30,43,-36,-78,-248,291,-314,33,-188,-308,-276
70036,175,80,165,-83,-169,105,-217,94,-164,-332,-11,-141,64,-207,-482,-7,-921,-236,-37,-196,-414,-94,27,-84,-118,-307,267,-314,8,-245,-405,-355
70037,215,112,192,-45,-131,132,-169,101,-130,-290,15,-106,104,-176,-446,32,-942,-199,0,-168,-400,-90,51,-42,-91,-259,217,-259,51,-230,-428,-405
70038,214,75,161,-67,-151,111,-224,130,-144,-298,2,-79,102,-182,-447,52,-896,-191,8,-164,-371,-56,61,-38,-85,-252,214,-262,57,-197,-376,-409
70039,182,9,131,-78,-178,90,-349,80,-168,-310,-22,-96,71,-206,-455,6,-850,-184,-20,-173,-349,12,68,-20,-98,-246,281,-258,75,-171,-309,-310
70040,214,13,180,-27,-155,98,-332,116,-154,-294,2,-51,102,-190,-450,-108,-848,-145,-1,-151,-330,52,111,5,-97,-222,285,-235,99,-167,-310,-282
70041,217,10,183,-22,-141,133,-227,135,-131,-292,35,-71,129,-179,-427,-271,-838,-158,0,-146,-320,67,111,-18,-88,-216,286,-244,79,-182,-315,-270
70042,206,50,157,-63,-151,168,-241,132,-156,-296,106,-102,93,-205,-431,-373,-830,-209,-16,-170,-319,23,96,-49,-120,-255,249,-242,69,-195,-363,-358
70043,196,55,132,-49,-139,174,-282,123,-168,-300,7,-28,83,-205,-439,-140,-808,-195,-18,-188,-311,55,116,-39,-120,-248,278,-211,80,-190,-355,-304
70044,214,122,141,-15,-120,203,-295,160,-122,-275,109,0,100,-183,-369,-179,-799,-172,-10,-138,-293,88,187,4,-92,-204,380,-138,121,-152,-299,-173
70045,237,115,155,-43,-136,148,-249,113,-128,-277,95,-9,120,-185,-368,-373,-822,-158,-1,-122,-318,115,214,24,-75,-209,399,-166,113,-143,-295,-195
70046,237,50,177,-46,-144,145,-258,138,-134,-284,39,-72,126,-182,-398,-331,-796,-178,11,-146,-369,70,158,8,-82,-231,353,-190,104,-164,-331,-295
70047,238,91,198,-20,-136,122,-128,152,-125,-293,40,-159,137,-181,-403,-75,-723,-168,58,-147,-334,32,134,15,-77,-229,347,-156,128,-151,-315,-292
70048,227,84,174,-41,-146,67,-60,142,-133,-322,-36,-167,131,-198,-431,177,-874,-162,28,-157,-335,34,140,25,-87,-227,359,-170,119,-139,-323,-266
70049,253,61,137,-48,-140,77,-73,181,-131,-320,-66,-147,152,-179,-444,225,-872,-152,34,-161,-378,25,94,16,-92,-256,336,-193,94,-153,-368,-275
70050,212,47,132,-47,-150,76,-138,132,-150,-332,-80,-131,121,-184,-474,223,-721,-199,20,-165,-415,10,123,-7,-106,-285,305,-199,74,-179,-361,-292
70051,235,69,146,-35,-136,104,-151,131,-157,-327,-87,-94,92,-210,-504,115,-792,-203,-16,-183,-428,57,110,-19,-131,-301,324,-215,62,-205,-371,-309
70052,253,87,179,-42,-128,137,-165,110,-161,-322,-8,-56,97,-224,-478,9,-796,-197,-23,-187,-416,13,111,-23,-136,-292,296,-227,47,-209,-375,-299
70053,227,113,213,-38,-119,154,-150,121,-146,-300,-9,-9,111,-204,-419,127,-740,-152,0,-162,-377,32,156,10,-86,-268,316,-183,76,-171,-356,-266
70054,228,124,238,-34,-119,128,-184,139,-145,-299,-14,-56,104,-188,-432,29,-840,-174,17,-163,-394,59,139,20,-107,-280,295,-196,60,-209,-374,-312
70055,228,123,217,-71,-123,113,-223,112,-158,-314,-27,-97,95,-194,-452,-92,-985,-221,-9,-187,-394,68,112,17,-142,-300,271,-195,51,-198,-362,-309
70056,217,138,180,-77,-139,97,-190,86,-180,-332,-24,-101,52,-221,-436,-7,-743,-231,-34,-184,-378,60,116,0,-147,-291,260,-237,34,-216,-362,-300
70057,218,118,199,-80,-144,90,-226,45,-187,-324,-27,-85,46,-225,-428,53,-602,-213,-60,-179,-346,1,95,0,-140,-281,277,-243,18,-193,-357,-308
70058,193,113,167,-109,-147,104,-183,42,-174,-324,0,-88,39,-227,-414,125,-789,-228,-59,-184,-347,-17,74,2,-150,-285,292,-234,8,-219,-401,-305
70059,196,101,62,-91,-167,103,-172,101,-169,-311,6,-94,58,-217,-406,129,-775,-244,-38,-164,-349,-40,85,-3,-131,-280,290,-249,-3,-244,-383,-333
70060,199,110,48,-79,-152,154,-224,114,-161,-288,58,-51,66,-206,-387,112,-767,-240,-39,-153,-321,-21,78,10,-133,-252,304,-270,3,-193,-307,-334
70061,175,88,14,-154,-163,127,-330,45,-187,-303,26,-14,25,-220,-374,162,-839,-276,-59,-143,-274,76,44,-19,-131,-243,357,-336,-11,-182,-235,-267
70062,126,56,61,-148,-147,91,-282,2,-201,-315,-14,-31,-2,-240,-379,101,-857,-281,-48,-163,-269,63,39,-27,-117,-218,392,-357,-17,-182,-224,-197
70063,167,40,101,-115,-149,104,-217,7,-198,-312,19,-110,-18,-226,-404,-179,-850,-285,-83,-185,-331,-82,20,-52,-148,-276,313,-320,-33,-236,-371,-301
70064,174,20,54,-113,-164,98,-198,20,-194,-304,-9,-201,4,-225,-403,-320,-853,-287,-64,-204,-357,-81,11,-51,-161,-295,240,-318,-40,-280,-445,-299
70065,161,28,79,-98,-183,61,-235,50,-191,-314,-50,-211,33,-216,-410,-370,-851,-290,-59,-184,-361,-73,-9,-41,-159,-299,198,-339,-59,-282,-416,-384
70066,129,-18,77,-112,-184,63,-368,41,-186,-325,-39,-84,13,-197,-406,-411,-864,-276,-63,-178,-354,-59,54,-47,-146,-299,200,-306,-58,-314,-470,-389
70067,141,7,82,-100,-176,113,-399,28,-187,-294,32,-88,15,-194,-392,-142,-889,-251,-48,-163,-354,-44,93,-41,-148,-292,251,-322,-61,-329,-499,-328
70068,186,62,69,-127,-164,137,-232,13,-181,-283,72,-156,-1,-202,-379,112,-1016,-301,-59,-158,-327,-30,-16,-68,-165,-285,300,-357,-77,-320,-438,-360
70069,185,84,63,-140,-154,101,-109,12,-198,-299,-40,-254,-10,-226,-419,45,-1019,-340,-69,-179,-346,-46,-131,-101,-184,-310,267,-390,-101,-329,-463,-422
70070,173,94,76,-136,-144,59,-110,38,-220,-330,-86,-277,-4,-244,-459,-135,-846,-343,-76,-226,-424,-69,-142,-124,-198,-324,166,-438,-137,-375,-501,-442
70071,206,153,107,-109,-112,92,-37,69,-199,-316,-23,-200,42,-212,-416,-176,-834,-276,-31,-182,-371,-2,-56,-55,-131,-264,235,-396,-90,-289,-416,-331
70072,216,155,126,-118,-124,112,-21,15,-194,-295,12,-101,29,-219,-397,-76,-810,-259,-15,-156,-326,-11,-2,-8,-89,-237,275,-354,-42,-238,-385,-345
70073,225,152,161,-85,-107,143,-45,55,-178,-272,41,-38,40,-189,-360,65,-764,-238,-6,-136,-271,56,67,30,-48,-180,379,-290,34,-180,-310,-296
70074,249,176,170,-55,-100,160,-59,74,-175,-262,69,-91,51,-189,-342,163,-764,-241,-13,-109,-218,128,82,22,-45,-143,480,-270,47,-172,-288,-255
70075,207,147,120,-103,-144,147,-129,34,-196,-281,32,-92,31,-203,-378,146,-769,-247,-38,-132,-241,129,78,16,-59,-173,447,-249,38,-183,-299,-250
70076,175,114,109,-126,-144,133,-169,0,-198,-310,-7,-145,22,-203,-397,180,-812,-260,-58,-122,-266,107,69,3,-67,-172,382,-266,25,-211,-328,-234
70077,138,109,80,-131,-139,119,-167,20,-194,-311,0,-146,14,-207,-390,214,-776,-252,-31,-108,-262,85,71,32,-56,-168,390,-271,37,-212,-366,-209
70078,148,124,59,-123,-155,116,-140,31,-185,-307,0,-139,22,-197,-375,261,-807,-244,-50,-95,-229,127,70,32,-46,-140,441,-263,44,-178,-285,-182
70079,159,132,56,-154,-158,137,-135,25,-192,-297,39,-82,24,-209,-350,278,-808,-244,-58,-96,-206,176,90,30,-44,-111,492,-236,82,-139,-210,-168
70080,168,101,50,-121,-147,159,-175,62,-199,-291,120,-50,38,-214,-337,172,-842,-226,-39,-96,-221,184,96,25,-50,-94,508,-216,89,-138,-213,-218
70081,183,58,73,-90,-144,163,-271,45,-197,-270,86,-87,27,-195,-317,171,-871,-229,-34,-91,-215,198,108,28,-39,-100,502,-254,69,-146,-243,-182
70082,144,51,45,-126,-153,136,-259,16,-184,-279,-16,-102,44,-186,-353,275,-738,-189,1,-77,-197,221,136,59,-21,-96,526,-230,106,-118,-197,-138
70083,102,7,54,-141,-169,120,-295,3,-192,-282,44,-127,42,-184,-382,229,-752,-190,12,-99,-213,187,116,59,-16,-101,530,-250,108,-92,-189,-143
70084,119,18,108,-145,-149,149,-215,6,-185,-265,92,-121,52,-167,-353,144,-831,-175,41,-70,-204,158,133,94,23,-85,498,-245,127,-61,-141,-114
70085,103,35,98,-157,-184,116,-159,-4,-198,-277,34,-110,41,-188,-353,-3,-796,-180,49,-99,-235,171,150,110,8,-109,464,-274,95,-151,-255,-244
70086,142,60,118,-133,-177,146,-98,15,-174,-295,36,-86,77,-182,-336,-35,-787,-160,50,-66,-191,242,133,133,22,-88,491,-228,112,-134,-257,-181
70087,135,47,75,-123,-183,141,-97,31,-183,-295,50,-95,71,-163,-308,-12,-799,-182,36,-54,-125,254,100,136,43,-62,517,-231,125,-87,-200,-71
70088,130,22,71,-160,-187,125,-155,10,-202,-272,18,-87,64,-163,-327,26,-810,-185,46,-70,-159,196,111,143,25,-92,470,-273,82,-130,-241,-201
70089,124,30,4,-176,-191,90,-217,0,-198,-274,8,-66,71,-175,-352,-89,-839,-186,47,-74,-228,30,142,124,6,-121,424,-269,85,-159,-281,-315
70090,74,13,-16,-156,-179,91,-224,-2,-195,-281,-5,-22,61,-164,-363,-163,-851,-181,25,-82,-244,47,152,114,-3,-143,421,-276,76,-181,-289,-265
70091,82,13,5,-156,-183,108,-312,37,-191,-282,-19,-28,68,-147,-344,37,-823,-184,38,-66,-210,135,135,125,12,-113,470,-272,63,-182,-273,-210
70092,38,-49,-23,-185,-182,116,-408,0,-200,-276,-57,-85,69,-148,-343,122,-897,-187,56,-45,-179,150,137,117,43,-76,527,-247,95,-129,-221,-168
70093,21,-30,12,-175,-181,131,-312,-53,-195,-248,30,-178,70,-142,-334,9,-963,-189,69,-42,-169,158,111,118,37,-75,516,-265,110,-104,-200,-127
70094,64,3,12,-179,-165,143,-191,-6,-174,-218,58,-263,85,-141,-319,2,-810,-185,35,-59,-177,104,87,125,38,-81,477,-275,106,-101,-194,-154
70095,51,1,1,-175,-193,91,-160,12,-187,-271,-1,-228,67,-165,-356,62,-881,-181,39,-80,-209,66,92,133,28,-101,488,-290,102,-115,-195,-163
70096,29,-14,-6,-157,-197,64,-183,57,-171,-293,-29,-167,89,-162,-366,96,-899,-160,63,-84,-224,64,111,133,39,-87,486,-309,74,-113,-215,-237
70097,-10,-30,-25,-167,-202,66,-233,15,-183,-308,-68,-99,58,-150,-363,-113,-808,-173,47,-76,-239,39,123,114,27,-104,455,-267,83,-116,-246,-287
70098,2,-39,8,-202,-198,54,-211,-32,-200,-311,-79,-97,47,-152,-380,-115,-971,-196,29,-68,-248,65,113,115,24,-99,415,-257,90,-97,-237,-233
70099,37,-21,14,-185,-194,61,-201,-29,-203,-303,-52,-46,41,-142,-366,122,-1167,-204,31,-57,-235,103,112,101,29,-91,466,-268,78,-120,-253,-158
70100,34,-43,-10,-162,-181,112,-192,2,-185,-277,19,-48,43,-151,-350,282,-799,-179,19,-52,-206,106,101,92,10,-101,497,-279,59,-199,-316,-236
70101,33,-43,-30,-163,-179,123,-159,7,-191,-292,18,-83,44,-165,-365,307,-871,-209,7,-90,-230,51,78,62,-12,-135,472,-311,16,-195,-323,-346
70102,41,-24,-15,-146,-158,128,-251,24,-177,-264,-33,-114,65,-155,-385,323,-849,-182,20,-93,-225,75,137,60,-21,-112,501,-316,28,-172,-290,-282
70103,41,-45,-29,-142,-165,134,-399,14,-193,-254,-13,-144,55,-169,-380,285,-967,-209,-16,-115,-253,92,118,36,-60,-134,441,-317,-6,-231,-345,-337
70104,27,-45,-28,-161,-185,155,-324,11,-199,-255,4,-138,48,-158,-367,33,-1077,-232,-29,-118,-274,25,5,-15,-68,-168,357,-327,-41,-295,-419,-375
70105,45,-16,10,-143,-166,132,-183,30,-183,-258,9,-107,61,-157,-369,-236,-885,-221,-18,-99,-240,27,-7,-6,-60,-184,318,-334,-44,-281,-417,-374
70106,57,-39,2,-147,-184,108,-170,25,-195,-265,-22,-136,69,-161,-373,-405,-922,-213,-29,-124,-260,-1,11,-17,-74,-187,297,-351,-53,-277,-382,-347
70107,41,-33,0,-148,-179,94,-148,23,-201,-288,-37,-148,64,-164,-382,-292,-962,-236,-11,-136,-293,-38,6,-21,-87,-184,314,-350,-42,-259,-349,-292
70108,11,-59,-92,-170,-185,65,-169,-2,-184,-297,-56,-134,31,-175,-403,-30,-1000,-248,-15,-118,-293,-85,-34,-31,-91,-199,333,-382,-56,-257,-337,-262
70109,-5,-46,-79,-206,-202,65,-162,-21,-200,-296,-58,-130,37,-173,-403,114,-1054,-259,-25,-136,-303,-40,-36,-47,-99,-198,374,-388,-74,-283,-373,-224
70110,-9,-49,-64,-177,-202,69,-184,-35,-219,-285,-76,-152,19,-170,-416,168,-1058,-264,-41,-155,-306,-6,-16,-24,-98,-195,412,-377,-72,-290,-390,-230
70111,-19,-80,-152,-185,-197,85,-281,-30,-197,-282,-90,-163,19,-169,-433,142,-1053,-271,-42,-152,-313,-7,-14,-34,-109,-230,341,-359,-63,-294,-433,-411
70112,-30,-125,-194,-189,-205,75,-311,-10,-177,-290,-126,-152,33,-185,-434,95,-1109,-269,-20,-144,-298,-6,-19,-19,-97,-216,326,-344,-57,-260,-407,-418
70113,-16,-144,-135,-202,-195,73,-331,-26,-171,-286,-120,-112,30,-176,-414,-112,-1117,-248,-32,-154,-308,-19,-13,-6,-96,-208,351,-391,-56,-263,-358,-383
70114,-58,-132,-144,-239,-200,113,-367,-118,-188,-250,11,-123,16,-160,-393,-259,-1230,-255,-43,-145,-308,-22,-39,-13,-83,-211,292,-419,-74,-277,-354,-397
70115,-76,-137,-179,-236,-212,116,-447,-107,-214,-249,81,-163,22,-175,-379,-181,-1268,-262,-51,-120,-292,-47,-46,-11,-84,-197,259,-426,-92,-275,-357,-425
70116,-65,-100,-147,-225,-219,84,-421,-84,-211,-291,23,-263,18,-175,-386,-62,-1133,-280,-60,-120,-308,-82,-67,-29,-109,-231,275,-454,-115,-341,-428,-459
70117,-92,-77,-135,-213,-189,68,-323,-63,-182,-277,-23,-278,35,-158,-368,69,-1204,-271,-41,-110,-254,1,-42,-13,-93,-182,365,-443,-78,-266,-349,-325
70118,-88,-79,-149,-208,-188,61,-257,-33,-194,-277,-91,-224,43,-187,-409,79,-1188,-263,-61,-113,-279,-11,-43,-6,-94,-157,429,-391,-25,-180,-234,-177
70119,-78,-108,-135,-214,-190,50,-240,-66,-218,-281,-91,-256,-8,-195,-421,95,-1270,-312,-82,-147,-300,-62,-95,-79,-138,-186,403,-461,-81,-241,-310,-213
70120,-64,-72,-140,-198,-174,63,-241,-66,-196,-256,-66,-305,-18,-190,-411,79,-1267,-328,-96,-172,-313,-119,-120,-109,-149,-249,278,-518,-188,-380,-466,-420
70121,-66,-73,-130,-201,-170,99,-211,-62,-196,-237,-61,-363,-2,-174,-406,90,-1290,-324,-90,-153,-311,-72,-113,-82,-121,-220,330,-513,-155,-347,-377,-330
70122,-86,-92,-121,-226,-190,98,-211,-102,-211,-254,-85,-387,-8,-190,-449,29,-1384,-328,-121,-157,-365,-103,-140,-82,-126,-254,332,-496,-141,-304,-341,-309
70123,-66,-58,-127,-201,-194,98,-188,-94,-207,-270,-98,-357,-11,-207,-461,50,-1289,-322,-116,-181,-397,-130,-134,-100,-144,-292,283,-496,-154,-405,-527,-398
70124,-37,-50,-118,-205,-193,85,-205,-97,-234,-277,-100,-328,-33,-218,-458,66,-1285,-348,-113,-183,-373,-104,-91,-120,-160,-286,318,-494,-147,-385,-521,-443
70125,-71,-65,-149,-220,-205,73,-294,-137,-240,-287,-88,-281,-74,-235,-443,-37,-1304,-386,-156,-187,-363,-102,-131,-129,-174,-280,348,-477,-130,-314,-390,-389
70126,-58,-113,-218,-222,-204,78,-346,-123,-240,-306,-63,-259,-71,-225,-463,-345,-1368,-371,-169,-212,-394,-65,-132,-121,-194,-309,223,-430,-118,-356,-466,-443
70127,-37,-105,-201,-199,-195,95,-241,-14,-222,-307,-22,-210,-45,-231,-461,-482,-1293,-330,-165,-232,-422,-25,-68,-111,-203,-356,151,-371,-118,-394,-584,-506
70128,-11,-62,-128,-193,-179,99,-160,-12,-202,-308,-35,-198,-34,-219,-443,-477,-1192,-331,-158,-223,-371,-71,-73,-114,-191,-334,226,-379,-110,-349,-518,-413
70129,-7,-39,-108,-176,-186,126,-151,-88,-221,-303,-20,-205,-54,-239,-436,-541,-1209,-343,-166,-216,-327,-56,-102,-126,-215,-333,202,-422,-132,-374,-518,-454
70130,2,-13,-113,-191,-183,100,-173,-51,-223,-300,-38,-240,-40,-250,-447,-316,-1273,-339,-136,-217,-344,-40,-121,-139,-214,-310,218,-426,-144,-373,-487,-419
70131,10,-13,-91,-152,-157,101,-203,-29,-201,-270,-12,-258,-26,-214,-403,-141,-1323,-356,-113,-174,-305,7,-86,-114,-172,-278,290,-396,-105,-311,-389,-319
70132,45,-13,-52,-160,-174,117,-220,-49,-193,-282,2,-263,-36,-207,-399,-141,-1423,-359,-86,-173,-320,0,-98,-118,-168,-288,297,-449,-134,-318,-410,-387
70133,25,-23,-61,-165,-184,94,-217,-52,-193,-305,-24,-254,-28,-228,-420,-75,-1313,-361,-82,-205,-352,-109,-93,-135,-195,-288,254,-490,-169,-377,-506,-515
70134,1,-25,-37,-152,-168,132,-267,-36,-187,-257,41,-230,-10,-205,-411,-83,-1396,-344,-72,-183,-342,-73,-87,-117,-183,-283,282,-464,-162,-429,-555,-496
70135,-13,8,-13,-176,-183,162,-346,-55,-203,-256,105,-193,-37,-211,-402,-209,-1474,-350,-98,-184,-359,-16,-123,-127,-207,-315,290,-481,-159,-412,-541,-445
70136,-3,-14,-20,-212,-193,167,-362,-99,-214,-272,125,-188,-68,-230,-391,-74,-1251,-368,-114,-192,-347,-31,-117,-133,-221,-321,246,-448,-171,-421,-560,-449
70137,15,-12,-63,-231,-190,145,-331,-100,-207,-266,31,-216,-40,-204,-421,129,-1332,-368,-101,-188,-359,-15,-106,-114,-195,-295,253,-414,-148,-396,-534,-406
70138,17,-4,-112,-185,-181,113,-244,-49,-196,-301,-12,-221,-36,-198,-457,199,-1300,-351,-111,-200,-376,-22,-53,-94,-181,-281,289,-474,-151,-383,-487,-407
