,Fp1,Fp2,F7,F3,Fz,F4,F8,FC5,FC1,FC2,FC6,T7,C3,Cz,C4,T8,TP9,CP5,CP1,CP2,CP6,TP10,P7,P3,Pz,P4,P8,PO9,O1,Oz,O2,PO10
48955,170,290,173,84,-48,76,210,346,-81,-173,305,-80,211,-13,248,141,81,44,-74,13,-601,152,92,-125,84,75,170,180,60,180,84,-35
48956,201,280,177,75,-62,40,210,370,-67,-194,285,-60,223,-11,224,119,97,28,-84,-8,-634,138,68,-144,88,56,138,80,13,122,32,-88
48957,192,281,119,61,-68,45,185,334,-67,-193,263,-100,198,-6,201,106,84,26,-91,-26,-654,123,49,-139,74,55,111,82,2,110,34,-102
48958,133,249,149,58,-82,29,139,339,-83,-226,239,-94,188,-4,173,59,77,24,-99,-47,-692,62,67,-147,45,34,62,113,16,122,17,-128
48959,92,223,116,50,-86,6,148,321,-78,-220,257,-122,178,-30,162,23,39,9,-99,-67,-703,39,54,-159,41,13,43,102,-19,85,-23,-184
48960,110,220,100,41,-95,12,140,304,-79,-225,228,-154,177,-27,176,42,40,11,-99,-35,-680,70,41,-143,65,24,67,154,2,96,-6,-129
48961,100,211,87,18,-92,9,134,281,-93,-229,227,-178,158,-13,177,30,29,-11,-104,-21,-674,73,34,-150,84,52,94,139,36,134,36,-70
48962,144,227,135,38,-106,33,180,296,-89,-225,256,-144,159,-10,189,41,51,10,-99,-16,-667,18,74,-131,94,97,122,219,80,193,111,-35
48963,143,219,137,41,-103,55,218,323,-110,-210,253,-119,170,-42,201,67,80,24,-88,-18,-637,35,96,-107,94,115,120,275,100,223,136,-72
48964,141,224,154,49,-104,38,186,347,-88,-223,249,-92,159,-49,216,77,78,35,-102,-21,-639,96,70,-123,95,103,143,178,55,200,119,-81
48965,133,245,147,53,-96,43,154,350,-70,-218,257,-80,167,-46,221,94,84,36,-107,-22,-634,86,59,-119,106,106,179,105,53,201,166,-24
48966,134,243,156,52,-81,60,182,361,-79,-188,283,-59,185,-50,213,82,116,45,-97,-4,-631,64,99,-100,99,132,179,122,72,211,149,0
48967,143,237,148,72,-87,53,142,390,-68,-218,264,-42,191,-48,204,58,171,79,-69,-8,-621,29,212,-85,123,134,164,72,54,183,129,-70
48968,144,221,138,65,-91,17,106,379,-65,-254,240,-66,196,-44,205,40,157,91,-59,-3,-628,42,217,-75,131,147,192,68,61,226,175,-33
48969,147,216,125,79,-74,6,104,370,-63,-246,237,-57,210,-38,211,55,112,88,-59,24,-616,52,176,-54,153,162,190,169,139,277,228,-17
48970,159,202,164,100,-94,0,75,399,-53,-262,221,-47,217,-31,208,36,95,98,-62,22,-624,-17,140,-36,149,166,172,175,144,257,195,-89
48971,158,198,165,92,-83,-5,81,396,-35,-256,236,-42,233,-16,206,42,95,111,-56,1,-636,0,157,-17,165,155,153,258,156,264,190,-59
48972,155,194,136,105,-63,-16,99,400,-45,-242,227,-42,248,-23,198,26,148,122,-39,1,-647,63,169,0,157,136,134,324,173,267,182,-40
48973,138,202,150,96,-75,-12,96,429,-50,-237,218,-47,264,-1,203,23,200,145,-30,-3,-656,67,207,17,159,133,159,425,243,295,199,-31
48974,116,215,171,109,-80,4,101,421,-50,-232,230,-37,260,-32,188,24,186,133,-42,-29,-655,56,208,11,152,118,162,428,255,294,196,-18
48975,109,210,145,81,-92,10,118,369,-61,-220,239,-92,238,-37,188,65,131,97,-53,-32,-615,87,124,-10,138,127,196,165,155,267,204,12
48976,116,215,169,79,-69,21,124,387,-36,-231,246,-56,258,-7,211,87,128,120,-36,-2,-605,140,134,23,169,155,226,80,168,271,211,2
48977,90,201,166,79,-77,21,110,396,-53,-227,244,-8,264,-22,207,94,169,140,-30,-1,-597,165,202,47,172,163,243,257,232,314,221,7
48978,98,233,183,87,-75,31,160,405,-46,-196,259,18,277,-12,215,141,196,168,-18,14,-568,172,238,69,188,176,248,352,272,332,225,3
48979,85,219,193,95,-58,36,151,436,-58,-165,271,45,301,-18,215,157,226,188,-15,14,-555,168,290,75,209,200,278,433,312,378,276,53
48980,103,233,163,86,-55,34,162,424,-70,-174,270,33,285,-36,225,163,238,188,-12,20,-545,198,313,72,189,219,291,525,328,407,303,87
48981,130,260,201,100,-56,50,172,437,-59,-160,270,29,275,-35,226,145,266,185,-31,12,-556,198,309,55,174,191,286,527,310,390,293,93
48982,163,282,232,119,-52,68,169,449,-74,-173,251,58,268,-50,222,145,284,181,-50,-10,-589,161,309,20,139,159,265,578,328,404,303,85
48983,162,279,258,125,-36,65,176,465,-39,-167,263,71,286,-36,212,130,291,177,-65,-40,-605,180,318,19,121,148,255,540,319,400,319,99
48984,167,281,231,127,-43,-1,166,460,-29,-174,245,26,266,-52,211,103,263,150,-74,-38,-623,160,243,-17,108,132,227,299,206,322,261,70
48985,151,256,228,135,-51,-18,134,467,-33,-173,219,30,251,-55,177,74,243,114,-80,-41,-639,124,205,-62,113,100,216,194,159,295,233,43
48986,155,208,230,140,-86,-4,125,480,-34,-175,198,20,255,-38,184,41,241,103,-73,-37,-666,99,217,-76,108,104,190,268,197,290,243,7
48987,124,168,179,132,-82,-30,116,455,-28,-183,171,-19,227,-31,181,28,192,80,-83,-47,-669,93,189,-101,98,94,177,334,203,311,251,19
48988,97,153,167,141,-79,-50,44,451,-19,-200,149,-59,228,-25,123,11,97,16,-113,-76,-710,52,103,-166,74,57,141,216,85,256,189,-11
48989,29,88,114,95,-117,-107,-65,421,-38,-251,70,-118,204,-66,57,-77,39,-25,-141,-108,-803,-38,30,-202,36,-10,28,129,-9,144,76,-168
48990,0,40,59,72,-122,-106,-57,387,-44,-246,57,-179,186,-45,54,-113,-6,-49,-152,-114,-835,-45,-11,-209,21,-40,-13,44,-48,102,24,-190
48991,2,37,64,70,-112,-103,-93,375,-50,-231,28,-176,191,-21,33,-131,-22,-68,-151,-133,-858,-80,-70,-249,0,-75,-57,-81,-149,19,-54,-250
48992,-33,50,40,33,-128,-101,-81,346,-46,-249,23,-189,188,-35,12,-145,-38,-61,-153,-150,-878,-129,-48,-252,-5,-85,-73,20,-113,11,-61,-269
48993,-44,63,-21,6,-149,-89,-61,311,-53,-251,36,-222,185,-28,30,-144,-25,-73,-153,-153,-871,-99,-35,-217,10,-83,-57,93,-84,15,-39,-228
48994,-41,88,25,1,-127,-74,-74,325,-50,-230,43,-211,187,-14,34,-144,-25,-73,-137,-134,-852,-117,-47,-191,35,-73,-84,33,-112,-18,-39,-243
48995,-37,108,-8,-4,-127,-77,-64,309,-63,-225,52,-244,192,-28,37,-150,-100,-80,-131,-139,-859,-128,-98,-226,19,-92,-98,-78,-149,-18,-60,-263
48996,-7,159,14,15,-107,-36,-37,338,-63,-217,56,-223,185,-16,67,-140,-95,-83,-130,-132,-852,-120,-82,-225,9,-96,-98,-112,-147,-7,-76,-304
48997,8,162,33,19,-97,-19,-37,343,-70,-207,69,-219,167,-38,79,-111,-71,-97,-122,-109,-838,-116,-68,-208,13,-85,-99,-114,-143,-8,-69,-315
48998,30,191,44,23,-89,-16,6,360,-58,-190,119,-192,182,-41,117,-66,-27,-54,-107,-77,-812,-79,9,-167,19,-44,-50,48,-57,26,-55,-302
48999,14,170,14,18,-86,-20,26,334,-62,-191,139,-172,181,-31,154,-29,-4,-28,-116,-65,-757,-51,37,-136,53,-21,-11,125,-8,68,-13,-236
49000,25,160,22,15,-105,-20,14,323,-86,-210,142,-199,156,-53,126,-28,-17,-44,-127,-82,-746,-43,-2,-164,32,-22,-4,44,-28,71,-7,-212
49001,28,181,24,17,-85,-20,23,314,-81,-184,151,-202,159,-54,139,-25,-29,-39,-123,-87,-742,8,-4,-154,28,-1,33,74,4,103,40,-180
49002,14,153,17,45,-88,-18,3,331,-57,-182,147,-200,164,-62,171,-15,1,-55,-131,-60,-708,47,23,-133,45,27,59,134,65,154,78,-133
49003,4,133,24,33,-102,-53,-8,337,-64,-190,133,-221,139,-70,145,-23,-63,-83,-166,-86,-750,-10,-57,-214,14,10,38,-44,-35,79,22,-163
49004,35,157,48,54,-82,-47,-23,343,-66,-198,123,-205,148,-56,129,-53,-54,-61,-142,-83,-753,-96,-26,-223,35,0,40,19,-23,97,36,-148
49005,36,148,38,51,-100,-32,-24,349,-64,-202,120,-221,175,-42,135,-52,-6,-17,-111,-71,-743,-108,37,-145,48,6,48,236,89,172,59,-160
49006,39,157,46,49,-111,-41,0,345,-71,-219,109,-180,198,-31,133,-29,15,11,-108,-69,-730,-60,70,-107,67,9,65,260,118,189,85,-147
49007,34,155,20,35,-85,-34,11,330,-77,-225,126,-176,184,-27,136,-25,0,-1,-100,-71,-713,-13,64,-115,64,20,77,177,89,176,70,-116
49008,44,161,34,24,-87,-36,5,308,-103,-220,151,-187,154,-43,152,-24,39,-21,-104,-60,-713,-37,61,-143,63,20,84,124,64,173,71,-120
49009,48,179,2,34,-74,-19,42,304,-99,-186,147,-144,183,-34,173,-13,118,10,-102,-54,-699,-18,182,-113,74,49,116,188,84,182,108,-78
49010,41,146,25,24,-85,-23,24,303,-94,-195,124,-162,167,-23,147,-26,91,2,-114,-52,-699,-23,162,-131,59,49,111,89,37,159,96,-84
49011,49,143,22,28,-78,-17,57,271,-96,-199,160,-205,146,-19,164,-6,5,-29,-123,-61,-701,2,34,-171,26,40,139,-78,-39,102,79,-68
49012,49,137,25,11,-66,-11,68,274,-97,-189,171,-202,157,-36,150,-6,-11,-50,-112,-78,-727,-12,-2,-175,16,10,104,-44,-50,73,30,-119
49013,43,139,35,11,-84,-69,-5,269,-93,-205,124,-223,165,-55,145,-14,-44,-45,-113,-86,-722,-4,-5,-181,15,7,82,58,15,110,14,-154
49014,30,133,20,5,-77,-83,4,241,-109,-202,122,-230,160,-64,159,-21,-44,-31,-115,-108,-722,1,7,-172,17,-4,75,166,48,117,33,-188
49015,12,122,0,14,-92,-11,28,244,-104,-185,151,-217,170,-55,162,-1,5,-30,-117,-102,-723,-8,42,-147,23,-1,60,330,119,165,42,-188
49016,28,156,25,39,-80,4,27,268,-89,-183,157,-209,190,-47,186,-15,23,-26,-112,-73,-734,-28,57,-139,24,-5,57,309,104,163,20,-174
49017,49,188,18,33,-83,-6,39,276,-78,-182,153,-213,197,-55,174,3,24,-10,-101,-77,-717,-16,74,-127,35,1,65,337,122,181,55,-122
49018,45,188,39,54,-68,-11,66,293,-69,-189,163,-216,183,-64,158,1,-3,-40,-118,-84,-728,-53,1,-151,17,-30,31,125,21,126,32,-160
49019,78,214,80,86,-60,12,80,330,-55,-179,195,-167,195,-48,166,6,22,-20,-112,-82,-734,-45,11,-154,20,-31,2,97,-12,110,-17,-254
49020,120,249,102,97,-49,18,86,323,-55,-184,173,-168,200,-61,145,-7,23,-16,-105,-90,-752,-53,23,-161,5,-43,-11,112,-23,100,-31,-266
49021,103,226,137,90,-76,20,56,351,-65,-202,156,-171,211,-66,135,-42,44,18,-98,-100,-775,-126,58,-134,18,-57,-37,289,48,121,4,-258
49022,97,220,50,68,-67,21,78,326,-61,-184,168,-193,183,-50,149,-19,6,-21,-103,-77,-755,-116,8,-145,37,-38,-43,181,17,134,2,-262
49023,88,209,74,72,-82,1,50,330,-57,-200,147,-185,181,-66,153,-60,-17,-43,-108,-78,-744,-103,-43,-168,38,-40,-58,-6,-44,75,-19,-285
49024,109,203,142,112,-80,30,72,383,-64,-192,168,-138,203,-36,161,-35,-13,-10,-101,-46,-727,-65,-56,-154,46,-9,-36,-80,-51,66,17,-250
49025,119,255,99,96,-53,-14,134,359,-65,-181,215,-159,187,-27,190,22,-10,-42,-117,-44,-705,-58,-46,-163,56,5,8,-35,-40,85,34,-248
49026,122,249,71,80,-57,-9,123,349,-60,-178,228,-182,180,-25,202,37,30,-25,-88,-22,-682,-47,10,-149,84,49,44,211,59,177,75,-196
49027,107,209,79,94,-52,60,112,347,-65,-168,220,-171,194,-15,212,35,3,-22,-89,0,-671,-35,22,-132,111,73,58,300,81,205,103,-175
49028,124,228,66,62,-54,48,103,293,-86,-166,214,-221,160,-14,208,30,-79,-84,-104,-11,-686,-45,-80,-198,77,55,33,77,8,153,65,-226
49029,105,222,55,67,-84,27,69,282,-93,-165,181,-227,135,-39,185,5,-111,-123,-150,-29,-721,-105,-170,-263,41,6,-1,-257,-167,30,-10,-248
49030,132,254,127,83,-61,42,98,344,-75,-144,185,-201,160,-24,194,24,-117,-109,-143,-18,-716,-79,-177,-268,48,4,20,-270,-187,22,-14,-248
49031,121,238,97,67,-77,25,62,330,-89,-163,170,-229,156,-30,190,14,-91,-100,-135,-32,-731,-73,-149,-251,50,-1,22,-127,-108,78,28,-220
49032,103,215,72,48,-91,-2,7,291,-125,-193,135,-252,118,-51,134,-31,-130,-116,-170,-61,-763,-97,-173,-266,7,-46,-20,-192,-145,39,-11,-243
49033,138,248,116,66,-84,18,67,311,-94,-161,163,-210,139,-27,158,-21,-128,-95,-152,-67,-739,-74,-146,-256,26,-25,3,-171,-154,52,-8,-235
49034,147,266,144,90,-50,57,117,336,-70,-148,191,-189,158,-38,178,-3,-97,-93,-144,-60,-719,-37,-134,-249,25,-7,23,-111,-110,59,-4,-228
49035,163,282,149,88,-40,73,117,308,-90,-162,187,-216,134,-68,156,1,-81,-100,-179,-98,-746,-33,-130,-263,-5,-59,9,-101,-139,26,-60,-239
49036,201,305,163,107,-54,73,45,319,-77,-171,176,-220,110,-76,159,-6,-57,-89,-184,-110,-767,-32,-107,-264,-26,-62,15,-67,-120,32,-64,-233
49037,246,350,201,146,-22,91,121,360,-70,-174,210,-193,131,-68,180,19,-22,-73,-176,-93,-725,-7,-76,-244,-8,-51,48,12,-84,55,-20,-173
49038,226,325,182,132,-12,76,127,343,-96,-187,206,-191,131,-76,153,47,-29,-95,-204,-101,-743,3,-83,-260,-24,-63,40,2,-78,44,-59,-189
49039,261,339,175,129,-18,36,127,351,-97,-191,206,-205,137,-81,138,24,-82,-89,-213,-121,-746,-28,-86,-248,-42,-68,12,-22,-93,14,-85,-238
49040,261,360,193,144,-14,15,132,365,-85,-191,199,-208,144,-66,149,15,-48,-45,-173,-123,-739,-88,-40,-196,-28,-42,6,39,-62,29,-77,-278
49041,267,359,185,127,-13,95,156,366,-73,-176,229,-173,170,-67,164,22,-12,-31,-163,-94,-714,-55,-2,-204,-18,-33,29,88,-28,61,-64,-226
49042,257,355,196,144,-6,96,139,385,-68,-168,230,-152,176,-69,163,32,16,-8,-155,-81,-714,-53,52,-189,0,-19,62,210,42,102,-26,-161
49043,257,343,188,156,-2,89,120,416,-62,-185,237,-131,213,-42,167,26,30,12,-131,-59,-688,-33,61,-185,21,-9,73,231,77,126,-2,-167
49044,270,359,189,164,-1,86,110,437,-44,-208,235,-113,237,-21,174,29,34,24,-106,-62,-716,-14,63,-162,27,-14,57,203,54,123,6,-183
49045,274,318,240,174,-22,89,113,437,-38,-206,239,-86,238,-24,167,17,28,12,-111,-72,-707,3,31,-161,11,-21,52,24,-29,31,-35,-221
49046,266,324,268,183,-16,92,178,452,-35,-189,271,-73,253,-18,191,42,56,29,-97,-72,-677,6,48,-149,15,-16,67,68,-11,77,-16,-155
49047,281,332,249,176,-28,81,172,452,-26,-172,272,-96,261,-3,184,75,87,45,-90,-58,-684,20,82,-130,30,-2,63,210,52,118,28,-131
49048,277,333,218,149,-30,97,156,425,-40,-176,223,-130,254,-16,164,58,59,23,-72,-60,-692,14,26,-139,43,-2,54,99,21,107,12,-168
49049,260,342,207,138,-28,85,165,410,-37,-188,227,-125,254,-2,178,65,62,40,-62,-57,-684,-7,54,-129,49,19,79,98,10,119,46,-140
49050,211,297,166,118,-44,62,162,392,-38,-187,244,-122,248,-28,179,87,57,43,-70,-56,-660,30,81,-97,61,50,113,184,56,152,121,-77
49051,177,289,205,138,-54,55,154,410,-30,-174,281,-80,277,-24,220,117,82,74,-30,-20,-611,91,102,-53,98,94,179,161,78,158,155,-27
49052,171,234,231,127,-67,32,143,444,-29,-190,270,-55,285,-15,228,120,116,108,-18,13,-591,127,146,-28,117,121,195,183,89,198,192,8
49053,123,169,171,88,-108,-11,106,427,-46,-203,200,-54,278,-20,180,95,121,118,-33,-14,-625,99,171,-28,110,111,180,222,116,195,182,4
49054,128,186,157,81,-97,-1,105,414,-53,-210,205,-50,275,-21,203,87,136,121,-29,-9,-621,121,199,-23,122,104,190,280,150,245,186,17
49055,161,201,195,105,-106,-26,104,429,-53,-216,192,-45,299,-12,201,66,164,126,-18,-16,-640,83,249,-15,118,109,186,444,225,286,203,8
49056,186,247,225,111,-95,3,150,447,-38,-207,217,-39,305,1,208,72,173,149,-14,-19,-636,62,295,32,130,118,197,591,311,345,210,4
49057,228,295,265,131,-75,16,171,453,-39,-197,236,-34,311,7,223,93,183,170,5,-9,-608,74,293,39,148,109,184,594,336,370,252,15
49058,243,278,223,124,-55,25,165,423,-44,-214,235,-57,311,-10,217,103,213,158,0,0,-617,82,274,37,155,122,187,506,265,351,249,3
49059,225,263,199,134,-33,29,170,418,-19,-186,241,-77,317,9,258,129,101,121,7,27,-609,80,156,12,152,123,180,156,116,267,195,-37
49060,151,195,125,94,-77,16,114,386,-58,-200,207,-131,279,-5,214,64,15,78,-24,-18,-646,19,72,-45,119,90,109,-19,61,217,150,-99
49061,126,143,116,105,-94,-15,12,394,-68,-203,179,-120,276,-3,184,26,24,72,-24,-23,-677,-6,84,-48,112,74,79,40,93,234,136,-114
49062,110,140,111,103,-105,-6,6,398,-59,-197,161,-138,286,13,185,5,8,71,-23,-3,-677,-21,67,-52,121,65,78,82,105,225,107,-136
49063,69,129,50,69,-127,-17,3,344,-66,-200,137,-163,272,20,174,-12,15,47,-46,-1,-693,-42,49,-71,132,64,76,40,66,198,87,-154
49064,75,117,79,72,-117,-60,9,347,-70,-203,136,-169,254,17,164,-22,-54,27,-36,-5,-715,-59,-17,-82,135,61,46,-103,-12,167,64,-160
49065,72,148,30,70,-107,-121,12,328,-59,-217,138,-186,247,12,154,-29,-78,14,-36,20,-703,-58,-49,-88,148,72,57,-137,-43,140,69,-163
49066,86,142,44,87,-137,-82,17,317,-69,-222,120,-182,232,21,152,-31,-78,0,-30,31,-691,-53,-39,-100,152,67,53,-75,-28,146,96,-170
49067,78,153,98,97,-129,-13,19,374,-61,-204,130,-153,254,38,178,-20,-57,30,-21,32,-650,-95,26,-71,167,96,73,0,6,184,112,-168
49068,67,146,84,89,-116,-23,34,354,-59,-200,148,-175,235,11,176,-23,-20,27,-34,37,-666,-89,78,-78,161,93,67,-47,-37,154,86,-165
49069,78,163,55,93,-96,5,68,336,-48,-162,185,-171,243,17,203,1,-21,37,-31,47,-662,-47,103,-76,149,102,69,-99,-64,127,55,-125
49070,69,162,24,79,-91,18,38,297,-62,-184,184,-216,235,8,196,5,-91,2,-44,31,-668,-90,44,-102,128,73,76,-9,-62,135,48,-141
49071,72,172,23,59,-93,1,42,279,-69,-202,150,-247,206,-20,188,-33,-143,-47,-88,9,-700,-114,-12,-134,86,50,17,4,-57,79,-8,-236
49072,51,167,-32,50,-90,5,38,245,-81,-199,153,-289,196,-11,180,-49,-194,-48,-97,0,-718,-117,-67,-131,89,41,-8,-2,-25,99,-34,-268
49073,49,185,-65,60,-107,17,33,252,-98,-192,141,-271,189,-18,157,-66,-188,-54,-88,2,-717,-137,-80,-132,78,36,-25,2,-24,121,-22,-250
49074,94,209,41,72,-83,28,23,302,-74,-194,141,-235,211,-5,163,-50,-148,-28,-94,-4,-718,-105,-93,-147,71,28,-17,-117,-129,2,-74,-272
49075,99,213,45,62,-84,18,36,285,-74,-188,159,-221,210,-2,172,-10,-104,-1,-71,-2,-693,-59,-62,-128,89,17,25,-44,-58,59,-49,-209
49076,82,187,33,61,-99,0,29,298,-88,-192,135,-230,208,-24,160,-24,-78,-7,-60,-7,-717,-53,-7,-122,84,13,31,45,25,97,-34,-182
49077,67,171,42,54,-97,-10,6,311,-96,-216,105,-236,225,-41,127,-57,-68,-5,-73,-44,-745,-65,24,-124,70,7,32,102,60,111,-29,-188
49078,75,175,47,71,-92,-17,-34,319,-79,-208,110,-211,226,-24,107,-65,-53,10,-78,-52,-732,-83,48,-122,60,-7,29,135,85,131,-3,-175
49079,79,191,26,82,-90,-21,-20,327,-71,-205,124,-206,218,-5,116,-60,-41,-1,-97,-34,-731,-81,52,-128,40,-26,14,133,63,106,2,-192
49080,73,202,34,68,-86,-23,-17,312,-75,-228,122,-228,199,-7,115,-74,-38,-15,-111,-40,-737,-71,55,-138,27,-18,38,140,51,122,18,-138
49081,63,185,14,68,-88,-17,-14,302,-74,-206,118,-234,195,-7,127,-48,-41,-19,-109,-40,-717,-66,35,-144,42,0,68,47,39,136,25,-78
49082,65,167,26,63,-99,-25,-6,307,-90,-203,107,-233,205,4,122,-25,-30,-15,-101,-35,-714,-50,51,-137,41,15,66,44,64,151,61,-87
49083,69,153,8,46,-110,-42,-24,304,-77,-235,88,-215,182,-14,114,-57,-14,-18,-110,-35,-730,-74,78,-139,28,2,42,72,67,146,11,-148
49084,83,180,5,57,-95,-52,-18,300,-75,-254,83,-221,178,-32,114,-60,-20,-8,-123,-55,-742,-76,105,-124,32,-9,51,190,110,168,32,-177
49085,106,212,41,105,-86,-16,23,315,-64,-214,127,-192,196,-5,134,-44,39,12,-96,-48,-732,-75,163,-73,49,1,72,375,193,221,80,-159
49086,108,237,39,126,-78,-15,6,336,-52,-207,140,-191,215,-28,131,-40,47,19,-93,-64,-720,-24,146,-97,39,5,69,303,184,213,86,-110
49087,149,246,60,117,-72,-31,-18,345,-51,-222,119,-156,209,-43,115,-28,62,17,-102,-80,-739,-6,118,-103,27,-15,93,236,126,190,84,-72
49088,145,260,30,109,-52,-43,9,335,-40,-247,125,-157,199,-41,107,-34,81,23,-112,-100,-751,-32,138,-89,39,-11,106,208,146,225,122,-66
49089,172,299,53,116,-42,-91,24,319,-54,-239,150,-182,205,-52,105,-12,49,14,-107,-97,-742,1,85,-107,28,-2,103,113,96,186,117,-81
49090,191,261,90,124,-20,-6,39,340,-45,-226,154,-173,216,-46,109,-5,85,28,-101,-98,-748,10,118,-105,39,1,105,141,112,191,150,-60
49091,211,270,100,132,-10,6,42,337,-55,-222,143,-159,197,-49,121,-7,76,32,-98,-109,-755,6,128,-105,21,-5,110,184,107,234,163,-20
49092,191,272,68,122,-20,5,32,307,-78,-244,150,-158,180,-66,126,-3,60,30,-112,-99,-734,1,135,-74,21,-2,93,307,170,259,152,-63
49093,177,248,69,85,-49,21,40,303,-85,-233,145,-168,168,-85,114,-21,94,34,-124,-103,-736,11,190,-76,23,-7,81,455,208,248,107,-107
49094,166,248,84,74,-43,16,31,301,-82,-236,153,-154,167,-65,128,-2,106,61,-127,-103,-728,34,157,-85,37,11,123,375,194,249,119,-57
49095,145,241,53,61,-47,25,45,264,-91,-208,169,-172,163,-45,141,13,94,52,-115,-91,-729,31,167,-74,45,3,131,334,207,273,118,-54
49096,126,225,35,29,-61,7,59,254,-96,-220,144,-207,152,-54,131,-8,25,-5,-147,-106,-758,8,96,-117,8,-22,78,115,108,222,96,-82
49097,115,212,6,18,-77,-29,28,229,-122,-244,123,-235,122,-69,95,-13,5,-19,-165,-109,-779,-23,68,-139,-8,-32,48,106,63,189,60,-99
49098,109,164,16,29,-106,-37,12,232,-134,-252,82,-260,120,-79,65,-51,0,-43,-190,-149,-806,-61,46,-170,-42,-81,-13,123,36,152,-3,-186
49099,146,153,61,27,-87,-45,-48,247,-128,-260,47,-230,143,-58,58,-119,10,-34,-177,-165,-846,-118,59,-193,-43,-101,-74,151,20,99,-69,-280
49100,129,176,40,28,-95,-56,-63,229,-121,-256,39,-237,131,-57,78,-142,-17,-48,-173,-146,-847,-134,9,-211,-57,-100,-91,25,-44,28,-120,-297
49101,178,215,110,61,-80,-45,-23,271,-113,-239,60,-229,151,-57,103,-115,-48,-45,-153,-117,-820,-152,13,-200,-51,-116,-103,33,-63,3,-174,-335
49102,188,245,166,78,-52,-20,14,322,-89,-215,110,-173,194,-40,137,-56,47,10,-121,-76,-790,-119,105,-138,3,-89,-94,257,48,54,-121,-299
49103,171,240,69,56,-80,-1,40,298,-84,-218,146,-208,196,-25,147,-21,107,29,-89,-57,-750,-51,185,-84,59,-41,-52,474,165,154,-61,-218
49104,214,255,172,102,-62,1,27,383,-54,-229,138,-143,230,-8,154,-37,124,72,-47,-46,-750,-48,207,-61,76,-41,-55,425,129,133,-90,-257
