,Fp1,Fp2,F7,F3,Fz,F4,F8,FC5,FC1,FC2,FC6,T7,C3,Cz,C4,T8,TP9,CP5,CP1,CP2,CP6,TP10,P7,P3,Pz,P4,P8,PO9,O1,Oz,O2,PO10
201343,169,489,409,230,85,615,97,486,221,183,163,-48,291,93,136,236,350,151,108,154,8,82,397,309,380,345,282,90,423,202,249,169
201344,149,461,399,227,88,594,69,482,222,164,148,-26,308,84,136,225,373,166,126,168,8,71,418,340,389,359,292,163,475,290,327,191
201345,181,484,420,244,103,621,86,507,234,173,153,12,311,85,146,233,431,218,134,153,6,66,460,374,385,357,286,259,513,312,286,102
201346,208,528,419,250,89,646,128,505,238,200,188,4,320,92,150,276,427,206,131,171,41,106,475,365,386,369,343,264,521,312,321,177
201347,203,549,422,247,99,655,161,498,232,194,207,2,308,90,163,299,406,188,107,168,53,102,456,339,368,363,326,182,502,286,321,67
201348,213,531,432,235,90,652,154,509,226,205,213,26,298,84,173,308,389,201,131,182,57,135,466,376,390,382,323,170,529,335,340,21
201349,189,502,439,215,80,637,149,508,226,212,209,26,321,102,176,328,416,224,154,206,73,157,518,388,397,405,364,242,549,341,346,102
201350,178,494,458,221,99,629,135,515,224,219,215,55,322,112,176,323,425,223,159,201,82,129,503,389,397,405,362,194,488,274,312,159
201351,196,457,448,208,87,638,138,506,219,193,204,46,295,95,176,318,421,189,125,194,76,152,434,338,392,366,367,-51,365,187,271,204
201352,200,479,472,218,104,635,146,507,224,187,198,56,311,90,181,330,426,173,115,197,62,163,402,312,381,351,346,-167,273,119,226,125
201353,237,498,502,243,108,638,176,550,240,210,228,76,317,93,188,340,444,211,132,193,59,136,475,375,390,385,361,31,392,206,244,99
201354,232,491,476,239,91,606,170,542,236,202,214,82,340,110,195,337,430,230,151,211,84,124,507,411,424,426,403,189,556,347,388,228
201355,216,469,444,234,87,586,137,539,250,214,207,81,342,111,208,357,403,240,177,238,115,185,555,451,470,471,478,275,659,470,476,428
201356,189,486,453,218,91,598,106,515,231,194,207,78,300,87,201,343,415,226,156,218,96,170,511,417,433,427,449,194,558,340,364,358
201357,197,496,453,204,80,603,113,507,232,191,178,72,288,85,165,332,437,212,126,170,53,166,473,356,393,367,366,65,392,148,197,31
201358,166,451,395,190,67,593,62,501,225,197,174,61,311,88,161,312,484,216,138,180,32,176,484,339,387,364,343,43,341,95,134,-75
201359,85,364,315,157,50,552,-40,464,206,189,125,40,300,101,162,313,452,209,149,207,60,176,491,366,392,402,401,129,397,197,281,73
201360,56,310,319,165,37,537,-64,460,236,186,117,61,313,109,180,327,471,204,146,222,79,187,461,362,407,402,411,67,346,178,260,76
201361,81,294,353,196,50,531,-37,484,223,185,127,64,303,87,182,325,498,186,131,200,75,179,442,341,370,385,385,39,329,102,181,6
201362,162,376,412,219,70,577,60,490,215,182,167,38,285,80,172,346,489,178,121,188,62,181,465,339,352,366,379,152,375,125,176,14
201363,268,536,473,233,78,625,166,491,220,171,195,12,270,49,154,357,452,162,82,149,30,175,443,303,321,334,373,160,378,140,212,75
201364,342,642,508,221,105,658,220,501,212,184,212,0,257,52,154,355,428,140,66,130,42,160,394,283,303,354,382,63,346,149,261,149
201365,274,581,409,192,84,639,190,464,198,171,216,-32,248,59,154,364,378,152,83,149,55,155,390,288,335,388,420,15,360,210,325,261
201366,228,523,378,192,82,613,164,462,229,193,216,-26,285,70,179,369,379,181,127,194,94,154,404,328,381,426,441,42,424,268,395,297
201367,242,567,421,190,75,614,171,471,223,187,220,-13,296,82,178,348,358,160,119,175,88,117,398,317,351,395,405,66,421,235,323,214
201368,281,590,464,196,81,626,172,475,225,182,215,-4,286,69,170,361,318,170,91,160,71,112,398,296,338,375,407,62,399,207,315,246
201369,305,602,517,220,94,639,184,499,232,194,221,-7,273,69,185,366,314,133,81,156,83,139,343,260,324,379,427,-56,304,153,322,352
201370,302,593,524,211,82,617,157,500,215,195,222,-25,235,61,163,355,335,107,63,136,64,140,316,210,286,340,400,-106,265,114,280,290
201371,331,611,563,230,95,648,184,512,216,182,231,0,245,45,151,360,382,99,24,109,17,126,284,204,244,271,311,-140,230,22,108,-8
201372,335,641,553,225,113,641,195,516,204,183,219,-10,237,37,134,330,372,94,17,87,-2,72,322,199,237,238,227,-10,264,3,25,-244
201373,357,655,562,240,124,652,206,501,204,180,215,-21,222,45,138,291,330,80,13,94,-22,54,330,207,265,242,231,73,327,87,89,-135
201374,354,670,561,236,116,658,203,477,213,197,221,-34,228,45,126,304,309,75,30,89,-18,54,317,215,253,266,228,27,321,113,110,-72
201375,323,633,510,210,98,632,159,454,193,198,200,-77,217,34,117,287,266,65,17,83,-35,21,283,202,235,257,207,-35,287,101,139,-98
201376,291,584,491,215,99,624,103,447,213,186,167,-78,211,58,111,261,269,63,18,92,-36,3,292,207,233,245,189,-57,294,85,117,-131
201377,286,571,458,194,92,616,107,423,208,193,169,-123,211,50,119,272,277,75,55,121,-21,28,294,219,267,285,252,-10,371,167,205,-10
201378,297,551,446,187,86,615,107,422,199,192,170,-109,223,56,142,249,271,62,64,137,-13,-15,309,215,296,317,267,46,401,201,250,22
201379,261,527,422,181,68,601,74,430,198,173,164,-94,212,50,127,235,266,31,45,133,-16,-85,304,213,294,313,232,65,420,233,238,-22
201380,256,514,412,177,69,594,98,405,199,165,167,-140,194,48,114,240,250,17,27,101,-28,-61,266,192,255,300,196,-16,321,123,168,-60
201381,295,528,408,194,84,603,112,404,186,177,186,-131,191,47,143,234,258,8,22,92,-32,-51,240,159,245,279,167,-81,227,25,80,-101
201382,299,552,415,213,103,625,132,381,209,179,201,-127,198,57,140,234,257,11,20,111,-14,-37,256,173,267,290,201,-97,259,65,107,-55
201383,300,562,408,209,113,629,144,364,191,180,187,-166,177,39,117,198,265,-8,10,114,-46,-52,275,171,244,268,168,-41,253,69,96,-70
201384,275,531,388,215,112,596,29,371,189,161,128,-149,185,40,115,143,256,21,24,115,-65,-88,302,204,253,272,170,154,376,184,175,-50
201385,251,541,385,220,106,608,45,387,215,171,155,-135,194,69,120,165,274,43,49,138,-43,-57,338,222,297,299,225,175,420,235,257,131
201386,272,532,411,211,92,599,97,410,207,169,156,-148,153,44,117,164,282,7,17,123,-44,-31,274,178,260,291,212,-39,315,160,229,198
201387,303,552,419,229,103,600,119,425,218,164,184,-121,169,27,141,205,310,13,32,123,-27,10,270,185,264,315,248,-110,287,176,270,222
201388,289,554,430,254,112,599,113,434,216,167,184,-95,196,55,146,213,322,48,36,127,-18,50,276,202,268,315,261,-83,297,152,221,227
201389,264,517,393,254,89,608,96,431,208,148,152,-103,206,42,110,212,328,47,31,120,-26,31,281,213,285,312,234,17,345,159,198,187
201390,295,517,422,269,107,616,120,467,244,156,179,-88,239,47,127,226,357,80,60,141,-13,76,318,229,299,324,250,65,359,183,231,162
201391,303,529,447,270,105,617,120,478,231,155,164,-110,237,43,128,215,333,79,61,127,-18,76,314,234,303,336,266,35,369,223,273,149
201392,325,560,475,281,117,625,141,503,234,163,184,-76,241,54,149,249,369,95,71,158,-1,44,310,244,308,341,258,-3,354,232,273,50
201393,322,593,517,289,131,628,184,520,243,161,207,-56,227,49,149,265,399,77,49,149,0,93,298,215,282,324,248,-47,262,114,210,61
201394,367,622,550,309,144,647,215,540,252,169,221,-5,267,48,161,265,413,85,66,143,12,128,337,220,290,313,283,-2,264,96,166,121
201395,348,630,531,297,138,652,226,530,240,166,222,18,252,30,155,256,365,88,52,145,-3,92,359,217,264,281,247,23,275,76,101,68
201396,352,632,535,304,136,672,210,518,238,165,233,20,270,56,163,291,399,125,60,153,24,87,385,241,284,347,315,71,353,175,258,240
201397,385,623,563,313,147,677,218,527,241,179,244,19,295,54,185,317,420,137,81,186,54,120,418,284,327,390,379,103,432,275,365,335
201398,330,605,507,288,117,645,235,512,223,162,242,-1,283,55,159,291,420,148,99,172,18,109,433,301,329,369,339,181,464,317,358,141
201399,345,616,512,286,118,636,234,517,226,171,242,15,279,57,167,311,446,163,98,176,16,122,440,293,332,359,290,171,418,245,286,-5
201400,320,599,499,277,114,654,223,506,243,182,254,16,292,70,184,328,456,157,100,170,43,111,455,309,341,363,315,200,404,197,254,46
201401,317,636,494,283,117,670,249,496,233,186,247,8,278,75,171,333,444,115,104,172,35,135,430,314,348,377,341,109,360,168,265,84
201402,322,640,484,273,118,661,225,496,225,182,238,19,253,64,148,303,477,139,110,166,-6,89,451,323,339,359,276,151,384,177,228,-12
201403,295,579,450,265,114,649,196,456,226,178,221,-10,248,65,152,277,444,113,120,169,-8,65,404,302,335,367,308,65,360,185,268,114
201404,293,562,437,252,100,635,187,432,212,160,220,-37,235,53,146,250,391,65,90,152,10,77,331,269,308,364,331,-153,250,109,243,206
201405,276,567,422,243,112,625,193,453,218,159,216,-30,235,58,157,254,423,104,94,167,27,93,364,282,322,389,355,-115,288,172,302,258
201406,288,583,423,240,107,615,193,458,225,173,211,-16,272,78,131,242,431,139,131,176,10,74,433,329,349,398,348,53,400,252,318,188
201407,303,603,414,233,107,625,187,457,230,170,218,-17,268,71,136,241,422,147,131,176,11,49,459,349,356,402,343,71,456,287,360,193
201408,289,589,414,229,105,612,186,460,213,146,197,-22,258,69,140,245,442,135,123,190,26,66,461,356,363,412,338,83,440,287,361,232
201409,301,578,448,234,108,607,185,438,243,144,197,-18,267,61,130,247,453,137,113,168,6,100,428,319,334,362,307,24,332,160,219,96
201410,302,568,433,242,109,626,166,455,256,153,206,-26,283,83,146,265,467,136,141,184,9,135,440,309,342,382,333,40,311,133,226,95
201411,253,553,413,246,108,590,138,462,252,138,173,-60,277,86,127,239,446,127,148,187,10,106,414,327,350,407,354,94,387,215,322,202
201412,226,505,399,204,85,555,98,427,233,133,139,-73,258,72,114,212,406,123,138,173,25,96,396,315,354,409,368,138,452,294,377,296
201413,256,513,400,206,95,561,105,427,253,166,163,-51,289,92,122,236,420,129,148,183,50,97,439,348,370,439,397,210,489,341,439,306
201414,252,510,398,212,86,561,93,437,259,146,138,-46,288,86,105,199,435,142,149,185,-8,51,435,350,357,408,327,236,517,341,405,63
201415,244,514,425,220,85,569,99,442,256,139,131,-50,289,97,107,192,438,146,157,189,12,52,466,344,363,413,302,279,571,404,421,-123
201416,246,514,435,217,86,563,78,452,260,135,132,-38,307,83,116,222,448,149,158,167,21,54,475,360,373,403,300,249,549,379,373,-51
201417,233,521,440,217,77,579,113,459,239,145,140,-44,297,79,134,241,440,126,135,167,21,82,407,317,357,391,327,85,403,241,307,-4
201418,246,527,447,229,90,601,142,478,253,150,150,-16,302,86,133,267,464,135,147,165,40,131,398,292,345,378,348,54,367,190,278,18
201419,245,539,447,221,87,591,141,473,265,134,162,-15,300,81,124,268,471,149,130,168,34,132,419,307,346,374,336,162,456,239,272,4
201420,264,579,473,239,81,594,144,480,261,144,164,-20,312,91,138,259,455,156,156,182,40,131,448,345,360,413,374,262,511,318,366,183
201421,252,538,462,222,77,564,132,501,239,141,148,-11,320,84,128,257,449,158,154,175,24,121,454,345,339,390,352,305,491,286,331,135
201422,253,504,464,231,89,554,84,484,237,143,119,-36,303,74,93,240,433,142,151,138,0,99,425,325,345,358,314,255,440,258,320,-19
201423,222,503,455,231,95,564,86,481,247,155,122,-38,286,88,97,228,438,133,136,150,-6,88,398,303,336,359,309,158,424,244,333,3
201424,204,501,396,218,110,588,95,464,243,166,136,-57,281,96,114,210,444,94,138,148,-6,102,350,268,319,338,330,8,345,208,322,139
201425,182,470,363,206,97,577,89,422,223,163,122,-89,260,85,101,199,374,60,109,137,-27,60,278,247,293,329,337,-103,300,221,334,237
201426,178,452,361,205,87,548,36,418,220,152,108,-94,260,98,85,202,346,55,98,136,-53,15,289,265,311,335,339,15,409,314,423,265
201427,146,428,347,177,60,531,20,397,207,134,94,-102,257,70,75,155,327,56,110,124,-73,19,305,267,303,313,294,71,425,295,356,145
201428,189,476,395,191,62,569,59,443,210,140,106,-84,274,87,97,160,326,74,128,127,-83,27,310,268,292,300,269,45,418,259,281,-19
201429,205,503,405,189,71,574,70,437,222,157,116,-104,259,76,101,161,309,63,106,119,-67,51,276,243,286,268,253,20,360,189,207,-58
201430,202,499,380,174,66,571,48,433,223,154,148,-128,240,69,129,162,297,42,112,132,-62,36,266,237,275,290,282,36,346,167,230,111
201431,154,451,346,162,56,547,31,391,216,166,127,-162,217,75,130,177,267,16,109,137,-56,13,225,206,283,317,319,-25,290,147,298,291
201432,146,428,344,156,76,562,29,372,222,192,129,-196,237,93,156,176,284,23,129,168,-1,34,218,245,319,359,359,4,364,277,386,339
201433,167,437,350,171,71,539,44,402,216,178,136,-193,248,74,141,165,289,3,118,142,-42,-17,210,231,281,321,251,25,337,242,305,53
201434,190,442,375,165,60,538,31,400,203,170,129,-185,224,54,89,157,275,-1,90,98,-94,-30,209,189,256,259,183,-19,277,105,174,-152
201435,213,452,402,192,64,544,29,421,196,170,120,-151,232,56,87,163,312,29,69,101,-99,-33,257,211,264,253,180,1,271,98,161,-146
201436,202,465,412,189,41,551,35,426,206,153,123,-127,230,55,101,173,325,0,73,115,-88,-22,253,210,253,259,182,-53,228,93,201,-65
201437,213,480,437,196,75,587,66,431,234,166,168,-96,225,73,128,201,338,18,93,127,-49,17,264,213,260,286,224,-141,255,104,201,-46
201438,190,484,419,180,63,579,76,398,217,157,169,-88,217,85,111,195,287,42,84,112,-37,4,263,218,265,306,239,-117,299,146,217,-48
201439,213,473,405,168,47,577,84,402,214,168,157,-89,235,76,102,186,269,60,94,143,-21,20,293,245,290,309,258,-16,351,217,263,-1
201440,226,489,415,177,48,573,80,396,224,169,145,-71,251,75,101,169,300,78,108,154,-22,9,311,271,317,317,269,47,403,251,304,74
201441,212,465,394,166,60,563,41,369,209,156,107,-96,252,72,99,182,309,52,110,135,-22,15,284,263,310,326,297,-68,351,237,349,186
201442,226,486,393,172,74,569,54,401,231,171,127,-87,258,75,85,190,331,66,112,158,-6,40,295,270,316,347,319,-42,330,221,340,193
201443,212,477,400,184,69,566,51,418,228,168,138,-99,277,86,93,215,338,92,120,153,-8,31,315,290,312,358,341,18,393,290,390,181
201444,196,459,380,186,61,569,55,402,227,146,121,-114,269,74,104,208,317,83,131,162,-11,28,301,298,320,351,348,-15,418,338,454,223
201445,188,469,371,182,59,560,64,400,219,137,151,-138,255,63,96,189,311,74,118,145,-15,19,305,288,311,340,332,7,449,313,399,189
201446,192,487,397,195,65,565,81,419,226,157,145,-101,256,84,91,182,379,84,114,125,-22,48,312,274,282,310,291,28,363,182,214,56
201447,192,483,408,191,67,550,77,432,243,162,164,-82,267,79,98,201,392,94,129,132,-22,71,320,268,279,268,230,37,304,77,99,-108
201448,206,470,413,159,50,548,56,410,231,160,136,-98,245,56,92,201,369,89,98,129,-39,54,320,262,273,277,263,0,278,82,160,-6
201449,187,438,417,151,29,544,40,398,196,148,112,-102,242,66,71,198,361,60,82,115,-55,29,312,247,263,278,268,-30,244,74,164,21
201450,195,421,418,164,26,526,41,412,203,170,134,-94,261,84,95,204,391,74,100,138,-30,36,355,273,291,317,301,13,305,109,208,87
201451,198,391,410,164,19,523,20,417,229,162,121,-69,269,78,104,189,402,104,118,145,-7,53,395,307,308,330,330,133,383,176,249,116
201452,210,427,416,183,42,534,44,440,244,161,120,-60,274,89,91,209,412,100,124,148,14,83,379,308,301,339,368,66,375,191,301,184
201453,194,428,395,160,36,523,47,435,239,159,113,-81,263,80,78,189,435,108,111,126,0,104,348,276,306,329,358,13,356,184,261,131
201454,186,446,401,163,48,526,43,432,240,144,102,-66,258,81,87,192,442,124,130,125,1,76,412,322,321,338,366,125,433,268,316,195
201455,206,460,392,178,43,510,47,421,240,128,95,-49,266,98,80,203,421,143,140,134,21,67,446,347,340,381,422,215,497,327,425,383
201456,182,433,377,165,44,501,37,405,238,144,92,-47,263,93,78,211,426,150,149,165,63,100,454,369,346,411,506,196,535,361,497,615
201457,161,402,342,138,29,499,6,378,202,146,67,-82,261,88,87,206,406,129,139,162,54,119,455,371,351,397,519,132,507,376,530,714
201458,135,419,307,130,15,505,20,362,209,148,71,-77,275,101,107,192,416,145,162,173,58,142,495,395,390,402,470,207,549,420,514,413
201459,131,416,302,144,36,514,3,373,217,150,75,-82,252,98,95,179,412,146,179,190,36,120,509,412,395,398,416,367,633,463,516,145
201460,160,440,342,154,24,524,8,384,205,132,71,-71,246,101,71,157,457,167,176,164,-30,60,541,420,372,349,312,513,674,428,357,-136
201461,184,464,384,177,29,536,56,392,217,149,79,-42,262,96,61,162,516,161,155,154,-22,83,553,385,343,308,249,455,565,221,157,-289
201462,178,425,379,154,35,528,18,379,198,136,57,-81,218,86,54,165,459,68,99,125,-23,126,415,287,299,299,276,82,315,54,111,-196
201463,173,422,377,167,32,498,-13,376,205,123,37,-84,185,71,64,160,436,56,85,124,-1,148,364,259,279,311,310,-15,297,107,200,-72
201464,165,408,386,172,30,483,-2,355,202,116,43,-81,210,67,46,174,417,54,68,120,-17,151,349,255,271,288,294,-3,275,102,198,-30
201465,179,423,377,178,64,516,8,373,221,130,64,-85,221,68,46,176,445,81,95,118,-6,117,369,276,304,295,281,68,344,146,219,-28
201466,178,429,375,204,73,509,20,403,214,127,58,-96,238,71,52,168,478,101,132,132,-35,78,419,323,307,293,296,213,452,256,281,17
201467,186,408,375,196,71,519,15,400,215,129,67,-99,248,78,77,150,458,92,128,154,-20,93,396,330,321,328,330,169,484,321,366,135
201468,203,403,379,191,61,532,4,401,218,140,75,-115,245,85,82,162,453,96,127,167,-8,118,410,329,357,364,363,160,516,365,469,288
201469,200,409,399,196,92,532,0,407,237,148,78,-81,238,95,88,156,457,109,142,183,14,111,402,331,341,377,393,98,471,382,497,373
201470,180,389,369,179,65,534,-13,398,239,170,96,-103,248,75,87,141,450,111,132,166,-31,113,386,318,331,345,346,80,448,306,395,265
201471,181,397,369,165,56,549,51,382,210,180,109,-103,243,63,67,136,420,82,97,147,-55,68,367,291,281,256,239,101,367,108,175,66
201472,181,392,362,171,68,547,76,386,208,166,127,-86,243,76,67,149,420,83,107,119,-81,39,389,295,255,214,188,180,362,73,47,-66
201473,177,411,376,157,34,512,1,362,204,147,66,-89,214,54,50,128,435,84,95,88,-133,11,385,269,239,179,142,187,318,40,44,-135
201474,175,409,368,165,43,512,-15,366,205,158,65,-96,206,59,41,136,434,58,83,120,-117,37,341,250,258,230,191,40,314,94,155,-55
201475,171,377,338,155,43,521,-12,357,200,135,75,-146,201,54,39,113,425,39,87,106,-97,40,312,225,263,238,214,-36,310,128,168,-17
201476,138,348,294,127,28,511,-25,321,189,123,29,-157,199,53,23,109,415,-2,58,94,-105,13,254,187,251,232,211,-58,289,103,171,-17
201477,123,341,297,138,37,528,-30,319,208,141,56,-152,196,78,39,116,402,3,83,112,-83,-22,284,201,279,257,231,-19,341,150,228,68
201478,120,355,317,154,57,533,-7,345,211,150,72,-167,191,55,58,148,363,4,65,89,-97,27,283,194,252,232,220,0,297,103,175,33
201479,143,360,318,162,55,531,4,335,197,148,94,-164,172,45,45,156,354,-11,39,103,-91,42,250,156,246,234,235,-19,241,40,148,43
201480,123,383,303,142,39,530,0,318,193,155,96,-157,142,43,44,145,335,-11,43,105,-60,19,251,169,242,243,260,-43,272,102,229,150
201481,133,398,326,155,44,540,15,337,205,159,103,-139,163,62,52,160,344,6,58,109,-60,19,267,200,239,258,250,-27,283,114,231,98
201482,155,421,310,168,53,544,39,343,193,139,119,-146,162,49,59,179,354,0,42,98,-44,41,265,190,231,259,264,24,297,128,224,95
201483,167,426,314,171,57,561,50,318,190,151,140,-163,151,35,61,207,351,-20,37,102,-43,46,257,191,241,273,280,45,329,135,247,109
201484,190,432,345,188,69,578,60,328,206,150,139,-164,167,49,74,231,371,6,72,119,-1,44,285,216,274,310,337,69,363,169,286,163
201485,195,443,367,195,80,574,60,361,219,134,135,-167,179,57,78,191,386,10,71,124,-3,64,318,217,292,317,331,92,389,221,301,181
201486,186,429,345,193,73,546,59,355,214,156,141,-153,189,61,70,215,355,11,92,137,8,59,320,233,311,345,365,139,438,306,400,268
201487,182,408,357,202,65,556,60,346,212,136,141,-186,182,55,73,225,349,25,87,138,17,77,306,242,312,344,363,156,425,287,364,202
201488,191,410,362,200,66,558,70,345,209,135,143,-171,190,53,72,217,402,37,99,138,18,79,329,264,317,356,369,218,461,318,370,200
201489,200,459,370,209,76,577,80,357,216,129,152,-150,196,50,63,217,406,15,101,140,22,47,322,260,308,362,363,182,428,276,384,211
201490,218,477,396,210,79,586,83,386,232,142,164,-128,207,59,85,224,364,21,103,149,30,73,307,252,327,384,390,58,358,241,417,316
201491,206,436,368,217,69,578,72,381,228,148,141,-123,222,69,67,215,351,51,121,166,20,75,329,272,336,393,401,44,406,342,502,395
201492,204,427,350,215,65,578,48,362,208,130,122,-147,215,48,51,190,326,36,123,151,4,38,301,268,334,383,380,85,429,369,546,351
