,Fp1,Fp2,F7,F3,Fz,F4,F8,FC5,FC1,FC2,FC6,T7,C3,Cz,C4,T8,TP9,CP5,CP1,CP2,CP6,TP10,P7,P3,Pz,P4,P8,PO9,O1,Oz,O2,PO10
5470,304,452,-76,-76,-51,287,248,155,-236,-102,97,-443,225,-134,142,-52,-325,-154,-110,177,-146,376,-23,50,0,112,50,-399,-35,-109,-177,-254
5471,299,455,-103,-25,-37,331,256,214,-191,-54,142,-410,285,-72,198,-1,-312,-106,-61,208,-109,368,-5,89,34,145,96,-339,6,-47,-112,-108
5472,371,488,-21,24,-42,384,307,286,-119,-3,205,-335,366,-6,274,39,-196,-17,1,251,-82,394,43,169,109,188,100,-233,63,6,-60,-49
5473,424,557,54,110,-40,473,368,342,-56,80,273,-305,425,68,334,75,-176,23,79,313,-30,437,92,234,171,252,151,-191,116,54,-28,-60
5474,434,560,75,143,-53,501,384,376,-12,135,299,-274,463,137,390,157,-130,71,129,371,32,478,168,293,222,304,217,-113,213,132,59,38
5475,441,581,59,143,-50,522,386,393,9,158,297,-228,506,142,404,232,-85,104,161,397,67,526,229,342,242,338,245,58,299,149,80,57
5476,404,557,32,128,-44,496,375,342,6,135,277,-295,485,122,402,215,-83,65,128,377,64,524,171,299,200,305,277,-20,222,104,26,-35
5477,313,460,-29,69,-36,408,273,261,-94,45,241,-395,373,38,339,105,-246,-56,28,279,-31,409,13,155,65,190,137,-357,26,-91,-198,-214
5478,230,384,-120,-6,-40,334,122,180,-170,-57,146,-499,285,-74,227,48,-399,-172,-89,176,-134,316,-134,32,-28,108,47,-521,-97,-190,-260,-218
5479,182,319,-175,-50,-37,277,43,108,-221,-112,90,-550,245,-156,162,2,-403,-204,-160,120,-199,257,-110,-8,-103,44,-33,-371,-69,-213,-282,-282
5480,203,380,-161,-34,-23,276,22,143,-224,-96,138,-543,224,-149,177,38,-454,-205,-164,118,-175,201,-140,-20,-107,41,-70,-394,-90,-202,-262,-237
5481,238,408,-154,-10,-51,339,80,155,-198,-66,193,-489,259,-124,198,50,-450,-195,-135,144,-109,216,-151,23,-65,70,-28,-453,-139,-214,-255,-292
5482,327,453,-114,35,-50,413,215,229,-165,-3,238,-403,312,-74,270,43,-407,-138,-94,199,-66,318,-128,42,-12,132,49,-496,-112,-155,-196,-214
5483,397,522,-23,95,-43,444,283,338,-119,45,269,-314,381,-5,306,73,-326,-61,-37,239,-43,352,-61,119,34,173,117,-414,-50,-78,-125,-92
5484,405,559,62,136,-42,506,299,393,-50,99,308,-254,428,40,348,136,-213,-10,27,312,5,407,61,190,110,235,222,-241,60,14,-58,30
5485,373,548,104,138,-54,507,303,425,-33,112,304,-198,455,67,356,170,-179,55,77,333,26,501,152,244,149,276,272,-161,127,57,-5,7
5486,351,564,52,110,-62,489,323,393,-57,94,275,-215,434,71,314,174,-220,48,72,300,2,420,141,228,130,223,186,-231,87,19,-27,-60
5487,267,461,-57,27,-52,437,236,289,-127,19,221,-324,348,-12,237,115,-349,-60,-3,229,-85,294,-10,131,55,140,-1,-403,-34,-128,-169,-178
5488,202,436,-102,-37,-26,389,177,211,-195,-41,163,-476,270,-74,201,62,-406,-129,-71,158,-159,238,-131,62,-14,81,-96,-427,-110,-208,-262,-211
5489,143,386,-192,-152,-10,333,139,110,-257,-100,95,-601,180,-136,150,-96,-428,-218,-147,82,-240,169,-158,-20,-95,3,-135,-470,-173,-260,-344,-274
5490,188,357,-229,-143,-46,322,119,112,-247,-94,90,-510,182,-128,122,-154,-396,-191,-133,82,-263,152,-140,-5,-116,-26,-159,-440,-171,-249,-336,-332
5491,220,370,-211,-114,-40,348,60,136,-224,-64,85,-511,219,-93,126,-166,-403,-154,-128,109,-265,156,-120,25,-99,-11,-162,-393,-123,-234,-326,-426
5492,286,412,-138,-48,-45,407,113,221,-165,10,149,-465,280,-34,180,-66,-353,-87,-67,172,-191,249,-60,111,-28,32,-128,-340,-63,-189,-272,-423
5493,344,464,-14,57,-47,443,236,338,-72,46,195,-300,367,40,275,62,-299,-7,25,251,-90,303,38,198,79,141,0,-270,18,-56,-141,-224
5494,411,531,53,116,-30,503,338,399,-20,105,244,-201,451,95,324,52,-228,82,109,309,-56,424,100,263,146,207,85,-285,85,0,-63,-114
5495,461,592,77,151,-44,518,371,405,-4,109,289,-186,469,93,312,-14,-212,98,120,330,-51,419,84,281,143,207,96,-355,74,-7,-72,-121
5496,417,569,31,135,-68,471,330,421,-40,44,234,-217,437,33,279,-29,-155,68,71,280,-80,305,115,276,126,194,84,-261,95,13,-51,-133
5497,352,506,-42,83,-57,422,293,373,-81,11,220,-256,380,-17,214,-22,-141,24,22,226,-114,219,100,223,78,145,51,-267,55,-20,-99,-179
5498,287,454,-111,11,-39,336,226,267,-163,-73,135,-327,312,-94,153,-97,-378,-32,-47,140,-188,161,14,148,7,63,-19,-345,-2,-106,-195,-277
5499,236,408,-137,-25,-38,276,194,236,-230,-133,42,-351,257,-172,81,-112,-364,-79,-114,79,-233,100,-6,90,-44,27,-37,-317,-19,-132,-226,-304
5500,266,434,-96,-16,-37,283,207,254,-240,-133,49,-341,261,-182,82,-140,-264,-73,-117,70,-225,208,-2,98,-28,52,20,-388,-47,-90,-190,-212
5501,325,462,-35,7,-31,325,263,274,-193,-93,50,-288,288,-136,125,-91,-304,-40,-75,137,-161,338,9,135,35,128,107,-412,29,32,15,-19
5502,380,474,-12,50,-54,376,274,279,-159,-56,137,-338,296,-114,178,43,-239,-26,-33,180,-114,204,55,171,76,171,164,-299,97,119,133,100
5503,437,515,54,111,-50,457,364,309,-106,-4,246,-298,358,-46,235,187,-167,15,14,234,-53,432,128,235,125,224,216,-83,167,110,43,-12
5504,507,620,69,146,-30,539,424,353,-68,53,245,-189,408,16,276,244,-97,78,53,267,-38,542,213,282,152,193,116,24,165,9,-191,-304
5505,568,683,91,158,-37,549,319,355,-54,60,231,-191,396,20,301,208,-142,46,53,276,-55,521,151,244,139,185,66,-205,94,-1,-103,-203
5506,530,704,83,100,-46,527,230,283,-88,64,243,-272,345,-9,281,225,-263,-8,-2,242,-56,397,47,164,93,170,30,-427,4,-32,-113,-163
5507,472,640,7,20,-32,479,232,216,-164,0,188,-360,269,-72,229,155,-290,-92,-74,180,-127,376,-44,102,30,110,-14,-448,-50,-87,-177,-191
5508,371,532,-138,-49,-48,410,194,123,-253,-79,87,-444,189,-145,155,-7,-393,-182,-139,114,-215,276,-145,18,-38,44,-71,-461,-115,-173,-226,-220
5509,312,451,-236,-87,-30,343,109,78,-285,-109,116,-468,156,-185,102,-105,-529,-224,-195,47,-273,242,-191,-53,-109,-23,-137,-495,-174,-242,-330,-320
5510,299,388,-232,-96,-20,360,10,102,-274,-101,117,-439,175,-182,101,-102,-499,-221,-171,45,-296,274,-208,-56,-127,-46,-152,-547,-201,-278,-375,-354
5511,298,370,-220,-82,-44,386,144,137,-236,-81,113,-439,211,-131,135,-23,-370,-167,-159,80,-250,244,-104,4,-65,-21,-121,-457,-143,-233,-309,-298
5512,356,519,-163,-48,-35,416,361,127,-165,-22,193,-388,255,-51,219,44,-291,-102,-83,166,-136,370,1,76,-5,90,22,-370,-48,-130,-177,-126
5513,387,577,-111,21,-40,485,464,235,-102,53,254,-373,305,-4,304,146,-308,-84,-24,252,-29,467,-13,139,70,184,197,-309,49,-20,-81,-7
5514,471,702,-17,100,-52,549,452,315,-62,95,295,-307,374,37,353,224,-273,-55,14,281,-2,461,-62,167,103,193,176,-287,62,-40,-119,-183
5515,517,751,-5,115,-61,555,527,328,-63,109,343,-276,399,46,386,331,-172,6,51,307,51,427,53,224,122,236,183,-147,140,4,-93,-124
5516,458,711,-66,123,-46,528,547,316,-55,114,372,-255,389,57,386,326,-95,7,55,335,86,439,88,225,152,277,223,-199,142,48,-32,15
5517,333,614,-148,31,-39,467,480,212,-125,55,302,-365,304,-4,310,174,-204,-95,-14,267,21,472,-22,149,80,210,186,-353,31,-37,-89,-59
5518,268,454,-180,-73,-68,359,373,138,-217,-51,168,-470,215,-99,213,12,-310,-174,-103,168,-100,316,-96,75,-21,104,115,-375,-61,-132,-198,-205
5519,252,404,-186,-151,-46,289,348,14,-286,-103,116,-595,112,-161,144,-50,-424,-278,-179,87,-169,262,-212,-24,-100,29,5,-509,-138,-183,-263,-181
5520,277,439,-191,-125,-16,293,340,33,-274,-94,108,-607,136,-158,158,-45,-461,-287,-185,90,-167,288,-226,-53,-105,39,-4,-561,-156,-192,-265,-199
5521,287,433,-176,-95,-37,319,310,105,-241,-54,128,-477,168,-124,196,15,-385,-197,-161,127,-125,320,-124,13,-54,88,65,-400,-64,-125,-204,-202
5522,331,487,-112,-20,-28,401,377,152,-169,21,238,-438,226,-41,300,155,-368,-135,-82,216,-22,402,-39,84,41,174,157,-334,19,-13,-80,-34
5523,382,547,-73,23,-50,448,450,205,-107,74,298,-417,287,12,342,196,-283,-104,-17,290,20,363,7,138,94,229,183,-302,59,37,-43,-27
5524,458,603,-35,83,-34,484,517,252,-53,127,342,-303,339,68,393,257,-232,-37,24,343,85,412,29,190,152,296,262,-281,97,64,0,19
5525,487,597,-49,89,-35,495,493,245,-64,129,332,-269,348,74,418,294,-202,-12,45,348,81,452,56,211,151,303,254,-252,89,73,-10,-39
5526,412,523,-122,54,-55,467,439,214,-88,103,297,-332,327,37,356,286,-223,-49,18,325,41,391,65,193,129,254,215,-269,67,23,-65,-89
5527,313,436,-162,-12,-39,430,376,176,-136,40,231,-404,286,-17,299,279,-309,-107,-30,271,14,409,30,152,72,221,179,-343,2,-37,-108,-145
5528,186,387,-186,-81,-41,369,268,128,-199,-26,199,-419,206,-74,244,130,-311,-165,-98,200,-69,451,-72,79,1,157,160,-377,-51,-105,-205,-275
5529,147,308,-237,-133,-52,286,142,67,-286,-97,103,-435,153,-131,170,-83,-365,-223,-170,112,-152,388,-110,0,-77,86,88,-375,-86,-161,-283,-342
5530,219,329,-210,-87,-15,288,121,108,-252,-107,115,-430,194,-125,184,-25,-399,-170,-157,125,-160,363,-74,36,-67,87,17,-337,-59,-142,-248,-206
5531,272,377,-175,-85,-33,318,193,125,-231,-98,169,-439,217,-132,204,28,-328,-152,-139,137,-126,381,-74,46,-52,115,59,-322,-41,-123,-212,-161
5532,321,438,-114,-15,-33,383,284,188,-192,-17,251,-363,266,-66,287,181,-275,-89,-97,177,-64,304,-5,75,-29,146,100,-246,-38,-94,-173,-163
5533,355,504,-67,51,-47,453,393,262,-124,38,313,-276,320,-9,346,296,-220,-45,-51,224,-14,449,36,104,-9,172,130,-277,-27,-42,-142,-108
5534,393,550,-44,77,-63,463,475,285,-80,75,355,-323,344,7,346,332,-199,-47,-44,253,9,601,43,119,17,189,163,-276,-2,-37,-119,-20
5535,428,567,-28,87,-64,479,487,257,-47,107,358,-385,345,61,337,263,-157,-31,-8,273,60,679,87,151,37,218,255,-140,50,16,-74,20
5536,399,554,-61,78,-49,474,452,275,-60,82,319,-328,332,37,314,139,-159,-21,-15,234,10,667,103,149,22,188,241,-135,30,-30,-129,-57
5537,294,472,-136,17,-46,391,336,205,-109,-6,234,-387,275,-38,251,56,-327,-99,-90,143,-88,503,20,59,-37,107,155,-353,-59,-118,-204,-104
5538,188,429,-225,-69,-51,363,278,104,-205,-78,181,-459,207,-99,173,30,-449,-183,-155,86,-140,338,-85,-15,-112,38,40,-379,-95,-154,-241,-147
5539,97,360,-267,-129,-50,284,239,56,-256,-124,129,-501,147,-153,120,1,-428,-236,-204,38,-215,317,-156,-40,-172,-31,-65,-313,-120,-189,-329,-263
5540,117,296,-233,-116,-19,275,243,76,-239,-100,127,-488,186,-124,151,4,-359,-222,-161,77,-197,363,-130,-45,-125,0,-2,-353,-122,-188,-308,-269
5541,147,318,-248,-120,-26,311,290,102,-230,-81,154,-482,199,-88,198,34,-388,-218,-143,103,-148,263,-102,-18,-108,38,28,-434,-145,-183,-275,-240
5542,203,419,-172,-65,-23,378,370,178,-151,-9,244,-405,246,-6,272,194,-344,-161,-93,187,-39,416,-55,32,-21,136,175,-400,-132,-125,-213,-111
5543,247,477,-96,-13,-39,430,434,231,-91,57,287,-320,318,51,343,233,-235,-62,-24,268,9,504,28,94,43,218,235,-297,-19,-60,-101,-20
5544,285,473,-52,26,-62,417,470,288,-43,83,321,-288,374,80,376,226,-198,14,31,314,41,519,125,169,94,241,232,-219,78,45,15,107
5545,314,452,-49,36,-50,470,462,310,-30,111,290,-267,401,101,389,270,-217,43,51,336,61,512,158,212,124,262,198,-179,82,42,-49,-25
5546,293,458,-45,29,-64,476,395,297,-44,88,310,-258,390,75,363,247,-182,17,34,299,44,501,152,204,123,269,212,-169,58,2,-81,-118
5547,276,419,-87,6,-37,418,184,246,-99,48,277,-299,333,3,301,223,-228,-53,-33,237,-26,428,34,116,38,179,113,-284,-51,-51,-127,-54
5548,200,366,-173,-75,-19,337,139,175,-179,-38,217,-379,249,-72,256,119,-272,-168,-124,158,-119,281,-116,4,-75,65,-64,-446,-178,-180,-278,-176
5549,42,238,-292,-159,-50,270,80,68,-266,-110,117,-509,152,-159,161,-101,-337,-257,-216,73,-237,186,-170,-63,-151,-17,-82,-500,-246,-245,-328,-274
5550,41,214,-279,-145,-27,287,106,39,-240,-102,90,-512,192,-139,134,-89,-378,-198,-191,74,-219,216,-66,-33,-132,17,-46,-265,-126,-164,-285,-313
5551,92,270,-200,-83,-21,332,149,119,-204,-76,153,-445,237,-98,179,-30,-328,-154,-146,134,-143,358,-29,19,-63,60,-2,-206,-45,-94,-224,-295
5552,199,356,-142,-42,-52,395,216,144,-154,-14,212,-452,249,-71,232,-18,-346,-194,-139,177,-105,427,-175,-6,-69,98,82,-613,-184,-126,-162,-53
5553,242,439,-109,-22,-56,424,248,140,-135,27,255,-410,254,-39,270,91,-319,-183,-112,210,-51,484,-159,11,-39,142,218,-636,-146,-37,-22,167
5554,301,497,-57,61,-43,494,295,279,-99,74,331,-346,307,14,331,176,-301,-116,-73,248,-11,565,-54,93,17,175,278,-438,-36,64,22,157
5555,367,515,-52,106,-47,526,450,324,-58,92,335,-326,346,44,351,247,-306,-81,-56,244,-31,530,0,97,23,141,148,-364,-29,-31,-125,-129
5556,315,495,-51,66,-46,483,469,278,-76,66,332,-341,322,30,333,203,-279,-87,-76,211,-60,409,5,78,8,120,44,-362,-32,-86,-209,-294
5557,232,448,-152,15,-23,419,349,271,-117,40,295,-332,285,-5,306,171,-319,-99,-104,191,-96,430,10,58,-18,125,46,-325,-53,-51,-168,-195
5558,163,380,-224,-61,-28,368,125,212,-182,-14,203,-408,213,-70,234,111,-419,-162,-170,138,-141,418,-64,-16,-70,67,56,-540,-134,-112,-204,-166
5559,113,320,-287,-130,-46,289,51,92,-256,-73,82,-490,130,-114,166,75,-436,-214,-218,97,-176,310,-146,-47,-115,30,49,-567,-156,-157,-251,-215
5560,103,297,-279,-169,-27,288,120,88,-257,-79,207,-499,132,-111,189,-94,-523,-272,-203,100,-167,218,-257,-61,-108,48,8,-537,-169,-187,-288,-291
5561,140,349,-240,-151,-15,324,79,90,-210,-47,181,-460,198,-71,230,-21,-442,-211,-164,162,-130,110,-156,9,-39,98,40,-414,-85,-122,-237,-333
5562,188,396,-195,-85,-46,349,174,144,-142,4,154,-417,276,6,272,13,-334,-131,-74,239,-60,315,-13,118,60,194,112,-234,39,-17,-160,-299
5563,253,506,-133,-38,-57,393,317,163,-102,46,200,-370,307,52,327,67,-361,-93,-26,300,-7,385,12,156,112,260,175,-279,63,43,-78,-102
5564,325,518,-39,15,-62,442,379,227,-53,98,191,-259,371,92,353,141,-305,-25,32,336,24,309,38,194,155,312,263,-315,94,92,-32,-62
5565,360,480,-1,64,-48,441,368,271,-26,105,244,-312,398,120,364,209,-161,13,86,362,68,449,120,263,207,350,369,-145,180,150,11,-134
5566,322,469,-19,89,-14,471,366,279,-15,122,309,-385,401,125,378,207,-184,6,81,386,106,625,133,288,224,371,375,-145,197,173,74,-21
5567,207,400,-92,1,-25,425,318,247,-90,61,228,-357,353,49,329,131,-205,-38,8,303,37,554,47,207,161,291,233,-267,121,113,6,-57
5568,150,386,-132,-76,-25,331,285,159,-173,-23,181,-376,246,-48,254,85,-265,-146,-89,200,-58,433,-19,122,75,201,115,-296,48,19,-84,-97
5569,102,349,-231,-130,-29,238,242,88,-257,-105,95,-539,143,-129,153,-60,-419,-264,-208,101,-189,278,-119,7,-63,79,0,-395,-82,-105,-209,-255
5570,144,276,-253,-123,-36,258,261,86,-272,-101,112,-535,145,-164,156,-67,-413,-262,-223,91,-181,176,-107,-29,-94,46,-18,-459,-126,-149,-260,-298
5571,198,350,-189,-98,-31,317,300,84,-237,-64,124,-512,166,-153,185,38,-437,-229,-200,106,-172,115,-110,-14,-84,47,-29,-581,-169,-197,-306,-310
5572,233,391,-155,-50,-36,366,290,121,-186,-23,191,-495,195,-86,226,117,-456,-210,-146,162,-111,268,-153,22,-22,107,77,-522,-136,-161,-264,-304
5573,315,480,-90,25,-29,438,385,188,-107,59,296,-435,292,15,288,210,-308,-154,-79,230,-46,476,-130,69,38,187,173,-356,-43,-82,-198,-257
5574,373,574,-25,76,-54,492,470,220,-70,92,306,-358,328,36,309,253,-263,-109,-57,249,-10,580,-45,83,44,198,159,-335,-33,-55,-155,-112
5575,377,576,-29,79,-71,507,449,238,-83,80,347,-328,348,36,311,188,-231,-83,-56,220,-25,503,-21,88,46,179,137,-333,-25,-38,-144,-51
5576,399,545,1,63,-41,521,450,275,-86,70,355,-300,334,33,292,170,-216,-86,-56,216,-27,475,-3,72,21,178,216,-325,-42,-55,-130,-53
5577,349,507,-28,32,-26,456,366,240,-146,11,272,-331,287,-33,222,100,-234,-141,-110,156,-111,477,-23,32,-46,109,191,-322,-78,-129,-188,-175
5578,262,406,-103,-43,-14,363,293,187,-219,-66,202,-395,232,-120,135,27,-349,-201,-193,56,-203,426,-71,-52,-134,16,34,-364,-140,-224,-278,-188
5579,224,340,-121,-85,-2,286,244,151,-252,-145,121,-410,183,-168,52,-50,-411,-244,-251,-1,-282,372,-111,-121,-202,-54,-73,-410,-151,-240,-314,-188
5580,211,335,-114,-82,-15,293,278,166,-257,-137,109,-403,189,-162,61,-11,-366,-232,-253,-14,-282,269,-81,-93,-187,-58,-67,-346,-110,-210,-277,-172
5581,292,383,-60,-21,-18,339,271,246,-227,-84,155,-344,247,-117,143,105,-276,-167,-181,52,-200,421,-27,-34,-116,4,38,-268,-48,-131,-203,-131
5582,359,486,48,39,-35,378,320,303,-159,-36,270,-266,310,-66,224,230,-158,-65,-119,141,-76,605,81,53,-36,99,146,-178,15,-46,-79,-24
5583,431,567,144,91,-54,442,410,375,-90,37,345,-169,376,1,306,325,-95,-5,-41,226,34,731,137,122,33,196,248,-210,54,-13,-20,63
5584,440,592,207,171,-62,446,414,464,-34,64,286,-88,454,64,354,467,-26,61,24,294,93,762,240,188,86,269,320,-36,165,87,49,127
5585,485,601,245,197,-49,482,462,432,9,93,404,-59,492,95,405,565,49,108,64,333,148,750,304,248,113,308,373,150,257,164,85,144
5586,506,586,212,182,-53,465,484,447,-9,94,376,-57,476,64,379,431,22,72,37,300,103,696,214,194,84,253,323,-35,134,70,17,80
5587,439,535,125,137,-38,390,457,419,-62,13,259,-147,414,12,307,227,-48,0,-21,242,18,652,136,117,32,196,266,-156,34,27,-58,51
5588,343,504,26,51,-40,331,396,292,-122,-55,216,-339,281,-57,218,188,-182,-135,-123,177,-27,599,-21,-7,-76,122,221,-416,-126,-87,-122,45
5589,305,395,-20,-9,-30,247,288,238,-205,-140,113,-323,216,-150,117,120,-272,-178,-178,71,-130,451,-64,-88,-153,12,115,-427,-188,-181,-245,-152
5590,266,352,-70,-27,-32,223,245,235,-204,-126,106,-339,232,-141,97,101,-303,-171,-184,75,-148,405,-31,-49,-124,20,114,-328,-141,-164,-240,-281
5591,254,324,-64,-20,-45,265,249,241,-173,-96,163,-351,258,-83,146,69,-251,-151,-133,115,-122,419,0,-3,-84,70,92,-272,-81,-112,-170,-215
5592,292,364,-3,39,-51,322,299,300,-119,-55,194,-281,323,-24,198,130,-157,-65,-69,150,-81,405,52,52,-11,119,57,-260,-36,-46,-120,-122
5593,336,445,2,125,-39,418,248,403,-16,34,261,-204,408,57,273,80,-193,-12,16,229,-36,529,61,109,43,166,134,-407,-16,-41,-106,-87
5594,367,522,29,161,-30,442,295,398,28,76,289,-163,458,120,297,83,-141,34,79,263,-41,567,120,161,81,199,165,-349,59,-4,-57,-3
5595,395,500,76,142,-40,482,423,418,24,65,325,-184,453,118,281,145,-167,27,74,257,-35,567,100,154,71,172,144,-267,69,-13,-36,44
5596,365,471,68,106,-65,465,428,383,-8,38,296,-220,402,66,223,129,-237,-10,23,209,-62,424,44,120,37,117,132,-288,29,-52,-88,-27
5597,314,434,40,35,-46,395,379,281,-80,-16,194,-279,326,-3,157,86,-278,-60,-35,158,-117,280,2,71,-29,82,127,-343,-25,-75,-166,-84
5598,265,388,-19,-22,-56,304,298,209,-164,-83,97,-356,254,-79,99,63,-351,-138,-110,93,-153,393,-82,-4,-88,23,89,-510,-141,-189,-252,-273
5599,224,353,-107,-96,-37,234,228,158,-228,-134,54,-400,192,-111,70,-31,-406,-217,-175,43,-232,306,-109,-57,-143,-16,3,-571,-191,-224,-279,-253
5600,186,332,-130,-115,-35,209,221,155,-237,-140,5,-424,173,-115,40,-70,-390,-233,-177,38,-235,156,-116,-56,-140,-22,-21,-446,-156,-207,-291,-317
5601,205,373,-106,-52,-17,240,244,225,-179,-112,50,-380,227,-84,90,-54,-402,-174,-109,84,-196,176,-80,-6,-85,3,-47,-423,-109,-185,-300,-403
5602,233,398,-80,-12,-42,314,276,253,-133,-73,55,-404,274,-47,124,-36,-295,-143,-73,126,-181,120,-3,48,-31,31,-50,-289,-58,-132,-255,-347
5603,305,452,-9,48,-59,363,311,294,-73,9,116,-370,343,27,193,16,-246,-74,0,199,-134,189,95,135,52,118,-68,-24,98,-10,-150,-254
5604,372,496,15,98,-59,404,285,328,-30,78,173,-333,368,79,236,36,-279,-52,40,257,-89,338,80,171,92,178,0,-110,108,12,-86,-205
5605,398,500,39,133,-53,427,267,354,-5,118,209,-290,389,98,292,103,-285,-66,55,296,-41,381,40,159,112,208,86,-269,52,3,-49,-196
5606,337,443,-38,78,-45,431,213,299,-21,103,154,-335,361,71,296,104,-242,-66,28,287,-54,305,101,167,115,235,115,-102,144,77,15,-81
5607,258,376,-123,5,-46,381,133,188,-94,31,112,-435,270,-15,242,-28,-330,-154,-74,187,-141,189,5,74,4,122,8,-277,8,-58,-123,-193
5608,171,310,-189,-80,-41,334,103,93,-183,-28,96,-532,186,-71,196,-86,-445,-274,-179,126,-202,178,-205,-41,-77,52,-36,-487,-153,-180,-226,-257
5609,101,253,-293,-134,-41,251,78,18,-265,-102,44,-624,114,-139,117,-185,-530,-357,-248,46,-250,136,-264,-128,-142,-6,-136,-497,-205,-230,-253,-268
5610,98,210,-280,-156,-59,226,145,8,-291,-123,30,-596,97,-183,66,-161,-559,-356,-268,14,-273,150,-251,-133,-180,-38,-142,-481,-203,-243,-280,-285
5611,160,303,-159,-113,-72,279,236,107,-243,-96,132,-490,119,-140,105,-81,-518,-302,-250,34,-258,179,-209,-112,-179,-34,-106,-542,-247,-278,-322,-336
5612,193,439,-125,-64,-59,359,370,134,-209,-43,221,-506,158,-92,173,27,-404,-262,-204,82,-177,325,-120,-57,-115,39,19,-477,-158,-144,-124,-42
5613,284,457,-70,7,-53,421,431,192,-117,40,278,-444,261,-7,239,154,-289,-156,-100,192,-62,441,47,61,-4,162,202,-327,17,26,78,255
5614,316,459,-49,38,-71,440,438,257,-84,75,286,-359,322,26,256,215,-199,-102,-52,228,-46,406,92,85,37,177,213,-166,75,-3,-81,14
5615,354,502,6,52,-57,460,485,232,-77,87,315,-333,316,26,287,217,-142,-66,-40,218,-33,515,90,114,38,169,182,-27,95,-58,-205,-246
5616,392,507,25,69,-42,481,494,287,-65,103,344,-268,343,35,315,217,-111,-40,-31,240,20,583,126,149,62,214,236,-58,114,10,-87,-50
5617,370,509,12,55,-49,421,431,303,-121,46,267,-265,317,-21,258,184,-145,-56,-73,211,-19,491,101,97,22,171,230,-178,74,6,-65,57
5618,310,441,-24,-22,-60,343,369,230,-199,-37,233,-334,253,-88,194,151,-169,-95,-136,149,-74,461,74,70,-20,117,195,-108,88,6,-80,0
5619,290,401,-70,-70,-38,296,350,178,-245,-93,234,-367,212,-137,154,129,-192,-163,-185,118,-131,499,15,27,-88,55,159,-205,-18,-83,-143,-62
