,Fp1,Fp2,F7,F3,Fz,F4,F8,FC5,FC1,FC2,FC6,T7,C3,Cz,C4,T8,TP9,CP5,CP1,CP2,CP6,TP10,P7,P3,Pz,P4,P8,PO9,O1,Oz,O2,PO10
86024,310,378,512,-29,13,600,431,520,-47,304,548,162,419,145,371,550,378,-39,85,76,302,-467,333,29,80,465,496,286,386,189,261,87
86025,309,395,518,-35,13,609,444,502,-40,314,550,140,418,168,373,654,352,-82,83,89,302,-498,346,38,83,459,503,307,394,200,278,62
86026,292,379,493,-60,10,605,451,474,-54,295,555,123,372,143,367,653,321,-105,56,63,291,-379,307,16,61,432,492,258,332,160,216,17
86027,317,408,532,-40,20,610,479,511,-27,309,554,145,392,160,391,606,360,-61,99,79,324,-277,345,36,65,456,528,323,377,180,228,37
86028,323,435,544,-40,16,623,466,525,-18,330,573,158,411,178,406,485,392,-30,109,110,340,-249,394,63,96,451,513,448,481,239,291,90
86029,305,418,524,-55,0,617,451,494,-29,321,565,167,390,158,385,445,304,-49,82,90,304,-278,345,45,69,426,477,377,417,200,252,68
86030,297,418,514,-41,10,631,480,470,-39,313,566,103,379,150,389,481,236,-77,52,82,296,-294,273,0,44,419,469,136,295,126,211,84
86031,318,448,520,-30,21,638,492,481,-46,326,571,77,354,138,368,449,285,-96,34,54,293,-370,256,-14,32,419,505,60,269,117,192,99
86032,321,468,517,-54,16,630,483,478,-66,315,563,88,342,128,363,395,329,-120,30,44,293,-446,243,-19,29,418,531,146,317,147,201,104
86033,304,444,502,-67,27,629,477,468,-56,315,565,111,365,145,388,490,412,-102,48,81,340,-397,294,-10,49,443,593,216,365,158,222,86
86034,280,422,469,-74,16,614,469,459,-64,309,554,120,371,133,382,604,401,-106,58,72,359,-303,337,6,44,440,631,239,380,165,235,97
86035,329,468,475,-52,7,607,472,464,-66,307,551,78,368,120,358,447,384,-75,52,44,298,-189,351,33,30,414,524,263,397,171,214,64
86036,305,436,490,-66,-4,616,412,469,-58,299,534,77,377,130,335,204,368,-62,51,39,274,-245,397,40,27,422,508,264,400,162,189,0
86037,307,432,538,-63,3,616,414,490,-53,306,523,138,377,130,329,471,398,-87,48,45,258,-344,394,35,34,435,577,326,444,197,238,14
86038,332,464,531,-58,17,608,431,488,-36,314,508,149,354,125,303,616,384,-99,41,32,291,-283,298,6,36,434,578,285,379,175,222,106
86039,293,439,493,-97,-6,587,407,461,-69,282,487,104,339,111,279,359,346,-107,5,3,252,-281,286,-19,15,406,578,209,360,151,202,99
86040,310,437,523,-66,10,586,427,482,-44,292,485,112,362,129,300,288,290,-90,16,15,252,-368,315,11,25,404,536,313,406,184,220,74
86041,304,416,484,-69,18,578,405,487,-52,283,469,122,359,117,299,391,377,-79,41,6,250,-375,331,10,16,391,479,325,374,156,199,109
86042,310,417,470,-63,17,585,400,479,-49,303,485,122,362,124,307,459,344,-82,43,12,262,-347,344,10,18,388,453,377,372,133,219,74
86043,310,395,474,-77,12,591,383,473,-25,284,484,137,367,140,274,410,298,-67,49,3,262,-346,363,17,38,380,456,390,406,159,239,35
86044,344,399,521,-60,22,594,414,514,-19,297,485,168,386,130,292,338,330,-26,60,19,261,-335,381,60,53,402,398,337,427,193,264,70
86045,330,382,570,-33,4,590,426,521,-27,296,498,211,381,125,288,393,405,-42,43,16,231,-387,412,44,47,393,335,254,383,173,224,21
86046,297,390,534,-30,4,593,431,517,-29,300,515,172,375,107,289,461,404,-63,15,-12,245,-425,347,7,11,370,354,99,273,98,178,23
86047,309,383,524,-26,20,586,407,540,-33,303,488,173,387,87,273,334,410,-68,7,-28,204,-452,332,13,3,330,354,222,314,113,185,48
86048,328,394,548,-25,25,603,427,550,-47,284,484,200,395,85,263,143,444,-75,6,-39,145,-394,332,17,-10,317,361,176,273,91,135,-3
86049,298,372,528,-35,4,598,404,538,-36,278,498,170,378,100,269,187,392,-72,1,-49,145,-394,325,23,0,308,376,175,296,75,125,-81
86050,287,367,526,-38,1,568,382,556,-12,280,489,180,411,127,269,300,371,-53,25,-26,136,-394,335,22,-6,293,333,208,313,72,115,-104
86051,269,386,526,-35,0,580,393,548,-17,284,469,178,418,138,286,379,385,-44,23,-27,143,-385,323,22,-3,293,299,162,289,56,87,-80
86052,291,396,539,-21,16,606,373,572,1,311,490,207,415,127,313,465,394,-37,27,-21,139,-454,299,23,-1,305,288,76,249,41,61,-72
86053,268,373,537,1,22,606,367,575,10,308,503,212,424,103,292,431,350,-53,20,-17,137,-537,290,16,-17,301,274,81,246,22,85,-70
86054,271,368,527,13,19,569,370,565,12,299,483,221,422,115,277,356,352,-42,16,-30,102,-489,287,12,-29,278,225,132,269,21,84,-50
86055,280,349,525,-3,9,569,356,581,0,304,466,227,421,128,275,396,413,-23,34,-32,89,-425,312,31,-23,270,222,210,309,35,60,-68
86056,278,345,529,-7,5,537,342,587,-3,279,456,203,428,119,259,408,404,-33,40,-46,86,-458,319,18,-35,246,220,210,299,31,58,-91
86057,278,352,527,11,8,542,362,610,22,303,488,233,467,151,275,412,390,-6,59,-9,112,-459,344,53,-7,277,284,257,365,86,87,-63
86058,251,344,501,-4,-22,550,339,590,5,304,457,208,440,149,286,377,358,-7,38,-10,121,-515,338,52,-20,279,291,252,350,68,50,-125
86059,230,302,469,-24,-31,508,295,544,1,271,414,158,410,124,283,349,350,-53,42,-5,119,-531,292,12,-10,283,284,120,253,10,30,-160
86060,236,298,470,8,0,510,292,596,22,282,422,170,438,165,310,374,330,-34,83,31,174,-461,316,35,21,312,349,159,308,40,83,-113
86061,221,311,467,18,-6,525,296,598,33,284,409,190,444,178,295,362,367,-32,75,32,175,-471,296,21,26,327,376,81,274,55,104,-12
86062,225,290,472,22,-25,509,285,584,36,272,391,164,429,159,285,74,246,-53,72,28,161,-509,263,11,15,309,353,31,234,22,47,-170
86063,243,288,492,41,-13,521,299,577,44,280,423,201,448,163,293,-131,292,-25,80,37,143,-510,295,17,26,298,259,152,276,21,3,-234
86064,267,299,513,51,7,519,285,607,54,289,435,227,459,191,296,129,326,-2,100,24,131,-523,352,25,25,301,233,197,295,24,12,-165
86065,243,295,490,7,-20,515,275,589,30,270,409,185,470,184,293,245,250,-29,92,18,144,-513,360,22,15,305,272,190,293,39,28,-123
86066,217,280,484,-30,-44,515,261,555,18,272,407,166,425,144,284,278,195,-71,49,17,171,-547,268,-18,0,298,299,117,228,1,1,-201
86067,250,286,529,-5,-8,545,279,570,14,299,440,170,432,167,318,376,235,-72,74,49,215,-571,212,-33,25,337,389,96,199,14,47,-153
86068,273,285,512,9,-10,534,287,595,18,290,428,168,458,171,336,396,245,-56,103,58,231,-524,264,-15,56,367,365,199,272,42,74,-118
86069,287,293,496,12,5,524,275,619,38,307,428,192,462,163,342,386,333,-31,102,72,241,-526,255,-1,50,368,336,87,219,17,63,-127
86070,273,308,509,26,25,542,294,597,42,315,455,158,468,156,332,413,356,-37,83,79,249,-504,247,-19,63,358,285,21,175,14,38,-88
86071,227,282,483,3,-10,526,266,567,24,275,434,106,448,137,324,343,256,-100,85,53,199,-524,211,-27,26,353,273,26,143,-27,29,-168
86072,242,296,492,13,-1,525,279,598,27,281,425,149,462,147,327,150,279,-59,91,72,149,-509,244,3,25,363,250,76,177,-25,43,-172
86073,233,273,502,31,-12,511,259,600,41,284,410,172,484,165,314,194,304,-52,108,67,186,-541,271,8,62,372,254,130,208,-5,50,-169
86074,249,282,505,43,8,531,281,621,68,302,434,197,501,199,330,374,303,-31,127,86,219,-527,258,27,92,403,279,117,216,15,71,-109
86075,227,277,476,31,4,533,290,607,47,291,426,160,481,190,336,395,269,-33,114,71,217,-594,253,23,78,390,285,47,196,0,69,-85
86076,242,293,472,8,-7,534,308,598,34,279,442,120,476,169,330,391,286,-32,102,55,204,-599,234,16,58,367,294,16,151,-17,46,-122
86077,223,304,487,2,-21,538,335,586,22,293,447,125,474,160,324,392,321,-22,95,68,220,-430,255,28,58,375,334,53,164,-24,65,-118
86078,199,281,498,-1,-9,541,308,587,32,303,441,189,483,159,324,227,371,-19,107,76,226,-445,319,54,90,395,339,130,230,23,89,-111
86079,165,267,458,-20,-36,508,281,555,11,286,436,227,476,141,317,178,338,-37,99,36,214,-486,320,52,53,357,332,127,238,14,68,-83
86080,175,277,460,-20,-50,526,336,557,13,288,450,204,471,161,355,156,313,-12,127,55,229,-445,337,59,75,369,356,180,268,41,83,-65
86081,206,345,516,-12,-3,547,367,582,29,313,491,227,477,165,383,0,363,8,123,96,259,-401,384,89,92,405,406,232,304,100,110,-41
86082,193,369,509,-22,2,553,413,577,8,304,511,215,472,161,389,181,406,1,124,100,302,-392,365,94,107,426,457,302,338,118,124,-33
86083,201,366,492,-29,-13,559,419,586,12,309,528,229,458,179,404,528,450,-4,136,117,362,-394,338,79,122,444,504,271,349,130,154,-2
86084,245,363,528,5,1,580,414,595,17,331,536,255,480,197,411,676,443,27,173,143,420,-355,368,124,177,485,541,251,411,205,232,20
86085,247,360,528,-10,3,577,394,565,11,304,512,247,476,177,378,599,504,38,155,131,391,-364,425,152,195,499,608,408,493,268,268,86
86086,257,369,491,-31,0,584,406,537,3,291,508,226,441,157,371,424,486,35,138,136,351,-444,452,143,184,493,602,457,487,236,246,19
86087,264,383,509,-28,5,593,422,557,-11,297,513,241,460,159,396,397,476,53,148,147,382,-473,488,155,191,513,584,507,532,302,300,20
86088,306,424,543,-18,23,589,437,558,-1,298,524,242,440,149,400,534,386,39,141,122,408,-396,454,138,173,510,515,375,502,268,296,154
86089,323,461,557,-8,33,616,477,553,-3,303,553,244,438,140,408,595,354,25,130,123,412,-285,431,137,173,529,501,339,464,267,293,129
86090,322,450,544,-13,25,611,476,540,-14,297,561,204,413,148,398,552,365,-6,108,130,400,-276,389,108,135,523,495,322,424,228,269,101
86091,339,477,561,-9,42,621,505,523,-7,307,574,198,414,144,435,355,443,-4,99,138,423,-251,388,104,144,528,549,214,398,223,287,90
86092,338,497,566,0,40,623,507,535,-3,338,590,205,431,153,440,463,517,22,138,134,381,-237,454,146,167,546,562,298,496,304,334,137
86093,332,473,554,-10,40,621,488,536,9,320,560,187,415,136,401,691,482,27,128,111,334,-268,474,149,163,528,518,338,523,290,334,131
86094,335,471,539,-28,43,636,485,509,13,327,555,194,429,148,380,675,462,21,121,98,329,-293,491,151,167,512,509,262,478,272,300,160
86095,308,457,527,-29,17,614,470,518,-15,297,532,210,420,121,350,536,466,16,110,71,278,-380,450,138,143,457,494,240,465,256,262,131
86096,311,471,531,-36,-12,611,465,542,-7,291,531,213,412,121,349,457,434,8,101,61,269,-347,376,116,131,431,430,261,450,213,220,63
86097,328,452,521,-41,-29,603,474,517,-10,305,528,216,426,125,352,316,407,4,98,68,272,-235,381,117,89,422,427,279,461,205,213,9
86098,339,437,506,-39,-15,598,477,521,8,301,528,230,456,145,353,405,454,53,124,46,292,-245,444,165,113,444,474,397,516,232,208,4
86099,316,420,527,-31,-9,596,462,568,11,295,525,254,479,145,356,535,476,77,130,55,308,-315,464,172,111,454,547,447,528,227,184,-28
86100,320,430,541,-17,-6,589,446,579,4,293,517,272,479,145,355,448,483,96,144,58,302,-328,478,166,117,446,582,473,497,216,187,-66
86101,295,421,537,-20,-7,570,447,542,3,286,513,273,457,135,336,420,482,78,121,22,250,-391,437,130,87,401,442,258,378,121,121,-45
86102,296,444,518,-13,2,562,470,544,2,284,524,266,462,138,326,377,534,57,123,11,199,-372,435,137,77,382,299,185,366,116,92,-25
86103,317,426,516,-20,0,561,449,558,-11,293,515,261,461,121,307,316,529,56,113,4,174,-317,445,152,71,356,266,222,390,119,101,-40
86104,343,428,537,-2,5,578,427,576,12,312,517,282,452,150,319,318,504,68,125,16,198,-300,447,136,72,367,269,259,389,96,89,-61
86105,339,402,549,0,4,565,407,577,-3,295,521,288,447,146,316,159,500,85,95,14,184,-292,448,131,60,333,282,321,397,101,101,-49
86106,308,366,562,-11,0,551,409,575,-13,282,486,286,453,137,328,220,474,98,99,27,181,-328,460,135,65,324,304,367,420,106,88,-27
86107,302,368,569,-17,9,551,384,588,10,303,480,317,465,153,336,445,435,94,106,34,204,-364,455,142,64,357,335,350,398,99,83,-55
86108,306,381,548,-3,28,550,381,581,12,312,493,314,466,133,343,418,411,99,95,28,203,-370,434,146,55,345,354,257,352,60,77,-88
86109,296,367,545,15,12,539,382,586,1,303,461,294,453,119,318,379,400,82,86,20,152,-371,411,139,69,307,318,236,339,58,50,-98
86110,275,360,535,7,11,538,361,589,13,302,449,277,461,126,297,367,437,71,89,13,125,-415,426,137,57,298,261,378,389,63,50,-71
86111,272,336,530,0,18,522,323,574,-1,293,437,252,464,121,290,330,499,62,88,10,119,-418,416,116,52,300,290,357,384,46,43,-103
86112,293,342,533,26,22,509,307,586,22,290,445,245,462,139,319,384,519,56,112,27,165,-486,393,124,66,327,320,269,342,56,60,-127
86113,304,356,530,40,11,499,310,580,11,290,428,253,454,139,315,450,462,41,125,35,182,-543,394,124,68,337,295,239,324,59,89,-58
86114,307,359,536,29,44,514,304,594,26,308,423,262,478,148,327,470,442,44,136,57,199,-497,384,133,106,357,292,155,328,75,117,-49
86115,296,345,522,17,27,501,287,600,32,299,397,249,489,165,315,446,418,65,149,71,215,-457,397,154,114,395,352,142,359,123,146,-42
86116,266,357,500,14,23,520,278,592,16,289,391,211,473,138,330,408,390,71,142,68,250,-333,381,140,89,385,420,151,363,131,145,-34
86117,254,334,493,-3,34,508,276,579,17,293,409,206,463,140,335,369,389,57,135,65,262,-358,376,123,93,400,404,170,382,129,154,-43
86118,257,336,469,-2,31,510,282,566,19,285,428,201,475,154,353,345,402,45,125,84,299,-410,384,129,98,420,395,231,404,166,199,-6
86119,252,357,488,-4,17,524,302,575,25,288,438,252,463,157,353,-54,438,21,129,93,264,-401,437,124,100,429,414,277,433,186,201,29
86120,255,384,491,2,22,530,319,557,21,282,444,252,443,141,362,12,426,23,112,85,238,-350,464,110,86,457,481,242,416,167,194,8
86121,277,358,473,-26,27,528,305,557,23,284,446,226,452,148,370,537,433,20,107,90,264,-385,435,106,90,475,502,189,417,171,237,34
86122,274,357,479,-34,28,520,301,542,-2,291,430,206,427,141,358,672,386,-1,102,99,291,-363,371,78,72,483,503,150,375,136,219,56
86123,262,372,475,-41,12,522,316,533,10,304,450,202,440,133,380,383,338,-25,93,120,292,-344,327,71,78,504,545,144,349,138,204,14
86124,263,366,464,-20,35,548,343,538,26,308,479,206,447,174,406,305,325,-5,123,139,337,-356,356,99,128,539,549,270,445,205,264,23
86125,234,325,426,-24,29,530,330,548,22,307,473,186,469,176,419,468,375,36,145,144,354,-381,412,126,127,548,500,397,514,247,301,95
86126,214,316,400,-55,-8,510,338,530,12,294,455,210,453,161,392,512,473,52,136,142,325,-410,433,135,125,527,458,502,571,272,309,82
86127,218,333,397,-75,4,526,350,495,0,289,483,227,436,174,423,453,469,36,129,143,352,-353,432,152,157,540,540,507,562,275,310,98
86128,266,369,444,-48,8,555,395,526,8,291,545,252,449,186,458,266,451,14,144,160,396,-261,377,114,146,554,625,194,404,199,284,138
86129,257,358,435,-39,-10,524,378,518,15,293,516,209,447,181,450,195,403,-11,137,150,390,-337,346,86,147,564,592,29,366,169,261,29
86130,277,382,464,-20,10,533,352,532,23,314,493,240,472,203,448,384,414,15,137,173,348,-397,389,114,164,553,479,175,425,204,244,26
86131,269,370,462,-18,14,521,351,538,18,307,460,251,467,185,409,433,462,17,134,165,306,-385,390,118,141,512,393,230,425,181,212,42
86132,252,347,437,-44,9,525,320,518,21,292,441,233,459,180,378,271,495,18,158,153,285,-383,405,139,154,500,402,258,440,180,249,81
86133,262,365,437,-34,0,507,301,533,-1,289,439,227,440,186,375,232,411,-5,131,115,278,-439,363,123,140,474,426,213,410,142,194,48
86134,254,360,462,-29,14,513,339,544,12,313,446,234,454,165,385,364,476,14,128,113,279,-520,348,100,113,459,477,180,363,98,142,36
86135,244,335,454,-46,2,509,299,545,27,302,392,199,444,159,356,419,401,-11,123,82,225,-563,330,76,101,421,418,101,281,29,81,-43
86136,217,333,451,-52,4,517,255,546,24,286,362,202,447,154,331,463,282,-33,103,47,210,-483,319,65,88,400,414,157,313,39,55,-77
86137,215,331,455,-63,1,484,261,534,4,284,362,202,441,150,322,355,355,-36,103,52,218,-438,333,52,69,401,398,242,343,47,29,-175
86138,203,289,438,-56,-20,468,262,511,5,281,367,204,445,147,342,221,369,-36,100,59,228,-431,368,70,66,396,334,337,406,76,59,-115
86139,211,273,420,-56,-20,486,248,480,0,285,394,169,420,153,347,250,340,-24,91,64,223,-447,355,73,52,369,335,275,372,51,39,-37
86140,238,339,411,-63,4,513,297,494,8,301,418,166,426,161,367,224,276,-46,91,47,245,-409,244,29,25,359,343,49,202,-55,-26,-88
86141,223,324,389,-60,-7,500,280,506,22,293,406,185,414,174,366,31,294,-37,90,68,291,-400,304,49,47,399,382,198,285,10,22,-51
86142,214,333,396,-53,-4,503,259,511,17,293,406,165,420,148,334,258,326,-41,80,61,281,-427,309,32,39,402,415,117,239,-8,50,-20
86143,254,355,417,-44,11,523,276,515,28,303,406,140,418,168,340,447,392,-64,83,69,254,-405,278,12,36,417,487,34,236,8,82,-31
86144,244,363,433,-56,1,530,275,506,31,303,397,122,397,163,321,302,421,-95,83,38,203,-391,247,2,30,402,452,116,278,45,88,-57
86145,220,344,449,-68,-7,499,268,483,7,300,388,94,383,165,304,390,383,-113,74,25,175,-420,215,-7,21,373,349,96,236,-8,65,-64
86146,229,319,439,-54,-12,480,291,481,17,277,383,83,372,176,301,499,343,-120,70,18,182,-417,190,-27,3,371,312,50,192,-23,52,-17
86147,241,317,431,-65,-23,485,279,503,6,270,371,113,375,154,292,454,371,-103,62,36,187,-441,257,-8,14,384,367,100,231,42,98,-26
86148,248,310,461,-55,-26,471,280,513,10,277,374,161,391,155,316,289,423,-50,78,32,177,-396,302,22,37,414,388,186,299,74,130,16
86149,266,305,472,-56,-27,493,266,518,18,280,376,167,416,168,317,46,433,-40,96,48,193,-363,303,44,49,439,380,248,347,111,161,54
86150,269,321,466,-40,-11,517,278,553,24,300,411,171,451,165,328,270,420,-20,108,53,235,-439,319,67,54,445,408,196,316,98,159,9
86151,256,315,460,-45,-2,500,284,537,13,293,398,180,456,165,313,510,371,-34,98,29,213,-539,302,55,35,411,385,181,329,65,119,-45
86152,260,356,492,-27,0,513,323,559,32,304,409,214,468,166,310,507,409,-27,105,31,209,-435,310,53,34,400,355,138,298,31,96,-36
86153,261,362,524,-12,-16,513,322,581,22,305,423,214,468,151,331,385,415,-18,104,35,204,-368,326,55,43,394,353,122,275,25,88,-54
86154,283,327,542,7,-16,518,321,595,32,285,416,244,481,173,312,332,376,33,118,65,211,-395,368,74,63,410,412,194,339,75,129,-86
86155,290,374,534,8,-20,494,334,587,24,288,425,233,489,173,299,467,388,68,137,56,212,-370,409,105,84,423,386,360,440,148,193,-22
86156,281,351,533,12,-28,495,319,584,29,293,417,238,504,187,312,465,367,89,164,71,192,-361,484,161,100,431,425,551,522,200,234,31
86157,250,287,485,-7,-45,485,284,602,58,319,389,258,513,199,321,263,366,111,178,86,163,-384,527,192,130,458,493,649,587,247,245,59
86158,229,261,458,-34,-49,479,290,585,31,310,408,266,481,178,337,229,399,57,157,72,184,-397,472,153,115,432,461,543,506,191,212,-32
86159,258,306,505,-9,-22,496,346,591,30,312,458,290,465,184,351,376,448,-6,126,87,228,-332,375,106,112,446,447,139,330,115,196,-19
86160,242,330,488,-15,-8,478,341,590,44,295,442,296,467,178,325,413,484,26,120,69,215,-311,363,107,101,437,348,50,359,115,188,88
86161,252,350,489,-1,-8,483,339,595,42,279,424,314,470,193,301,431,520,60,148,64,195,-327,452,143,113,432,342,249,434,165,230,138
86162,245,330,480,-4,-33,489,330,582,40,294,407,291,467,195,303,364,527,34,148,63,199,-355,449,130,101,439,401,218,423,182,236,112
86163,224,314,450,-40,-37,489,327,553,26,276,415,248,436,182,322,276,523,17,121,72,211,-379,407,109,92,433,404,124,384,153,203,30
86164,218,306,441,-42,-31,515,354,557,43,313,449,228,459,207,374,182,515,23,136,112,283,-339,421,148,142,498,460,178,411,192,229,52
86165,214,291,437,-34,-40,502,363,566,43,311,480,218,474,203,380,74,442,33,153,116,315,-318,383,162,144,491,423,230,433,203,226,66
86166,223,299,464,-28,-46,511,356,588,54,317,480,225,493,215,414,245,463,50,173,136,323,-335,418,178,155,526,447,307,483,213,223,27
86167,217,286,457,-22,-48,507,356,585,44,310,452,229,497,217,382,298,482,61,181,126,289,-440,442,192,156,518,453,348,477,211,226,53
86168,212,282,452,-29,-46,483,340,582,40,314,469,257,525,218,381,354,497,74,193,142,267,-511,447,206,159,525,515,412,515,249,252,84
86169,208,285,452,-26,-68,474,327,577,37,301,444,229,518,229,392,412,452,69,178,134,292,-467,443,178,152,511,457,348,499,197,214,5
86170,213,301,455,-29,-43,483,343,580,40,310,433,249,513,225,375,281,477,76,167,118,284,-309,444,173,133,486,407,279,451,174,201,1
86171,251,302,500,18,-39,495,326,618,71,308,449,302,519,215,374,111,540,89,182,107,249,-267,471,183,126,464,382,231,428,164,202,34
86172,259,296,495,19,-25,511,320,618,53,303,455,270,507,200,372,410,527,81,164,106,285,-217,458,187,124,474,412,267,453,170,226,76
86173,219,285,480,6,-40,481,322,625,29,282,438,242,494,193,354,699,478,71,143,104,303,-237,461,162,107,477,475,333,480,195,235,101
