,Fp1,Fp2,F7,F3,Fz,F4,F8,FC5,FC1,FC2,FC6,T7,C3,Cz,C4,T8,TP9,CP5,CP1,CP2,CP6,TP10,P7,P3,Pz,P4,P8,PO9,O1,Oz,O2,PO10
9439,-188,105,-63,-1180,-436,97,-525,-8,-4,-88,175,-221,121,47,-22,-853,-290,-118,58,206,-235,161,57,-238,236,245,161,-137,-40,-127,58,253
9440,-195,62,9,-1172,-431,130,-514,-22,0,-99,153,-30,139,36,-50,-843,-176,-127,67,181,-340,166,95,-237,219,158,-13,-77,-15,-176,-91,-166
9441,-185,5,82,-1121,-412,55,-471,129,-6,-115,71,160,110,-3,-78,-816,-291,-99,61,115,-420,143,30,-258,186,58,-215,-1,5,-199,-196,-505
9442,-212,-41,54,-1063,-410,57,-456,145,-3,-128,33,-80,109,-1,-101,-618,-401,-131,40,131,-361,120,-95,-310,170,83,-91,-287,-121,-232,-136,-254
9443,-259,39,-106,-1099,-407,84,-464,81,42,-134,-36,-339,226,28,-127,-437,-389,-49,75,118,-330,123,-74,-294,192,106,-34,-298,-134,-245,-125,-213
9444,-296,73,-217,-1125,-394,189,-533,106,48,-129,-91,-420,306,39,-131,-525,-425,155,124,141,-312,204,-39,-230,233,142,5,-131,-38,-147,-37,-220
9445,-306,68,-401,-1114,-427,313,-526,-25,-11,-118,-35,-123,145,-4,-88,-634,-283,-65,60,147,-315,112,-11,-294,208,146,49,-100,-39,-164,-99,-292
9446,-236,129,-230,-1009,-399,213,-439,54,-37,-116,58,103,-25,-26,-72,-632,-171,-305,9,142,-266,-32,32,-362,176,134,59,-242,-109,-246,-155,-317
9447,-238,145,112,-1012,-370,182,-390,58,8,-98,127,-62,68,13,-56,-603,-289,-191,57,167,-219,-127,38,-333,199,141,82,-171,-62,-195,-99,-277
9448,-282,131,204,-1192,-411,184,-433,-83,-3,-113,129,-66,60,13,-50,-681,-348,-175,48,151,-243,-70,43,-309,208,130,123,-179,-21,-127,-55,-214
9449,-300,41,-14,-1160,-414,124,-507,46,0,-120,78,76,72,-3,-92,-818,-401,-98,39,106,-323,-63,-43,-327,169,86,17,-331,-106,-195,-106,-236
9450,-296,75,-54,-1148,-398,90,-524,100,-8,-134,20,-63,138,-20,-106,-708,-435,-15,45,95,-333,-158,-140,-369,143,73,-123,-290,-178,-261,-154,-238
9451,-294,96,-185,-1229,-414,15,-586,92,-22,-137,8,-325,181,-14,-79,-636,-395,-46,40,133,-321,-68,-126,-353,165,122,-73,-336,-148,-155,3,36
9452,-324,64,-385,-1260,-436,2,-682,38,-32,-149,4,-394,105,-25,-98,-724,-395,-282,12,124,-360,170,-79,-360,174,133,22,-330,-91,-66,118,356
9453,-242,67,-61,-1206,-383,105,-578,57,-21,-132,24,-329,74,-6,-132,-914,-315,-234,20,119,-438,244,38,-361,157,88,-84,-286,-134,-238,-124,-29
9454,-236,14,53,-1304,-395,98,-526,-64,-22,-147,-1,-227,132,-33,-166,-1032,-330,-152,4,75,-512,222,9,-347,128,13,-277,-174,-134,-290,-299,-543
9455,-301,-15,-35,-1243,-423,36,-572,-102,-14,-166,-57,-156,184,-39,-196,-969,-355,-148,0,77,-490,176,18,-329,138,13,-242,2,-30,-203,-208,-375
9456,-329,36,-199,-1119,-410,63,-535,124,1,-158,-36,-166,99,-52,-196,-917,-444,-185,-13,48,-440,112,-2,-355,117,21,-147,32,-28,-175,-120,-132
9457,-342,164,-30,-1158,-397,110,-544,159,27,-121,27,-18,54,0,-127,-838,-376,-122,-2,86,-383,158,32,-287,160,77,-15,-165,0,-115,-15,19
9458,-313,196,-97,-1215,-382,108,-554,34,1,-124,31,-95,98,5,-128,-706,-271,-110,24,128,-370,153,28,-289,156,97,-41,-150,-75,-232,-101,-127
9459,-396,154,-116,-1193,-386,98,-561,-36,-17,-120,-4,-131,94,-12,-133,-588,-298,-102,24,126,-390,94,-53,-351,156,78,-80,-227,-152,-317,-187,-249
9460,-409,151,-69,-1145,-393,66,-518,74,-4,-125,6,-23,149,-31,-117,-645,-397,-123,5,114,-380,77,-103,-350,126,75,-26,-321,-207,-332,-193,-176
9461,-387,116,-50,-1092,-392,77,-512,211,4,-126,31,-257,145,-15,-105,-636,-498,-185,-20,148,-342,51,-69,-338,130,121,66,-317,-179,-251,-87,-70
9462,-272,103,8,-1057,-391,85,-500,193,-11,-134,-18,-661,116,-30,-116,-660,-657,-191,-35,117,-349,9,-124,-397,93,83,16,-497,-268,-390,-239,-313
9463,-255,110,-282,-1095,-379,105,-428,193,7,-130,7,-732,126,-28,-120,-627,-612,-142,-47,95,-324,-154,-62,-389,60,55,-50,-471,-293,-473,-329,-347
9464,-357,134,-352,-1250,-408,149,-462,-57,-40,-109,98,-480,46,-26,-92,-544,-420,-191,-49,92,-268,-218,32,-344,102,96,-12,-100,-187,-355,-223,-275
9465,-372,77,-146,-1166,-412,132,-508,-243,-28,-126,28,-348,78,-48,-120,-681,-556,-190,-38,84,-320,-48,56,-328,89,74,-49,-258,-218,-409,-316,-494
9466,-392,11,-183,-1205,-415,103,-570,-121,-52,-137,-30,-246,151,-41,-146,-713,-648,-126,-29,70,-340,-3,-21,-337,103,77,-27,-271,-216,-398,-290,-415
9467,-308,95,-243,-1232,-414,130,-490,-54,-22,-126,-17,-179,115,-27,-121,-666,-285,-65,9,102,-316,64,-56,-286,139,82,7,25,-92,-271,-158,-212
9468,-252,228,-134,-1222,-388,110,-363,-48,-60,-116,-5,27,-87,-36,-106,-661,-249,-159,-14,115,-305,48,-37,-301,147,123,128,-133,-85,-206,-57,-113
9469,-299,178,29,-1211,-401,70,-477,22,-61,-135,59,-45,-14,-54,-120,-767,-353,-170,-32,82,-316,-100,-14,-311,138,129,117,-134,-129,-230,-95,-226
9470,-228,16,-91,-1214,-394,124,-524,60,-44,-139,105,-139,43,-51,-114,-823,-322,-218,-10,75,-320,-59,-110,-332,131,98,41,-127,-122,-195,-62,-252
9471,-284,-6,-259,-1237,-397,126,-535,-5,-38,-122,104,-152,66,-57,-94,-935,-386,-168,-9,68,-339,-37,-74,-316,136,91,-86,-81,-60,-98,29,-32
9472,-346,68,-25,-1263,-400,56,-555,8,-65,-123,60,-313,6,-50,-86,-1043,-414,-136,-11,108,-314,49,21,-280,171,138,-66,-47,9,-3,128,95
9473,-345,164,0,-1306,-377,97,-513,-2,-45,-111,41,-330,39,-23,-83,-947,-359,-144,-16,123,-285,37,-1,-287,157,153,18,-54,9,-58,68,-136
9474,-331,126,-101,-1250,-396,124,-599,160,4,-138,-34,-168,181,-34,-132,-1010,-420,-79,-6,85,-358,4,43,-286,133,103,-33,-28,-26,-141,-73,-295
9475,-316,102,40,-1227,-378,153,-588,97,-1,-139,-32,-71,118,-65,-144,-933,-401,-87,-34,76,-401,51,78,-285,155,115,-122,50,10,-120,-37,-240
9476,-310,145,88,-1232,-368,110,-573,-35,-52,-138,-66,20,-14,-68,-135,-750,-500,-127,-60,74,-420,153,42,-292,140,73,-167,-269,-118,-234,-100,-268
9477,-308,166,16,-1175,-383,30,-555,51,-15,-134,-105,-1,133,-25,-138,-700,-411,-26,-9,52,-418,117,31,-285,132,60,-218,-249,-154,-315,-230,-388
9478,-324,192,-128,-1183,-379,42,-532,149,7,-128,-61,-722,227,-44,-151,-685,-380,-115,-13,23,-434,59,-122,-338,114,71,-183,-158,-132,-287,-165,-326
9479,-248,207,-95,-1097,-375,69,-520,234,5,-142,-88,-619,144,-63,-166,-589,-325,-121,-58,36,-398,-108,-101,-343,78,34,-212,-119,-161,-315,-137,-235
9480,-318,218,-266,-1173,-392,135,-468,157,-16,-112,-10,-86,-21,-49,-118,-504,-450,-125,-73,55,-319,7,-101,-316,109,71,-150,-117,-122,-266,-68,-138
9481,-284,211,-232,-1206,-362,132,-460,-142,-43,-112,20,-18,-2,-43,-108,-538,-534,-121,-65,62,-306,110,-226,-338,117,103,-43,-340,-161,-245,4,67
9482,-284,193,-95,-1285,-398,139,-443,-289,-96,-100,14,179,-43,-62,-76,-612,-377,-161,-72,100,-256,167,-163,-313,151,151,94,-413,-118,-152,159,424
9483,-285,141,-92,-1283,-395,111,-511,-165,-71,-97,-43,202,-32,-29,-77,-654,-292,-254,-71,77,-304,178,-60,-348,147,144,60,-351,-110,-191,82,198
9484,-234,105,-48,-1182,-376,116,-543,-6,-39,-121,2,23,88,-50,-140,-762,-341,-138,-80,12,-421,58,-124,-395,97,13,-148,-415,-232,-387,-270,-504
9485,-175,131,131,-1108,-371,135,-615,179,-42,-134,23,-236,101,-77,-171,-824,-429,-39,-85,12,-421,58,-167,-361,84,-9,-130,-260,-180,-361,-257,-491
9486,-360,128,-306,-1265,-424,81,-668,103,-67,-172,20,-833,58,-68,-150,-876,-387,0,-37,12,-390,37,-72,-314,103,16,-106,-104,-108,-292,-188,-264
9487,-349,119,-384,-1271,-395,179,-605,158,-28,-126,36,-856,98,-52,-125,-970,-405,-79,-16,49,-367,58,-44,-284,95,56,-85,-159,-123,-291,-184,-240
9488,-347,113,-279,-1157,-375,205,-543,155,-46,-111,12,-386,28,-59,-145,-997,-517,-254,-89,23,-367,106,-48,-368,58,60,-98,-192,-141,-279,-141,-189
9489,-353,77,-187,-1135,-392,172,-539,-59,-60,-141,-21,-269,-63,-60,-171,-920,-579,-219,-91,10,-383,83,11,-340,90,66,-85,-113,-70,-206,-70,-99
9490,-335,52,-72,-1202,-391,180,-498,-100,-29,-118,8,-107,-11,-48,-145,-769,-349,-146,-76,21,-423,87,24,-327,101,30,-97,-194,-81,-241,-139,-158
9491,-293,93,29,-1289,-393,138,-464,-47,-62,-129,17,-26,-41,-53,-142,-667,-259,-214,-109,20,-401,164,-72,-378,82,20,-66,-446,-184,-311,-162,-125
9492,-325,107,-34,-1263,-404,127,-539,-20,-67,-145,-53,-101,-65,-39,-182,-563,-351,-209,-114,34,-355,149,-62,-363,100,53,51,-563,-148,-257,-48,71
9493,-374,85,-173,-1207,-413,113,-563,17,-18,-174,-108,-173,42,-66,-226,-510,-419,-204,-96,-13,-362,91,-24,-368,84,65,70,-306,-148,-262,-62,95
9494,-372,99,-327,-1088,-387,214,-521,127,26,-116,-13,-163,162,-60,-184,-919,-458,-162,-117,-21,-417,88,-18,-391,53,53,-14,-232,-230,-361,-184,-175
9495,-340,121,-183,-1049,-375,234,-535,2,7,-131,48,-85,112,-89,-178,-1108,-504,-204,-142,-15,-446,44,-85,-425,28,12,-98,-378,-237,-391,-232,-355
9496,-347,144,10,-1185,-395,278,-528,-41,-66,-122,136,-62,-94,-105,-121,-921,-481,-180,-148,8,-378,9,-65,-414,40,50,-56,-211,-139,-262,-86,-208
9497,-395,123,60,-1287,-399,268,-519,70,-68,-75,139,-145,-89,-56,-49,-722,-432,-44,-76,80,-271,156,52,-322,123,167,142,-67,-46,-127,126,137
9498,-425,118,-45,-1101,-396,71,-603,158,7,-123,-29,-310,116,-55,-112,-713,-441,-74,-42,59,-307,133,126,-287,99,150,188,5,-17,-93,118,115
9499,-465,171,-215,-1147,-393,32,-593,13,0,-152,-139,-403,102,-70,-179,-635,-386,-59,-70,8,-346,95,85,-329,70,100,96,-64,-62,-213,-114,-221
9500,-382,221,-146,-1170,-377,85,-528,-65,-12,-123,-94,-523,70,-60,-172,-627,-391,-72,-86,26,-344,142,10,-357,79,109,57,-197,-108,-276,-164,-277
9501,-248,268,-88,-1188,-388,112,-481,-64,-15,-115,-36,-370,92,-30,-121,-502,-485,-136,-71,57,-297,176,-49,-377,96,176,173,-311,-185,-281,-80,28
9502,-157,274,-45,-1255,-402,130,-413,8,-42,-144,-40,-66,32,-46,-143,-509,-603,-220,-80,29,-310,25,-25,-399,86,116,139,-352,-234,-277,-126,-79
9503,-103,210,84,-1175,-416,108,-533,175,-46,-131,-98,-94,-40,-44,-127,-593,-574,-165,-83,50,-307,33,122,-374,108,128,109,-149,-100,-188,-83,-226
9504,-137,184,-105,-1123,-398,118,-575,173,0,-118,-150,-418,15,-15,-130,-755,-351,-115,-67,48,-379,254,208,-346,110,112,86,101,-26,-178,-92,-101
9505,-126,209,-39,-1157,-404,87,-549,1,-32,-136,-68,-277,-90,-33,-181,-827,-231,-176,-106,-4,-411,250,203,-324,85,42,-54,147,12,-177,-149,-183
9506,-207,191,-92,-1208,-413,96,-495,-63,-71,-118,19,0,-116,-41,-144,-779,-392,-182,-103,9,-348,164,73,-334,121,97,20,-46,47,-63,-7,6
9507,-156,178,-15,-1173,-388,144,-521,-64,-41,-108,-2,45,-30,-20,-148,-792,-445,-161,-72,21,-352,37,-1,-362,104,105,67,-288,-81,-200,-103,-108
9508,-110,129,6,-1157,-400,63,-563,-24,-32,-123,-37,139,-55,-30,-159,-707,-456,-170,-94,17,-311,106,-48,-414,114,112,159,-90,-55,-214,-119,-263
9509,-255,105,-330,-1311,-394,65,-518,-75,-41,-133,-40,95,-24,-34,-176,-701,-364,-95,-90,29,-362,107,-41,-389,117,53,-33,-52,-31,-211,-191,-315
9510,-266,131,-272,-1199,-372,125,-486,-19,-20,-139,-35,37,17,-62,-206,-831,-363,26,-90,-3,-469,116,-104,-412,71,7,-250,-47,-86,-273,-232,-224
9511,-233,135,-134,-1042,-351,155,-398,124,24,-145,81,-22,38,-51,-170,-771,-554,-147,-122,-18,-481,-81,-20,-413,59,-7,-244,-48,-93,-327,-243,-197
9512,-356,73,-331,-1158,-381,137,-375,61,5,-132,109,-62,63,-41,-134,-759,-588,-167,-106,-19,-436,-144,69,-369,74,30,-170,-201,-118,-303,-193,-278
9513,-319,114,-161,-1237,-391,114,-428,-90,-31,-100,41,-84,18,-50,-81,-891,-319,-123,-66,50,-342,140,12,-349,126,104,0,-292,-101,-240,-62,-88
9514,-308,135,-239,-1101,-387,100,-516,-17,-14,-140,-16,-270,39,-65,-138,-908,-379,-112,-89,7,-363,182,-23,-381,118,61,0,-95,-101,-247,-107,-115
9515,-275,152,-308,-1029,-386,72,-605,142,37,-172,-98,-296,178,-54,-177,-801,-473,-45,-65,-12,-411,210,-21,-354,109,50,-30,-43,-49,-224,-115,-170
9516,-260,151,-326,-1100,-373,56,-602,84,49,-152,-80,-377,231,-31,-133,-630,-464,-19,-18,17,-367,183,74,-300,141,96,42,34,47,-105,-4,-67
9517,-308,146,-150,-1161,-386,116,-601,-38,-5,-127,-99,-346,61,-36,-162,-589,-539,-85,-70,0,-358,217,-2,-357,110,85,5,-300,-90,-247,-80,-32
9518,-314,163,42,-1176,-391,102,-563,-44,-34,-149,-143,-271,-108,-54,-206,-521,-560,-195,-130,-11,-331,259,-124,-449,94,101,38,-671,-285,-346,-130,44
9519,-297,140,-124,-1117,-354,66,-624,39,-7,-169,-184,-187,-58,-46,-197,-525,-549,-171,-95,8,-363,275,-166,-439,101,155,102,-380,-235,-280,-79,65
9520,-297,172,-429,-1092,-365,47,-590,-28,-11,-175,-180,-28,-15,-54,-203,-653,-402,-131,-82,5,-412,250,-76,-416,75,70,-77,-170,-165,-309,-154,-225
9521,-269,204,-247,-982,-352,83,-489,192,17,-155,-113,29,70,-42,-192,-838,-208,-51,-80,4,-444,160,110,-322,108,25,-113,-119,-89,-225,-62,-161
9522,-303,62,-34,-1027,-370,140,-534,219,15,-142,-141,-264,110,-32,-202,-843,-279,-74,-82,21,-426,225,40,-321,135,93,28,-60,-80,-158,72,162
9523,-396,-6,-46,-1192,-391,115,-568,180,-18,-150,-137,-351,90,-64,-197,-746,-318,-85,-111,3,-403,235,1,-374,95,95,49,-18,-125,-213,-14,88
9524,-335,83,11,-1111,-357,105,-512,64,-7,-145,-146,-127,44,-71,-188,-663,-338,-39,-121,16,-404,169,15,-349,107,80,11,47,-34,-171,1,-51
9525,-346,150,-162,-1073,-373,88,-530,34,-29,-142,-179,-19,61,-66,-199,-647,-373,-55,-96,20,-414,136,4,-344,145,111,71,57,35,-95,115,93
9526,-358,201,-165,-1053,-371,23,-509,266,1,-154,-172,-198,204,-52,-224,-720,-395,-14,-79,-16,-427,-10,35,-383,95,50,-58,-204,-145,-331,-189,-370
9527,-260,194,-7,-1140,-368,221,-365,118,-54,-121,-6,-456,32,-53,-149,-672,-407,-20,-103,14,-343,57,-111,-439,73,79,35,-511,-294,-446,-307,-447
9528,-172,151,64,-1143,-368,215,-333,-8,-53,-108,38,-402,-76,-42,-127,-731,-371,-69,-117,50,-305,149,-126,-457,103,96,141,-407,-245,-357,-187,-242
9529,-210,164,55,-1138,-388,84,-414,-124,-31,-128,-8,-72,4,-35,-158,-789,-296,-143,-88,56,-347,50,35,-369,125,89,23,-12,-87,-247,-133,-238
9530,-270,205,-139,-1159,-366,77,-458,-209,-46,-110,37,30,-28,-38,-132,-825,-166,-171,-51,62,-349,24,239,-312,157,124,-14,228,101,-119,4,-65
9531,-250,191,-228,-1085,-368,145,-491,-94,-27,-102,33,-221,-45,-21,-105,-767,-254,-121,-53,86,-314,-19,299,-328,165,151,71,3,34,-112,81,175
9532,-275,99,-148,-1011,-402,99,-498,65,-11,-148,-96,-191,-9,-44,-148,-724,-463,-98,-67,52,-302,-79,201,-357,147,165,122,-362,-89,-179,101,216
9533,-204,54,-143,-1065,-424,140,-531,36,-12,-146,-87,-102,-10,-31,-137,-695,-511,-112,-102,36,-293,-60,33,-421,113,116,41,-681,-276,-320,7,73
9534,-233,98,-262,-1141,-404,219,-510,-57,-30,-119,-34,-136,-2,-24,-110,-714,-422,-89,-79,47,-338,9,-25,-388,127,80,-73,-451,-195,-289,-52,-200
9535,-223,124,-211,-1091,-408,160,-516,-95,-26,-122,-66,-227,-7,-51,-171,-777,-427,-82,-83,26,-416,100,-159,-385,121,47,-100,-279,-144,-293,-167,-342
9536,-107,92,-18,-945,-357,154,-503,75,10,-119,-68,-303,82,-33,-195,-682,-380,-90,-53,27,-434,62,-141,-385,104,16,-107,-179,-172,-367,-303,-459
9537,-175,52,-71,-966,-399,114,-558,104,20,-126,-41,-612,180,-28,-143,-624,-388,-73,-33,18,-392,145,-168,-379,120,105,40,-284,-128,-284,-125,-187
9538,-353,56,-474,-1100,-409,83,-629,138,38,-118,-36,-750,253,-6,-147,-590,-488,-31,-33,42,-360,183,-174,-368,144,131,120,-329,-131,-234,-14,-6
9539,-301,94,-480,-1061,-392,133,-616,32,39,-116,-56,-530,166,-13,-153,-793,-577,-76,-74,42,-366,148,-142,-396,139,126,71,-315,-125,-212,-29,-34
9540,-250,148,-203,-956,-378,118,-630,85,48,-135,-168,-189,129,-28,-176,-860,-592,-35,-63,21,-399,114,-73,-349,116,55,-138,-274,-137,-260,-186,-358
9541,-279,205,-238,-1030,-379,52,-585,-24,27,-146,-210,-136,223,-14,-180,-669,-388,-21,-47,34,-371,23,-1,-300,135,65,-220,-93,-82,-229,-203,-457
9542,-294,196,-251,-1145,-398,48,-579,-30,-33,-143,-172,-227,125,-44,-128,-565,-194,-49,-65,24,-322,-150,75,-316,145,122,-83,14,-95,-239,-134,-313
9543,-277,231,-73,-1102,-381,107,-518,27,-49,-114,-77,-177,-87,-51,-88,-566,-360,-70,-96,57,-282,1,142,-304,171,140,39,5,-27,-137,2,-154
9544,-282,239,-95,-1083,-373,139,-485,25,-16,-116,-53,-196,-93,-49,-111,-509,-300,-23,-64,82,-255,215,164,-273,181,138,116,16,38,-61,91,-32
9545,-323,216,-267,-1030,-367,87,-471,50,-9,-125,-38,-35,5,-51,-128,-587,-159,106,-61,73,-320,182,47,-275,171,112,56,115,26,-88,60,-68
9546,-377,172,-141,-953,-357,130,-451,161,-20,-134,-8,17,0,-55,-140,-631,-288,-113,-111,42,-334,137,-18,-346,129,103,3,-127,-46,-117,46,54
9547,-479,127,-27,-974,-375,213,-455,167,-7,-136,-45,-235,79,-47,-144,-667,-399,-195,-85,60,-312,137,172,-322,141,114,34,-380,-67,-104,137,270
9548,-375,142,-14,-988,-361,107,-500,159,20,-145,-64,-380,181,-49,-167,-720,-544,4,-71,31,-387,-9,178,-323,88,27,-130,-356,-197,-305,-202,-275
9549,-219,161,-121,-950,-351,129,-525,171,32,-142,-35,-460,99,-62,-178,-704,-577,-98,-120,11,-385,-130,-18,-431,31,-15,-206,-422,-332,-493,-448,-623
9550,-153,70,36,-1074,-366,229,-595,47,-26,-119,-43,-47,-90,-51,-106,-686,-307,-95,-113,42,-309,58,140,-379,85,93,2,-276,-177,-309,-200,-290
9551,-194,58,-239,-1110,-379,200,-663,-77,-40,-141,-61,-12,-2,-47,-149,-762,-325,-30,-84,34,-397,239,194,-357,89,47,-68,-17,-101,-272,-206,-266
9552,-264,75,-323,-1052,-370,153,-615,16,1,-157,-95,-412,45,-56,-183,-904,-366,-150,-106,17,-414,128,56,-378,67,3,-120,1,-71,-259,-173,-280
9553,-240,132,-231,-1021,-359,232,-493,29,8,-139,-147,-515,-14,-19,-156,-841,-273,-198,-92,23,-375,175,-29,-371,101,40,-13,-150,-54,-189,-88,-151
9554,-201,198,-203,-1004,-361,296,-401,-4,-2,-104,-83,-379,-40,-6,-128,-679,-143,-125,-59,43,-328,210,117,-288,136,90,31,-6,-15,-143,-47,-54
9555,-189,247,-91,-1045,-379,209,-428,-158,-11,-118,-86,-495,-25,-31,-128,-602,-118,-126,-89,53,-330,187,-38,-340,129,92,-2,-37,-39,-181,-75,-37
9556,-183,159,-30,-1050,-374,172,-488,130,-26,-124,-64,-515,12,-37,-128,-675,-238,-53,-73,55,-364,98,-90,-383,130,67,-24,-77,-56,-165,-70,-100
9557,-261,139,-80,-1015,-386,145,-435,229,11,-124,-46,-538,44,-30,-128,-647,-257,-82,-56,55,-328,110,-38,-389,154,86,-2,-197,-117,-188,-97,-130
9558,-254,103,-34,-903,-374,188,-482,105,18,-124,-5,-215,21,-44,-120,-753,-270,-166,-77,37,-379,-53,-54,-402,134,29,-91,-311,-140,-220,-135,-179
9559,-337,94,-158,-990,-383,211,-540,-51,-5,-129,-3,-225,-3,-62,-125,-851,-280,-184,-89,27,-385,57,33,-403,106,24,-83,-202,-86,-203,-153,-229
9560,-445,144,-334,-1064,-414,159,-523,-135,-4,-144,-114,-360,24,-49,-164,-730,-230,-134,-74,37,-351,63,168,-373,122,58,2,-109,-47,-175,-104,-111
9561,-327,157,-164,-968,-363,155,-540,-36,30,-112,-51,-377,55,-29,-157,-795,-217,-121,-87,43,-350,-61,110,-366,142,69,82,-133,-43,-169,-89,-11
9562,-287,95,-217,-1047,-412,166,-535,-145,-14,-146,-27,-199,-18,-61,-174,-834,-262,-159,-105,38,-306,-11,31,-398,128,66,106,-136,-76,-190,-112,-77
9563,-255,144,-327,-1082,-404,150,-535,-100,-46,-146,-52,123,-94,-62,-149,-633,-358,-173,-105,60,-277,14,5,-409,137,100,77,-158,-80,-213,-94,-141
9564,-219,186,-335,-1048,-378,163,-524,-4,-22,-140,-126,92,21,-52,-172,-595,-462,-140,-92,28,-326,-20,-76,-430,119,63,-39,-198,-152,-270,-180,-245
9565,-266,194,-237,-993,-393,174,-474,95,29,-113,-153,-138,129,-37,-182,-554,-374,-49,-56,32,-345,45,-45,-377,124,38,-134,-168,-114,-228,-171,-174
9566,-244,169,-71,-969,-403,169,-494,81,17,-128,-198,-245,52,-23,-192,-541,-283,-33,-60,31,-368,152,11,-364,136,26,-113,-78,-77,-181,-74,-59
9567,-147,247,34,-940,-368,162,-447,40,26,-104,-157,-167,37,-31,-147,-482,-378,-38,-49,56,-338,126,58,-329,153,65,-18,-40,-8,-129,-27,-20
9568,-179,226,88,-940,-367,103,-435,115,23,-124,-181,-236,72,-14,-149,-439,-210,17,-32,63,-307,99,34,-311,173,97,30,-21,31,-109,12,21
9569,-182,93,89,-836,-360,158,-503,214,26,-117,-142,-421,90,-18,-163,-493,-157,-50,-59,57,-315,58,-43,-379,146,58,-24,-162,-48,-152,-33,17
9570,-236,-71,-143,-780,-355,193,-502,268,52,-119,-107,-774,155,-21,-179,-520,-303,64,-47,47,-362,68,8,-383,135,18,-82,-85,-52,-201,-86,-83
9571,-354,-49,-210,-903,-362,243,-490,120,62,-105,-82,-1019,217,-11,-161,-538,-344,127,6,46,-334,104,132,-330,162,56,-39,-36,-1,-192,-104,-120
9572,-252,87,-49,-979,-357,332,-566,-23,41,-96,-18,-509,202,-28,-141,-519,-335,-129,-40,70,-300,36,127,-363,162,75,-8,-171,0,-150,-40,-71
9573,-246,132,-59,-934,-369,370,-570,-6,5,-74,-9,5,157,-42,-116,-502,-201,-117,-67,109,-278,27,244,-330,173,114,54,-18,51,-101,-20,-70
9574,-198,262,3,-835,-349,335,-434,88,-11,-55,9,238,0,-19,-72,-482,-85,-58,-46,143,-203,95,332,-273,208,185,150,120,153,-26,28,-56
9575,-197,250,-223,-868,-366,198,-395,85,0,-97,-49,116,61,-12,-120,-554,-96,5,-30,132,-234,66,342,-242,192,159,158,310,195,-8,18,-56
9576,-191,186,-164,-960,-391,172,-420,-19,-5,-112,-27,61,149,-16,-89,-574,-163,31,-18,90,-223,-35,231,-270,168,156,143,351,109,-61,26,16
9577,-206,133,-127,-873,-360,185,-367,211,25,-80,52,48,51,-12,-44,-710,-293,146,-14,102,-212,81,99,-342,182,181,167,-76,-5,-94,96,126
9578,-237,209,-276,-936,-358,221,-302,173,21,-75,117,-127,35,-19,-62,-775,-320,-34,-77,59,-242,114,-11,-436,111,114,93,-541,-202,-264,-88,-13
9579,-164,295,-34,-943,-368,290,-264,69,11,-68,39,-52,53,-39,-100,-731,-202,-211,-62,81,-198,195,85,-455,110,131,254,-292,-147,-255,-107,15
9580,-30,293,39,-868,-378,208,-331,144,17,-99,-48,-71,67,-34,-113,-533,-214,-122,-66,82,-169,207,43,-412,142,151,361,-165,-48,-173,-17,97
9581,-51,311,-70,-837,-368,149,-333,41,41,-105,-24,9,168,-25,-111,-434,-309,-37,-24,94,-209,98,168,-312,182,137,162,81,66,-93,15,14
9582,-165,216,-50,-821,-383,191,-379,33,48,-102,-43,54,163,-35,-130,-451,-314,-4,-2,86,-274,99,204,-257,199,147,51,230,182,-24,84,38
9583,-168,194,-22,-861,-383,276,-438,128,9,-103,-51,-134,49,-36,-105,-420,-373,-31,-22,77,-245,103,86,-295,198,167,-4,59,132,-8,69,38
9584,-98,234,38,-815,-362,274,-450,143,5,-95,-68,-538,95,-38,-98,-425,-392,-50,-46,76,-199,28,-13,-339,171,159,42,-132,23,-70,32,67
9585,-195,200,-127,-890,-378,167,-393,199,45,-85,-48,-653,222,-7,-77,-618,-246,2,-19,89,-177,98,-11,-320,180,180,168,-286,-96,-146,45,194
9586,-292,191,-193,-925,-406,139,-401,37,24,-102,-90,-745,196,-9,-89,-704,-244,-85,-19,88,-208,188,-64,-327,180,168,192,-135,-86,-149,76,215
9587,-238,226,-54,-788,-380,136,-445,-19,6,-115,-89,-616,114,-26,-122,-662,-302,-88,-51,53,-279,163,8,-335,135,90,-3,-28,-88,-223,-134,-162
9588,-253,263,-69,-835,-366,198,-435,83,-2,-88,-15,-89,72,-36,-96,-559,-257,64,-32,75,-270,134,92,-297,156,89,-47,-64,-100,-238,-155,-167
