,Fp1,Fp2,F7,F3,Fz,F4,F8,FC5,FC1,FC2,FC6,T7,C3,Cz,C4,T8,TP9,CP5,CP1,CP2,CP6,TP10,P7,P3,Pz,P4,P8,PO9,O1,Oz,O2,PO10
52365,326,496,851,-415,116,362,282,580,826,294,428,563,343,258,270,232,595,501,310,366,399,571,675,449,529,530,680,453,521,437,481,606
52366,316,478,838,-427,96,299,194,556,807,279,425,594,310,237,275,274,600,479,307,372,401,584,675,423,514,532,673,484,484,431,449,539
52367,265,485,800,-383,108,287,199,557,793,266,415,505,307,206,271,306,569,430,263,350,405,608,597,377,482,495,700,491,446,376,431,561
52368,256,464,810,-332,106,377,249,558,800,287,444,375,291,185,282,359,554,442,227,327,406,656,535,359,474,468,686,476,429,383,393,634
52369,263,493,871,-288,130,404,269,620,831,299,450,327,319,180,292,362,563,465,253,322,402,663,575,393,473,456,642,383,430,371,397,646
52370,268,507,863,-308,131,326,268,651,818,273,431,316,321,152,255,314,497,419,224,290,350,588,572,354,439,412,574,315,384,319,362,527
52371,201,520,817,-317,125,349,281,629,810,277,447,316,284,140,244,295,469,420,203,283,345,582,563,330,418,397,571,326,377,305,337,468
52372,167,566,807,-269,166,371,291,644,828,289,487,354,315,168,287,340,476,461,214,326,381,590,599,342,418,416,613,372,385,322,350,468
52373,221,496,608,-171,160,405,283,444,827,310,507,477,324,157,285,355,536,464,213,322,395,554,576,319,422,415,620,309,361,291,336,516
52374,261,507,531,-150,169,398,268,378,838,289,392,591,301,138,258,418,541,467,221,274,369,563,573,339,423,397,592,293,355,290,323,487
52375,217,559,680,-151,163,338,201,679,846,263,370,624,317,138,229,363,475,470,221,261,345,569,583,314,405,354,561,349,355,273,304,341
52376,102,472,754,-65,165,454,146,708,843,284,418,504,290,164,233,316,395,478,218,257,345,528,542,306,381,360,576,361,321,251,280,338
52377,185,401,849,-231,153,409,203,711,834,289,448,366,305,168,228,281,402,459,214,262,319,529,496,312,388,339,566,360,291,217,260,397
52378,308,441,854,-425,141,432,241,570,801,288,492,415,289,154,234,286,418,449,197,256,306,542,468,283,359,300,528,325,235,192,211,337
52379,294,495,814,-352,145,458,269,554,808,289,434,409,271,181,240,385,317,429,208,267,327,481,454,275,366,321,496,263,242,193,213,263
52380,324,568,779,-435,125,365,348,529,817,291,426,364,287,175,241,388,380,434,214,266,328,439,470,280,370,338,490,220,263,216,214,305
52381,229,510,824,-414,117,381,419,542,822,271,457,360,304,176,222,272,377,465,210,276,320,468,513,300,373,323,491,149,230,227,239,250
52382,175,441,828,-389,110,373,423,528,817,282,441,418,316,200,233,170,261,475,225,297,328,527,500,300,395,349,538,209,296,259,292,271
52383,188,475,752,-369,107,301,332,559,825,297,397,438,331,212,235,312,316,470,234,300,351,599,504,297,394,366,561,299,304,248,269,253
52384,158,514,699,-343,109,285,303,563,807,272,368,326,291,191,221,218,319,386,175,258,312,556,470,250,362,312,532,234,225,176,173,219
52385,147,439,713,-358,100,320,274,513,796,275,369,283,238,179,185,88,259,342,129,216,203,406,355,176,314,225,350,-8,92,31,57,159
52386,136,431,737,-359,115,322,269,513,800,278,427,281,209,189,186,185,264,307,146,222,160,469,288,152,305,191,241,-34,67,-10,38,139
52387,-11,429,738,-388,114,337,183,508,792,275,389,209,201,170,190,157,207,304,129,209,179,306,284,163,296,212,328,49,143,59,65,179
52388,1,397,721,-414,109,353,165,497,787,267,367,199,187,166,174,201,204,301,117,192,170,264,275,160,281,224,351,51,193,104,85,244
52389,120,434,729,-330,116,302,182,547,807,292,382,196,225,173,182,238,238,340,139,205,178,328,346,204,293,233,377,125,201,122,123,206
52390,149,439,673,-275,123,290,249,564,808,274,369,25,222,147,194,233,145,290,127,196,175,342,287,155,272,219,377,112,131,99,97,244
52391,113,409,528,-154,115,307,261,564,814,252,369,-1,211,114,185,170,180,238,97,172,192,388,237,130,245,205,369,120,118,99,101,328
52392,104,416,554,-124,139,352,234,601,837,252,388,-9,257,133,195,64,211,253,104,194,220,408,299,167,271,246,398,60,178,151,120,309
52393,-142,351,536,-147,173,402,215,555,840,267,409,-73,252,138,214,121,271,252,131,217,256,393,333,191,296,276,429,-27,179,159,150,291
52394,-305,331,439,-160,174,297,208,293,829,255,407,13,219,117,217,193,320,308,123,203,272,415,442,217,318,275,443,52,185,141,152,244
52395,-90,415,469,-64,176,276,183,377,854,264,391,173,278,123,215,243,249,372,151,205,278,467,470,217,296,296,484,136,193,144,150,280
52396,236,490,600,-103,180,310,246,678,875,246,404,266,325,140,212,283,317,436,186,229,323,550,523,275,326,329,544,180,178,152,213,406
52397,182,564,794,-202,176,330,286,658,884,255,431,524,353,154,224,335,447,499,240,255,346,573,628,339,381,354,547,252,281,241,262,409
52398,304,536,922,-286,145,314,275,556,843,253,424,611,354,144,220,356,495,462,237,246,344,595,617,345,382,383,557,210,318,253,279,359
52399,443,539,1046,-365,188,394,334,556,851,276,436,536,363,168,269,339,511,513,262,273,367,603,616,410,413,430,633,272,358,298,331,236
52400,372,546,973,-323,207,387,332,556,873,301,417,553,372,186,278,342,479,553,266,298,377,580,578,391,423,429,653,338,358,310,312,296
52401,352,485,893,-371,173,320,207,599,852,255,333,432,337,161,237,324,418,476,226,253,350,607,471,301,391,394,615,310,319,266,295,449
52402,315,459,833,-375,170,312,154,579,842,263,376,418,310,146,207,258,371,414,177,213,313,588,427,247,327,316,539,265,291,215,270,506
52403,226,450,789,-349,186,426,152,553,843,280,384,451,301,157,191,276,335,403,152,200,305,552,427,213,290,294,501,106,223,159,203,455
52404,141,323,670,-395,135,546,189,489,801,274,402,409,232,125,181,256,261,329,101,163,237,454,371,150,251,276,445,52,151,122,158,375
52405,127,307,677,-385,144,365,241,500,803,251,362,330,209,119,174,397,205,285,77,169,213,370,325,138,237,244,413,145,133,97,131,312
52406,174,327,759,-394,159,360,276,513,803,282,359,135,223,141,181,547,258,301,101,194,239,449,312,154,276,259,429,209,173,134,160,336
52407,163,343,770,-343,166,389,258,521,810,274,354,128,235,160,181,210,292,308,112,184,204,456,287,149,275,274,449,183,192,136,160,276
52408,143,396,740,-356,153,326,265,537,826,273,362,127,247,174,189,-29,307,340,109,213,210,405,322,175,280,273,484,203,205,151,185,165
52409,202,438,697,-324,170,299,294,600,837,311,424,25,283,199,232,-6,329,352,145,243,271,468,327,172,301,315,510,195,193,170,226,192
52410,102,271,604,-179,176,291,231,567,855,282,397,-13,264,179,217,66,261,314,127,232,289,403,255,132,296,292,564,96,163,149,177,126
52411,-64,210,440,-128,167,299,127,538,855,252,338,-36,241,128,181,97,142,307,91,208,249,326,204,117,267,272,576,-64,114,77,160,86
52412,-119,357,385,-87,152,294,144,553,856,248,333,159,229,141,163,133,200,295,87,203,246,336,305,124,258,258,524,-135,90,56,156,208
52413,-182,384,454,-45,167,318,113,590,853,272,350,315,232,154,176,218,342,305,86,204,252,396,479,174,272,267,495,-122,127,137,189,371
52414,-15,417,587,-114,177,385,44,622,837,280,370,205,221,131,185,250,305,317,98,192,257,463,513,191,289,268,466,4,188,179,220,425
52415,195,506,813,-172,176,252,54,533,830,263,362,205,219,112,188,301,300,328,109,216,297,500,476,191,302,293,470,79,228,215,232,410
52416,241,460,863,-205,171,286,188,512,830,269,355,394,232,125,215,197,386,353,118,235,284,487,532,243,325,317,480,106,287,256,277,397
52417,183,478,845,-276,178,312,347,448,806,288,393,541,202,107,236,195,468,372,118,244,364,523,517,242,340,368,568,169,309,281,287,421
52418,246,484,932,-344,166,367,380,498,821,291,428,365,218,109,254,268,419,390,138,251,398,540,515,266,338,398,658,215,309,311,305,361
52419,410,472,937,-327,176,400,357,503,836,292,420,242,263,94,231,201,426,404,127,220,327,420,484,250,329,360,586,251,283,303,302,335
52420,414,548,886,-394,183,341,372,435,815,297,443,300,276,82,224,315,450,433,133,201,290,466,447,260,334,371,554,360,332,321,306,488
52421,260,598,823,-347,183,330,336,358,821,294,431,253,282,94,221,310,449,444,144,198,291,530,438,284,335,352,534,396,388,352,328,608
52422,227,565,820,-254,184,340,274,607,845,265,373,280,322,99,200,243,429,469,153,195,293,565,449,284,343,349,514,354,369,331,328,556
52423,344,576,834,-313,181,318,243,664,850,281,361,360,328,94,207,311,380,451,163,207,312,608,413,265,349,366,558,304,346,302,328,479
52424,351,600,852,-330,186,360,252,609,827,292,418,401,293,73,211,325,394,410,140,200,300,578,423,248,323,330,532,274,307,286,279,446
52425,305,554,825,-286,175,459,188,589,834,281,364,475,274,80,178,464,393,386,134,183,286,630,422,223,314,301,496,253,274,252,260,421
52426,233,428,761,-267,193,596,100,596,864,311,322,450,296,135,169,651,410,421,167,208,281,633,473,266,356,320,526,306,311,297,282,453
52427,217,365,737,-292,177,457,110,573,847,305,424,347,299,121,211,174,416,434,177,207,251,514,515,283,343,311,508,229,287,276,253,423
52428,202,333,749,-259,164,469,187,552,860,299,418,326,302,116,214,53,316,426,182,203,259,490,434,268,348,332,498,220,263,253,251,396
52429,164,367,777,-224,176,456,290,583,881,317,427,413,311,168,229,225,416,438,207,238,285,484,421,295,384,345,490,280,298,270,251,335
52430,185,404,821,-205,189,428,343,605,878,333,439,478,305,169,246,333,534,433,208,282,320,405,462,294,384,356,580,289,326,276,275,215
52431,223,425,813,-217,164,267,309,653,861,285,405,352,294,151,197,295,467,389,179,245,299,514,458,274,347,331,621,289,302,223,202,37
52432,221,527,740,-232,158,193,289,614,857,276,396,339,286,146,215,288,411,419,173,223,318,549,474,282,345,321,605,305,309,236,200,36
52433,215,526,668,-323,153,361,276,586,840,278,400,340,311,167,233,251,361,420,149,226,324,521,472,250,335,312,605,284,298,237,220,259
52434,171,477,559,-344,142,217,230,566,838,260,381,336,289,165,188,207,278,405,130,202,287,493,444,204,329,278,555,222,264,205,182,328
52435,136,406,564,-232,127,239,147,523,852,267,364,262,282,165,186,209,287,385,147,204,262,505,461,225,322,261,522,105,267,205,196,388
52436,45,407,617,-232,120,282,113,550,843,273,369,36,286,190,192,212,433,366,143,211,276,492,486,218,317,273,498,171,276,219,206,489
52437,18,431,555,-200,127,298,218,557,842,282,392,160,265,176,221,265,482,370,144,207,274,524,493,211,315,282,456,293,260,218,199,520
52438,65,390,460,-100,120,335,242,595,830,262,396,259,253,166,216,282,425,336,130,209,279,540,466,197,326,279,490,263,245,205,187,380
52439,-146,470,557,-120,160,414,333,588,843,303,479,351,245,180,250,256,457,383,129,249,314,556,496,203,335,315,552,92,231,206,198,273
52440,-71,413,681,-50,159,460,356,580,837,312,478,231,244,158,240,233,314,326,80,219,285,508,377,124,290,275,502,-80,102,76,111,186
52441,258,539,760,-213,149,417,367,469,813,309,500,320,257,152,285,302,231,384,104,242,320,572,490,157,299,308,519,-36,104,106,119,261
52442,323,545,895,-375,136,333,362,483,804,304,466,418,281,181,294,354,323,419,151,280,360,581,607,233,340,361,553,-15,147,162,204,431
52443,272,523,913,-416,130,301,336,543,821,295,426,436,280,181,291,343,415,433,162,274,342,566,545,236,360,344,519,126,197,191,231,535
52444,336,490,911,-430,144,353,340,560,844,292,433,439,271,163,305,313,427,436,155,290,348,584,419,210,352,339,519,238,209,187,210,484
52445,309,464,857,-437,118,299,319,553,812,264,402,408,265,137,271,284,367,381,132,258,322,541,326,161,327,310,498,277,205,196,209,429
52446,270,454,816,-386,136,333,307,581,822,280,413,441,279,145,256,262,383,362,132,256,327,503,271,158,341,313,516,308,240,217,204,426
52447,289,437,825,-394,133,356,272,521,803,265,390,390,236,125,242,257,391,326,103,226,290,476,276,167,301,298,506,267,243,189,169,368
52448,203,416,789,-388,110,319,221,520,795,240,289,263,241,89,206,310,308,344,76,199,245,455,315,136,276,243,459,164,209,146,128,323
52449,17,371,729,-308,145,349,220,544,822,248,338,81,260,84,196,298,268,404,90,174,224,440,299,134,257,238,417,103,187,137,117,290
52450,95,386,626,-270,147,465,194,346,831,272,372,-4,269,85,181,326,393,386,95,159,199,453,247,110,231,200,395,113,139,71,57,237
52451,112,468,544,-213,148,407,168,518,833,269,344,-20,270,79,160,70,353,302,59,111,132,446,196,36,192,132,346,-49,-42,-73,-30,171
52452,-57,421,459,-194,163,356,135,609,828,261,404,-189,274,85,178,-63,310,273,47,110,158,429,209,44,183,140,370,57,47,28,37,153
52453,-111,281,442,-104,167,398,131,558,842,273,431,-73,285,99,208,120,299,349,76,125,197,378,288,113,209,172,414,158,126,98,82,25
52454,-61,206,478,-139,140,289,92,653,835,259,366,279,300,100,183,170,224,373,93,136,222,344,346,139,227,216,505,184,173,120,117,96
52455,6,325,511,-198,118,320,170,658,849,257,384,403,293,115,191,197,140,350,85,148,276,354,389,161,242,229,568,8,172,124,164,152
52456,23,380,557,-247,107,359,253,459,826,263,371,402,263,135,211,236,228,363,92,173,289,331,406,164,256,244,564,-10,158,97,167,215
52457,123,406,719,-370,125,234,262,375,808,272,347,124,247,147,210,166,356,333,97,187,214,455,380,145,275,246,522,71,144,118,184,252
52458,94,318,711,-419,95,207,207,462,792,262,317,-66,230,141,193,231,260,340,94,186,257,648,366,140,266,244,510,30,113,139,176,179
52459,153,383,771,-439,99,271,155,537,805,278,365,-5,243,179,231,333,203,343,111,223,313,523,373,142,281,264,559,-39,76,90,138,88
52460,163,364,812,-400,101,277,82,574,794,273,371,211,274,168,219,298,266,326,101,214,273,397,369,127,272,236,499,-110,67,46,100,104
52461,77,304,802,-467,96,235,94,519,781,257,360,367,282,165,223,249,326,328,122,220,267,333,396,131,295,249,476,-134,102,91,144,340
52462,25,345,829,-429,118,303,187,510,802,272,356,445,322,199,225,131,385,381,146,246,229,278,485,206,334,238,379,-6,187,144,171,526
52463,130,421,866,-383,141,299,246,558,836,286,356,548,343,227,250,116,433,450,185,274,262,378,571,259,376,285,388,99,262,224,258,542
52464,178,450,796,-341,135,236,280,595,825,269,384,532,317,213,264,158,367,423,170,275,306,356,537,259,366,331,467,152,265,232,243,453
52465,142,418,744,-376,126,270,284,587,805,271,392,497,305,194,251,222,336,408,162,263,317,358,520,250,333,280,495,223,259,181,165,321
52466,96,408,796,-327,140,305,287,597,833,285,411,494,311,190,275,321,394,425,182,272,326,533,446,253,360,291,541,295,322,197,202,306
52467,50,390,769,-308,114,288,264,610,826,273,382,470,312,179,263,303,483,437,151,248,355,474,463,244,347,294,622,304,332,244,219,196
52468,-23,405,618,-249,115,297,236,669,832,269,404,470,320,148,256,308,497,455,156,251,365,384,590,280,346,299,654,251,306,235,192,-38
52469,35,403,543,-173,142,320,203,701,860,286,419,408,352,158,283,281,522,466,182,278,362,466,553,305,359,327,635,292,349,261,245,285
52470,48,422,556,-118,163,343,255,527,865,290,435,364,357,142,279,174,553,446,166,241,302,490,469,298,335,297,477,359,386,269,226,353
52471,17,399,531,-83,168,345,252,431,856,312,421,386,365,131,293,330,525,448,174,260,340,427,495,323,357,313,603,364,427,322,262,-42
52472,108,360,603,-158,167,408,172,634,857,327,415,375,374,125,294,332,456,470,199,287,374,473,562,351,363,338,714,288,424,305,254,-380
52473,86,410,788,-175,182,368,174,664,849,319,381,405,379,115,288,294,416,517,187,271,349,453,628,340,355,315,618,207,377,258,225,100
52474,156,443,776,-158,163,381,250,659,839,295,362,356,362,82,255,172,361,473,140,211,263,380,536,284,321,257,382,365,376,265,219,470
52475,267,344,832,-238,153,413,306,630,845,302,386,360,338,67,270,244,390,440,135,233,274,447,436,249,314,273,357,320,313,240,226,494
52476,135,348,879,-284,192,465,283,619,869,327,448,429,352,95,307,225,380,433,163,258,297,490,430,263,331,315,406,274,267,238,221,559
52477,99,368,844,-362,173,462,281,596,836,318,450,390,334,91,296,80,376,470,148,246,304,431,438,262,337,312,403,286,282,237,245,452
52478,140,456,862,-333,165,385,281,562,828,298,462,278,315,97,286,122,455,466,141,246,315,401,393,245,335,323,422,188,237,215,241,470
52479,162,456,817,-303,154,337,310,544,835,293,432,61,294,96,285,201,452,387,142,256,301,442,279,197,307,324,433,-22,153,154,227,474
52480,171,433,777,-303,158,349,310,531,840,306,422,48,300,121,291,209,363,376,148,256,356,457,318,214,322,332,497,-20,207,197,234,317
52481,-58,353,727,-255,153,354,259,618,857,298,405,226,329,142,287,209,320,386,160,265,361,361,432,242,340,344,522,42,227,209,226,165
52482,123,356,768,-323,141,300,235,615,847,297,379,412,358,165,281,258,323,440,193,287,357,335,518,287,367,380,524,109,255,232,254,358
52483,244,385,819,-355,146,272,218,590,843,301,382,384,352,170,291,307,361,432,184,292,348,380,482,257,366,372,477,142,247,222,262,451
52484,200,380,826,-383,139,230,172,575,825,297,334,337,339,173,253,184,329,405,178,285,293,390,430,243,335,319,456,63,205,174,231,405
52485,219,374,801,-402,131,258,163,551,824,297,357,270,334,180,258,198,314,393,173,261,282,380,444,241,325,313,457,-40,148,125,191,279
52486,177,371,744,-340,147,321,143,530,845,320,384,289,335,197,293,197,349,401,189,278,330,439,441,240,340,342,504,37,174,142,216,289
52487,154,345,670,-308,118,283,109,545,844,291,366,353,323,191,275,153,309,388,156,268,308,389,379,233,328,319,468,135,176,125,187,264
52488,195,349,602,-275,126,245,110,597,845,288,360,382,346,181,257,200,301,377,149,254,299,442,342,209,313,303,460,135,147,107,194,170
52489,96,330,632,-270,143,417,158,616,847,310,402,395,333,176,272,204,371,369,134,254,299,462,368,164,294,312,514,109,120,97,158,210
52490,83,373,700,-192,159,390,223,651,868,324,427,434,347,197,308,161,412,404,183,267,293,355,375,198,323,333,516,119,150,105,178,236
52491,15,425,673,-237,144,298,211,604,860,274,358,396,331,170,279,126,382,391,175,234,251,352,372,201,317,307,466,131,146,113,198,230
52492,131,491,701,-259,142,302,211,623,854,264,349,283,323,148,252,144,364,409,148,208,247,350,364,193,297,291,444,99,128,108,167,336
52493,244,400,790,-278,157,388,287,642,860,287,378,184,318,144,247,157,337,404,166,216,263,383,372,190,287,294,430,9,130,87,170,431
52494,175,383,778,-317,148,327,272,611,860,256,344,294,321,119,242,152,236,408,145,210,294,486,429,202,275,274,494,-76,136,88,172,364
52495,-9,394,717,-145,167,322,195,659,859,248,322,323,360,120,205,154,233,426,145,165,250,402,415,192,267,231,493,-109,133,80,148,146
52496,-130,363,623,-156,145,400,161,517,844,266,345,311,335,123,197,180,247,366,132,166,198,368,307,191,268,230,425,-40,120,72,130,128
52497,-60,358,637,-207,153,329,184,418,856,256,311,310,298,130,206,278,178,327,149,187,224,408,250,170,270,246,456,58,106,77,165,302
52498,91,314,696,-213,131,260,191,587,840,240,274,15,307,125,178,179,75,276,129,178,214,463,227,143,260,227,461,91,107,71,153,378
52499,242,378,777,-287,128,333,263,531,831,264,306,53,308,152,226,-23,222,323,151,211,212,443,326,187,305,238,450,83,149,109,167,378
52500,211,338,839,-360,140,370,250,594,840,298,365,131,310,187,269,34,316,375,182,256,253,394,389,222,324,258,455,-35,176,138,159,290
52501,154,365,680,-343,131,337,235,565,828,295,383,91,327,205,278,144,214,386,196,269,262,376,415,221,335,286,488,-206,155,114,163,287
52502,144,356,537,-381,122,334,208,525,826,302,381,124,322,186,276,112,191,374,199,268,265,407,406,223,338,296,508,-42,152,110,174,318
52503,177,417,572,-400,118,328,200,516,823,299,398,150,261,162,279,165,195,339,179,253,283,402,376,200,334,288,499,87,170,136,199,372
52504,173,396,593,-356,122,339,149,497,822,313,401,128,280,185,288,180,195,326,150,258,290,405,345,164,319,295,480,184,164,152,169,397
52505,188,391,670,-366,137,406,234,534,822,327,394,60,275,182,302,189,186,314,130,251,287,484,341,153,321,305,497,238,161,134,162,336
52506,177,451,790,-348,159,368,338,557,818,315,387,-37,224,179,299,235,285,260,103,256,298,545,241,90,299,296,531,124,87,60,147,228
52507,17,375,782,-366,142,390,333,527,822,300,382,102,210,156,287,273,242,238,86,232,272,522,191,67,263,243,490,127,49,40,136,193
52508,74,369,718,-375,133,407,195,440,801,292,337,199,194,139,272,411,246,289,98,210,250,471,196,94,258,221,433,244,103,72,145,265
52509,63,437,643,-296,136,375,38,446,820,283,373,-3,228,143,272,382,302,330,101,213,238,377,223,109,263,213,437,150,148,76,108,285
52510,-49,431,601,-156,148,282,-12,511,849,277,351,96,266,155,241,202,347,348,124,196,207,405,311,144,247,179,426,140,147,78,132,355
52511,109,402,590,-160,137,291,109,535,848,262,297,279,285,155,213,77,324,357,119,183,189,510,423,195,244,190,438,173,173,141,186,377
52512,156,454,622,-143,146,253,203,609,866,260,267,390,317,167,223,13,357,441,152,189,195,434,585,251,263,218,437,202,242,177,197,407
52513,120,494,607,-209,149,336,363,633,852,252,330,403,272,157,214,77,489,441,138,185,235,413,601,214,255,209,479,244,283,184,140,309
52514,114,510,666,-260,159,313,381,612,845,263,366,506,266,116,225,184,467,412,105,176,274,403,605,221,240,223,512,249,246,169,151,70
