,Fp1,Fp2,F7,F3,Fz,F4,F8,FC5,FC1,FC2,FC6,T7,C3,Cz,C4,T8,TP9,CP5,CP1,CP2,CP6,TP10,P7,P3,Pz,P4,P8,PO9,O1,Oz,O2,PO10
133438,416,46,740,269,188,443,415,693,136,104,309,518,398,125,226,193,282,275,356,146,262,260,528,347,414,490,451,326,639,318,248,199
133439,408,46,744,275,189,442,381,703,142,97,300,539,415,125,223,212,277,280,364,152,264,226,491,337,423,487,443,213,562,293,237,197
133440,390,10,719,228,161,420,368,706,145,88,286,528,417,114,233,253,316,283,354,143,237,378,447,348,429,466,413,258,588,291,225,208
133441,368,-3,723,235,158,424,386,711,158,104,283,498,441,132,219,204,324,296,380,156,220,511,509,381,438,460,431,498,704,352,263,276
133442,350,-4,711,228,134,408,332,702,152,87,278,489,436,130,198,46,315,308,368,145,211,496,524,390,433,459,445,499,716,365,248,224
133443,369,-22,676,234,146,394,346,676,137,98,266,459,419,127,200,41,339,305,374,142,196,470,500,374,442,443,472,521,752,378,243,162
133444,392,-5,636,213,162,404,378,663,133,111,269,471,414,135,213,183,273,283,362,146,226,456,484,359,440,434,471,425,677,326,204,143
133445,415,43,679,221,174,411,364,673,148,117,279,489,416,125,219,123,260,277,350,138,204,430,444,323,422,416,364,268,540,247,142,158
133446,383,29,673,243,168,423,393,679,149,119,299,469,416,124,226,60,309,282,355,148,199,419,451,313,409,405,304,190,518,237,127,133
133447,362,-9,654,213,142,407,366,686,141,98,283,461,406,121,222,160,337,267,347,141,193,406,461,313,399,376,266,187,538,236,120,120
133448,358,3,652,200,130,413,356,674,142,104,277,467,413,119,226,251,318,254,350,136,198,369,451,297,386,376,291,104,505,216,124,112
133449,333,6,636,218,138,408,357,660,147,118,296,473,416,132,235,249,293,267,356,139,199,301,491,300,390,398,322,216,563,250,149,132
133450,343,-12,645,238,137,403,318,659,161,114,267,442,432,148,220,221,325,258,355,134,186,205,485,304,383,376,315,285,598,262,128,75
133451,363,-17,645,209,116,384,322,646,155,103,256,412,422,148,202,204,298,234,343,138,164,238,448,283,363,380,325,209,580,256,143,68
133452,374,8,653,224,131,420,366,645,148,104,308,308,407,150,217,244,277,209,349,137,203,355,351,261,338,390,391,143,515,209,142,107
133453,351,27,628,231,130,409,345,632,151,81,294,187,408,131,194,157,271,191,311,97,189,330,319,249,328,340,369,173,482,181,80,71
133454,363,34,641,237,144,412,352,675,172,86,299,335,418,114,201,30,280,234,327,101,185,345,417,308,341,346,321,375,606,246,118,74
133455,383,36,659,265,154,424,369,695,157,101,308,472,452,118,231,66,292,269,359,116,237,361,478,333,364,385,344,555,698,291,157,65
133456,373,27,658,268,159,429,383,679,175,83,335,511,443,102,247,183,250,275,344,118,265,303,524,329,364,390,343,605,683,265,135,74
133457,378,13,661,257,153,430,375,695,175,83,324,485,443,105,232,134,213,298,352,107,250,159,504,328,343,397,390,336,585,237,120,135
133458,369,8,649,260,130,401,346,678,151,76,292,426,443,107,214,-19,248,290,354,93,234,206,422,320,343,397,418,149,577,236,131,125
133459,405,43,660,263,151,427,381,691,181,99,339,426,450,126,240,5,294,268,352,105,213,412,402,326,348,396,448,221,599,233,133,105
133460,398,45,633,254,163,430,397,683,185,106,361,420,448,126,240,178,232,227,348,123,213,445,414,312,329,405,414,232,578,239,121,109
133461,392,54,611,242,150,416,394,651,166,80,326,414,428,109,205,242,158,226,343,92,177,365,385,288,323,394,337,236,556,226,132,80
133462,389,41,602,249,153,407,378,645,160,80,299,409,435,103,206,-46,197,229,311,106,165,358,398,289,324,404,342,228,582,247,169,117
133463,427,61,600,269,170,438,405,653,175,106,344,391,447,124,231,-81,216,231,328,115,223,397,395,298,345,453,446,184,608,262,167,172
133464,432,81,586,220,172,452,408,626,156,104,367,343,445,111,252,344,107,216,341,111,299,398,384,292,357,482,601,152,567,239,179,76
133465,409,94,637,295,182,465,395,663,184,115,347,394,459,130,248,365,108,238,345,138,293,353,392,310,393,489,500,173,584,279,218,109
133466,396,58,627,300,170,461,375,660,170,108,329,437,454,129,222,86,195,241,334,127,227,290,450,317,388,456,301,163,609,293,220,192
133467,404,83,633,271,173,470,379,662,169,131,332,441,438,137,229,137,240,244,344,141,200,329,482,334,398,477,310,199,634,304,237,188
133468,383,64,627,254,160,456,369,633,159,135,304,414,442,131,231,242,300,247,342,156,190,366,499,345,407,481,323,276,698,344,276,166
133469,378,31,621,225,157,438,349,629,134,130,285,398,441,142,218,229,317,254,354,137,183,358,492,355,382,464,305,268,695,348,241,156
133470,370,50,619,226,166,447,344,624,160,139,288,395,447,138,223,196,249,253,375,160,173,325,530,361,394,458,314,258,683,342,267,145
133471,350,32,608,234,159,424,321,598,157,124,280,356,418,122,228,166,184,256,349,159,171,295,547,369,391,449,331,230,661,319,256,168
133472,358,4,595,224,156,419,324,592,138,109,275,356,429,117,213,148,170,252,321,141,177,212,506,353,362,435,326,125,622,283,209,169
133473,346,9,598,231,163,437,347,596,154,114,305,334,413,112,229,156,152,195,309,120,188,231,385,302,326,405,329,5,563,260,178,165
133474,313,24,570,250,177,437,322,584,145,127,299,324,398,84,239,162,94,189,291,109,207,318,374,284,311,412,348,57,590,252,168,122
133475,300,22,566,232,181,441,340,577,124,123,295,324,398,57,230,170,182,196,270,102,222,276,393,283,307,422,418,125,608,274,177,162
133476,321,35,573,241,185,455,341,575,138,107,283,323,386,57,236,98,275,199,276,81,232,208,390,286,296,415,404,99,610,250,177,116
133477,314,39,542,227,210,436,301,549,121,118,288,275,373,40,234,-50,204,196,241,80,214,307,417,270,257,387,315,137,608,255,179,70
133478,302,19,512,195,195,434,297,528,107,108,271,251,334,11,212,-65,106,167,223,55,204,390,409,260,252,372,305,128,628,279,181,133
133479,322,42,526,224,194,459,336,557,111,121,297,285,328,34,238,-93,122,134,225,47,224,326,333,265,252,381,368,216,645,306,201,189
133480,330,35,530,244,200,463,358,582,121,136,319,308,339,49,266,95,142,158,239,87,267,302,356,283,267,414,445,329,705,349,239,133
133481,326,39,521,227,185,448,342,574,132,115,300,310,330,31,242,183,102,159,245,80,211,292,372,289,287,413,414,337,747,346,252,162
133482,318,40,519,214,181,424,324,548,93,88,285,297,324,30,202,29,122,136,220,56,148,290,348,251,273,394,402,362,723,329,236,145
133483,342,35,565,208,191,442,324,543,85,91,290,286,300,39,208,-132,166,118,199,21,158,262,281,197,233,372,371,154,586,239,180,149
133484,345,38,545,212,201,442,323,535,98,97,284,165,292,25,213,41,107,75,195,10,171,307,217,162,209,352,367,-68,470,191,126,175
133485,323,45,543,216,203,414,291,540,87,79,275,55,283,10,194,255,45,41,164,5,175,330,199,143,180,321,361,-81,472,179,95,153
133486,334,56,573,230,209,428,306,539,93,106,268,212,304,16,165,225,61,69,183,-3,161,361,232,148,186,319,405,-58,463,184,101,135
133487,354,77,602,245,198,446,334,557,91,103,274,365,295,19,167,114,131,92,181,5,138,319,285,158,209,312,400,26,473,181,82,127
133488,322,43,573,222,187,434,330,548,75,96,254,350,274,1,159,-54,124,55,167,0,114,187,230,139,176,281,326,-29,424,136,2,62
133489,297,24,558,208,193,427,297,525,72,92,253,303,251,-5,165,-154,113,32,163,-15,91,119,154,86,143,244,262,-164,356,85,-42,37
133490,278,4,542,181,165,416,295,498,69,84,235,268,249,0,145,-186,101,12,140,-19,68,223,158,71,136,233,257,-197,331,58,-70,-6
133491,302,13,552,168,170,412,285,499,65,95,216,243,227,5,131,129,48,3,138,-11,60,292,133,52,141,227,243,-289,279,33,-78,-71
133492,303,6,547,167,186,393,291,485,68,101,200,264,216,21,119,298,16,-2,147,-6,38,94,132,91,147,209,176,-217,353,67,-43,-32
133493,312,11,537,163,205,413,306,490,79,103,197,244,232,27,113,213,20,11,145,-20,17,-20,154,88,155,181,113,-128,404,73,-53,-12
133494,302,34,531,172,186,411,311,490,76,91,195,209,248,11,103,114,43,64,145,-22,-5,68,195,105,162,141,66,85,504,96,-87,-63
133495,269,13,528,170,158,391,273,493,66,89,176,221,249,-3,87,60,58,76,155,-40,5,200,237,127,154,144,75,149,533,119,-56,-84
133496,268,-6,518,180,172,386,274,500,70,97,186,234,256,10,111,26,-24,47,165,-18,35,264,209,111,150,165,107,-8,428,93,-43,-73
133497,290,16,526,169,169,390,295,489,68,95,191,241,233,25,114,-73,-66,12,144,-31,45,268,120,68,132,154,125,-401,219,7,-71,-101
133498,274,-14,521,165,156,380,273,468,64,88,181,215,242,30,114,-54,-127,7,140,-9,69,248,69,60,180,184,171,-464,212,43,-32,-43
133499,249,-10,534,174,158,368,275,479,73,82,180,227,266,51,123,93,-60,18,178,12,85,227,49,89,185,217,240,-340,301,98,-3,23
133500,284,11,558,198,165,380,286,489,79,78,190,281,253,52,110,92,41,15,195,0,66,237,80,117,195,246,255,-173,407,167,52,-2
133501,316,37,576,193,188,405,308,514,101,96,221,297,269,45,150,-10,71,27,220,31,92,306,91,141,220,285,279,-33,495,230,120,40
133502,331,55,584,210,229,421,342,542,106,100,253,280,293,72,188,-115,91,66,240,47,143,299,165,169,261,308,320,94,550,272,130,58
133503,316,14,551,221,207,391,306,548,99,95,249,291,312,73,160,-110,43,55,236,41,149,218,249,186,260,303,294,274,595,275,122,-3
133504,299,16,554,206,176,360,292,529,61,75,218,298,285,46,136,-105,2,28,211,16,117,223,192,143,210,258,258,55,499,203,68,-10
133505,342,55,607,210,198,379,314,557,75,77,207,257,296,48,147,-60,-4,59,210,29,108,281,169,146,212,259,233,-205,451,185,59,6
133506,352,54,629,237,201,380,288,569,76,79,202,131,312,55,148,72,72,83,217,28,106,272,155,149,222,259,234,-264,433,177,76,42
133507,369,48,637,249,196,384,308,574,87,90,205,224,324,54,135,164,160,63,209,19,108,273,151,142,220,246,243,-133,386,137,53,67
133508,393,53,641,227,215,426,350,572,72,116,243,362,302,65,156,250,218,57,190,3,136,350,113,101,191,250,297,-376,251,61,7,62
133509,385,48,612,217,215,438,362,572,77,102,253,422,288,51,142,227,115,48,176,0,122,344,99,81,188,225,284,-415,254,63,9,55
133510,365,33,627,257,213,402,306,595,88,107,203,426,300,38,114,77,88,67,189,-16,66,257,127,91,184,214,241,-202,321,78,-23,43
133511,359,20,611,244,202,385,312,542,66,102,216,400,283,42,124,-73,167,83,198,0,92,231,167,121,197,239,267,-52,385,107,7,37
133512,353,46,616,220,209,406,335,532,79,92,242,371,287,44,138,89,166,85,199,20,138,140,188,139,209,270,285,5,412,123,19,37
133513,342,62,592,215,210,409,342,534,78,96,238,352,290,64,144,282,185,103,219,51,179,167,156,124,229,270,292,-182,353,97,-5,25
133514,367,71,591,206,218,412,354,526,66,105,220,364,282,65,134,316,165,98,227,49,139,330,151,127,232,286,316,-339,277,58,-12,24
133515,336,72,617,193,206,392,327,540,65,96,218,361,307,70,143,259,184,108,228,38,159,407,240,171,244,305,371,-246,306,74,24,66
133516,320,59,615,182,179,387,311,561,62,82,208,352,317,77,152,189,176,122,233,49,187,377,279,170,245,325,454,-170,358,93,19,10
133517,320,63,619,171,203,417,357,569,73,107,238,377,334,97,182,136,130,166,270,82,202,374,251,202,282,345,460,-113,392,143,40,68
133518,305,62,595,151,182,394,375,533,59,93,243,375,303,76,182,30,132,167,263,71,217,378,242,216,305,366,370,-79,433,153,40,59
133519,311,96,591,158,164,407,375,534,66,93,268,373,318,68,186,-207,169,181,292,75,241,356,276,222,320,375,324,29,491,187,101,99
133520,336,88,615,161,164,420,387,564,62,117,274,399,343,99,223,-11,203,196,323,109,251,240,327,271,340,404,325,128,546,238,141,85
133521,319,52,609,132,154,401,348,542,30,85,225,379,333,87,175,282,216,191,304,80,189,149,332,282,330,375,298,141,550,240,97,20
133522,294,31,581,146,144,372,288,537,56,68,204,371,347,75,130,336,251,223,310,59,134,194,366,281,343,372,340,97,580,257,122,101
133523,337,45,595,164,151,375,299,575,65,68,220,384,363,89,151,250,267,265,327,67,119,280,426,324,356,360,381,113,596,289,139,100
133524,347,82,636,188,166,412,329,574,75,85,223,405,380,107,153,206,207,264,340,83,115,319,445,346,374,355,370,131,620,306,156,118
133525,327,83,589,159,165,410,338,568,80,87,224,407,372,96,150,161,159,225,335,69,110,347,381,325,378,378,369,123,636,304,164,83
133526,334,54,602,165,182,422,333,577,88,102,216,389,362,98,155,-47,47,207,328,74,104,368,352,315,364,382,326,158,650,306,175,90
133527,328,10,600,180,173,407,284,569,68,80,208,368,358,73,138,-339,57,197,334,56,54,316,342,309,353,351,262,170,650,293,167,100
133528,309,20,611,176,195,383,273,581,76,85,210,381,362,77,144,-295,98,229,324,38,67,264,360,323,341,336,238,114,625,284,148,128
133529,313,25,647,197,182,377,288,586,84,64,200,363,362,79,125,24,86,246,310,36,77,262,351,322,333,322,289,78,597,255,140,127
133530,330,33,658,198,158,372,305,586,81,77,185,351,366,71,109,186,109,235,305,9,66,279,416,329,319,314,361,167,638,285,148,132
133531,278,17,630,198,142,346,260,607,75,53,170,382,368,55,112,99,173,217,303,0,39,199,452,346,311,297,329,297,708,334,166,90
133532,268,-3,617,189,148,341,252,605,89,57,181,413,365,53,111,44,232,225,297,-6,57,195,397,338,315,272,299,320,674,310,145,82
133533,252,3,592,184,154,350,277,588,83,52,189,243,371,39,93,69,143,236,291,-28,50,141,347,302,283,249,250,68,591,267,118,92
133534,276,-8,589,193,157,362,303,596,82,57,190,217,389,48,118,132,170,218,288,-18,55,128,341,278,291,258,203,96,569,261,122,150
133535,274,-28,584,199,147,346,272,582,85,57,186,359,372,35,98,-26,200,175,261,-22,44,245,303,246,253,231,203,149,497,199,96,121
133536,274,-16,593,213,145,344,280,588,99,68,214,458,359,42,106,-34,247,167,266,-13,103,390,298,236,244,246,283,42,461,197,118,107
133537,271,-4,589,199,161,348,278,602,74,75,214,431,358,58,143,186,253,139,273,0,120,372,251,223,249,244,310,-63,445,204,110,69
133538,272,-13,595,193,149,364,297,601,56,71,210,396,366,50,140,272,249,150,265,9,136,329,258,222,239,252,309,-12,486,215,121,129
133539,279,9,592,192,159,377,342,594,64,57,231,386,357,46,150,241,203,146,259,8,154,337,280,227,235,262,353,5,456,186,66,161
133540,290,16,607,207,178,399,346,591,91,96,263,364,341,53,194,255,156,159,259,24,165,360,290,227,240,288,409,131,499,194,81,100
133541,263,16,577,173,158,403,327,581,73,88,238,354,320,34,175,243,123,130,249,14,118,391,303,200,216,241,336,140,463,171,40,94
133542,278,27,537,166,164,422,319,572,75,119,250,357,336,37,179,207,37,123,237,22,94,369,284,167,215,206,212,82,393,108,-19,90
133543,287,21,551,193,175,440,331,570,77,130,262,369,313,59,193,184,115,123,227,45,97,330,301,183,236,209,203,152,414,116,-16,93
133544,259,-2,523,157,157,410,298,519,56,114,239,306,292,41,193,86,110,86,213,34,95,261,232,151,208,215,228,202,357,73,-71,80
133545,265,13,542,144,167,398,303,499,46,106,236,271,278,39,178,-255,101,40,201,26,64,134,152,111,184,230,227,-40,229,-21,-131,10
133546,259,-3,530,128,162,397,277,491,37,78,217,253,279,50,170,-589,101,15,188,40,39,179,125,83,183,214,202,-159,191,-47,-171,-45
133547,281,50,537,130,177,424,322,499,62,127,247,285,292,77,202,-130,110,43,227,65,103,302,139,105,210,234,266,-113,215,-23,-155,-55
133548,214,-4,468,68,167,393,284,470,38,96,225,274,273,66,162,274,3,48,209,49,91,330,136,101,204,215,247,-122,208,-19,-142,1
133549,180,-39,482,122,146,364,238,469,55,71,187,251,269,66,136,166,-31,48,214,68,50,313,136,100,196,215,201,-75,236,-25,-157,8
133550,197,-35,472,146,156,373,253,485,53,92,197,230,269,71,140,107,-29,33,211,59,53,253,125,91,208,218,160,-24,227,-19,-159,-40
133551,187,-38,447,152,135,342,270,485,58,93,192,217,253,67,137,172,-59,21,199,51,48,166,90,72,206,195,180,-66,192,-33,-202,-59
133552,193,-53,450,138,126,332,239,475,49,68,170,209,234,34,102,130,-59,17,171,11,16,118,105,53,174,183,187,-75,178,-66,-217,-100
133553,200,-14,494,164,163,370,256,503,84,92,176,165,295,67,131,163,-68,36,197,37,53,200,92,50,191,215,241,-200,136,-73,-192,-77
133554,185,-16,485,187,162,351,230,502,83,86,162,24,308,83,121,122,-118,47,207,55,56,205,50,53,196,211,239,-315,51,-100,-181,-99
133555,162,-34,477,186,149,326,204,489,83,71,161,84,290,73,118,70,-121,63,229,51,71,175,110,88,215,223,233,-109,178,-28,-150,-95
133556,180,-43,461,151,125,323,208,449,74,78,144,190,276,68,108,57,-98,7,213,41,91,169,135,102,236,236,191,148,300,41,-113,-121
133557,178,-29,454,157,129,333,201,450,63,68,107,289,292,79,113,25,-77,52,245,48,79,107,200,139,248,240,180,319,393,108,-83,-144
133558,208,-37,441,136,138,320,198,464,57,59,123,246,287,50,110,-130,-71,80,242,43,52,-2,203,127,227,213,129,23,256,23,-120,-119
133559,222,-43,445,122,142,304,221,477,48,55,155,210,270,48,120,-347,12,73,222,24,73,62,160,86,212,208,151,-353,118,-36,-136,-53
133560,227,-51,469,147,161,292,229,493,66,70,162,261,294,70,143,-109,22,76,233,41,89,191,150,120,255,252,261,-233,180,13,-72,-35
133561,239,-33,453,141,157,299,222,483,52,62,158,312,312,72,120,183,0,99,265,45,72,267,198,149,280,263,322,79,317,101,-19,-32
133562,245,-26,478,159,163,290,223,503,58,39,143,315,317,85,98,243,29,146,273,36,76,217,260,189,280,253,289,186,376,140,-1,-41
133563,294,16,506,160,166,306,252,513,66,55,150,323,330,94,115,170,8,151,276,46,98,197,297,199,306,268,237,156,365,157,25,-42
133564,300,29,492,145,162,309,279,496,58,44,170,302,308,77,113,89,17,104,256,46,101,248,184,182,285,267,194,-24,277,128,7,10
133565,292,21,497,149,173,329,293,502,61,58,190,308,313,90,118,-79,56,88,258,54,87,244,114,168,278,288,251,-155,262,100,21,-10
133566,289,44,532,129,175,360,287,513,77,69,189,336,327,93,130,-136,94,102,266,69,113,176,161,182,301,321,331,-76,313,113,43,-53
133567,273,55,556,154,176,361,294,522,84,58,204,314,326,93,132,6,35,118,281,76,147,134,158,173,307,326,311,-101,292,109,18,-42
133568,271,40,520,159,175,335,270,502,62,38,191,300,315,81,105,47,-58,116,261,54,84,152,227,161,292,295,249,-102,301,104,15,5
133569,249,36,477,122,143,330,274,493,46,9,169,287,289,50,91,-89,-23,111,249,14,46,151,248,156,249,270,171,-35,270,61,-15,21
133570,293,74,527,165,177,359,292,549,62,45,190,319,323,84,126,-39,24,131,275,47,47,182,219,194,292,299,248,-32,286,41,1,-14
133571,299,76,522,154,184,379,293,560,77,59,201,342,351,84,141,138,33,129,278,55,94,180,230,189,291,304,284,-105,288,62,-18,-47
133572,297,82,546,154,194,371,291,550,70,57,192,357,340,77,106,171,4,167,265,29,108,140,238,203,260,303,244,-33,319,62,-50,-59
133573,275,15,547,146,175,338,228,515,60,2,143,351,335,61,65,147,42,149,262,12,78,99,307,214,258,278,218,52,360,59,-44,-65
133574,277,31,546,156,184,344,219,521,86,22,122,342,351,46,85,95,77,162,276,16,65,111,337,239,275,272,219,127,426,96,-3,39
133575,281,37,547,146,191,347,227,505,68,39,137,303,334,44,95,-168,100,155,260,14,44,102,251,228,272,260,212,62,388,55,-3,43
133576,290,62,573,175,195,340,237,504,59,30,152,332,329,36,63,-194,121,138,249,3,3,96,230,211,258,258,289,-35,339,36,-33,36
133577,271,76,570,199,188,351,252,528,68,55,147,361,324,49,71,140,137,160,255,4,1,118,294,241,272,257,327,92,414,79,-27,35
133578,282,48,571,154,183,368,265,527,63,48,148,358,341,60,60,189,149,180,267,7,5,154,355,255,259,238,336,179,470,96,-21,87
133579,279,19,569,148,164,314,219,528,29,32,95,254,339,47,35,-170,110,224,260,-17,-24,150,392,263,237,204,305,293,517,110,-37,56
133580,283,47,550,154,175,330,210,557,27,32,114,186,359,55,55,-418,148,273,280,-12,-22,218,468,280,245,217,262,454,601,159,-23,-33
133581,311,56,578,172,192,361,225,564,59,39,174,320,355,71,105,-107,190,264,293,10,8,259,499,300,283,239,218,593,685,229,29,31
133582,324,48,601,169,169,351,248,542,72,47,158,434,337,66,98,96,149,203,275,10,23,246,435,285,281,229,226,464,615,176,11,33
133583,320,39,565,151,166,312,221,540,60,20,121,461,331,52,79,105,172,177,254,-6,7,233,441,266,251,235,241,406,606,187,16,43
133584,326,47,594,161,179,311,216,565,64,18,117,450,330,52,66,177,248,172,225,-18,2,219,389,209,202,225,290,253,517,150,7,61
133585,364,93,629,180,189,336,259,576,58,37,151,431,318,40,72,209,234,148,188,-43,18,290,324,165,169,191,327,-6,327,8,-71,59
133586,362,114,631,181,191,347,298,579,62,27,161,419,326,41,63,182,224,157,177,-58,6,301,357,155,166,167,323,6,364,40,-56,62
