,Fp1,Fp2,F7,F3,Fz,F4,F8,FC5,FC1,FC2,FC6,T7,C3,Cz,C4,T8,TP9,CP5,CP1,CP2,CP6,TP10,P7,P3,Pz,P4,P8,PO9,O1,Oz,O2,PO10
19014,-12,118,44,-59,-196,-192,-8,229,-118,28,-1,-195,152,-140,6,15,-233,-297,-146,34,-473,-20,73,-185,-110,-167,-50,-263,-164,-328,-162,-266
19015,-61,85,15,-40,-190,-221,-52,249,-106,5,-34,-204,154,-143,-11,-15,-264,-293,-147,27,-512,-25,65,-183,-131,-193,-92,-205,-147,-356,-201,-311
19016,-95,43,-36,-61,-220,-243,-64,224,-112,-26,-57,-239,120,-164,-46,-67,-315,-325,-181,-19,-549,-74,-2,-233,-180,-239,-158,-377,-250,-442,-263,-362
19017,-57,45,13,-50,-208,-235,-50,249,-96,0,-55,-222,137,-155,-52,-137,-319,-312,-189,-26,-569,-244,-26,-244,-190,-260,-181,-502,-314,-477,-304,-370
19018,-49,42,18,-44,-205,-258,-70,255,-79,-6,-103,-214,152,-157,-78,-131,-341,-326,-179,-6,-553,-153,-28,-223,-179,-243,-138,-537,-288,-433,-259,-327
19019,-56,29,8,-54,-226,-287,-91,239,-90,-29,-120,-220,137,-186,-92,-108,-301,-298,-175,-2,-544,-102,-3,-213,-166,-228,-138,-406,-245,-392,-214,-344
19020,-80,12,-16,-82,-236,-307,-93,206,-96,-33,-120,-226,150,-165,-74,-66,-273,-275,-165,-7,-547,-114,66,-195,-147,-202,-135,-227,-149,-344,-184,-341
19021,-85,14,-16,-95,-232,-310,-71,183,-92,-45,-134,-199,137,-168,-63,-9,-268,-263,-142,6,-523,-82,51,-186,-129,-172,-87,-272,-138,-299,-122,-273
19022,-71,12,-42,-124,-236,-309,-98,183,-92,-52,-114,-225,120,-166,-69,-24,-280,-277,-173,9,-510,-80,29,-219,-145,-166,-100,-397,-191,-322,-141,-285
19023,-93,-5,-64,-119,-231,-297,-117,168,-106,-54,-113,-229,111,-149,-88,-47,-281,-294,-157,8,-496,-104,35,-224,-132,-161,-106,-372,-196,-329,-132,-285
19024,-87,16,-48,-114,-213,-272,-89,188,-116,-39,-117,-248,115,-161,-70,-43,-297,-321,-161,23,-494,-122,20,-214,-114,-144,-85,-326,-164,-292,-115,-285
19025,-64,40,-46,-109,-228,-304,-69,193,-113,-26,-114,-254,119,-152,-46,-7,-271,-306,-156,44,-462,-108,75,-180,-80,-120,-56,-227,-131,-257,-76,-273
19026,-53,47,-59,-132,-241,-356,-106,182,-135,-41,-123,-220,115,-130,-48,-7,-245,-270,-124,48,-457,-122,133,-133,-44,-88,-51,-89,-39,-201,-35,-296
19027,-54,43,-77,-126,-231,-284,-104,179,-125,-12,-97,-166,161,-101,-14,0,-217,-239,-92,81,-424,-121,139,-101,-18,-70,-11,-187,-50,-199,-28,-257
19028,-80,-1,-83,-151,-248,-280,-109,155,-141,-27,-97,-185,145,-105,-10,-56,-225,-249,-85,90,-430,-124,111,-126,-15,-81,-46,-351,-129,-228,-69,-261
19029,-121,-19,-120,-157,-250,-264,-103,141,-156,-24,-105,-217,150,-102,-8,-59,-219,-232,-57,111,-412,-70,123,-91,22,-39,-27,-282,-93,-177,14,-173
19030,-123,16,-119,-123,-233,-242,-79,104,-154,2,-88,-214,146,-96,3,-6,-225,-246,-69,105,-396,-56,148,-82,28,-38,-2,-201,-69,-159,19,-157
19031,-92,41,-99,-126,-238,-253,-82,94,-161,-11,-114,-216,129,-123,-26,3,-236,-253,-89,75,-421,-120,149,-98,13,-72,-44,-187,-50,-186,-34,-275
19032,-70,58,-74,-123,-222,-240,-102,137,-139,-10,-126,-208,157,-130,-39,0,-233,-243,-82,71,-417,-79,183,-87,4,-41,-21,-87,5,-144,-26,-257
19033,-64,89,-80,-113,-207,-295,-104,155,-113,-11,-112,-221,145,-145,-25,-6,-257,-267,-97,70,-427,-162,97,-127,-28,-74,-51,-330,-144,-240,-81,-295
19034,-68,98,-78,-93,-197,-290,-66,152,-126,-13,-126,-248,123,-153,-32,-21,-295,-301,-137,49,-462,-173,37,-156,-61,-105,-102,-422,-199,-265,-94,-316
19035,-46,72,-66,-94,-196,-236,-92,166,-124,5,-108,-264,133,-166,-17,-46,-329,-326,-146,51,-452,-134,4,-171,-58,-101,-105,-476,-243,-288,-128,-321
19036,-65,47,-108,-101,-186,-256,-104,144,-111,-1,-123,-301,112,-154,-29,-53,-381,-363,-158,43,-465,-157,-43,-216,-91,-130,-128,-576,-320,-345,-169,-362
19037,-65,33,-102,-108,-199,-262,-113,113,-85,0,-147,-324,113,-138,-48,-45,-384,-352,-152,37,-463,-136,-19,-211,-108,-154,-133,-409,-235,-330,-180,-377
19038,-120,15,-180,-152,-248,-294,-151,27,-139,-53,-146,-407,60,-179,-83,-71,-472,-426,-214,-17,-517,-124,-115,-287,-145,-213,-187,-596,-329,-408,-292,-423
19039,-107,19,-168,-168,-255,-315,-153,4,-147,-53,-182,-401,43,-172,-102,-69,-462,-444,-220,-25,-534,-119,-136,-304,-174,-241,-196,-654,-382,-479,-331,-473
19040,-95,57,-166,-158,-228,-291,-146,23,-118,-64,-175,-357,64,-140,-81,-63,-408,-397,-190,-6,-521,-214,-35,-259,-143,-232,-186,-425,-273,-435,-275,-454
19041,-91,47,-155,-152,-228,-284,-144,29,-114,-50,-140,-332,78,-148,-75,-55,-359,-356,-164,3,-512,-188,-7,-226,-122,-202,-167,-420,-270,-427,-251,-419
19042,-85,47,-163,-154,-236,-285,-134,41,-137,-32,-129,-318,94,-154,-62,-38,-310,-344,-171,3,-483,-138,20,-203,-113,-195,-137,-418,-242,-390,-236,-370
19043,-47,102,-127,-134,-198,-240,-59,43,-138,-20,-79,-298,106,-164,-29,5,-272,-331,-155,13,-462,-65,57,-169,-109,-167,-117,-393,-224,-385,-217,-336
19044,-3,135,-88,-128,-184,-233,-30,64,-136,-24,-68,-257,99,-165,-25,32,-267,-313,-144,31,-434,-68,94,-150,-97,-160,-90,-346,-193,-367,-216,-329
19045,5,153,-72,-123,-191,-231,-23,80,-129,-9,-64,-206,109,-149,-17,56,-245,-283,-123,58,-414,-36,135,-118,-68,-117,-43,-303,-140,-338,-178,-293
19046,-10,139,-67,-101,-172,-231,-31,90,-121,14,-35,-198,128,-132,18,64,-173,-250,-104,69,-401,-15,169,-108,-34,-92,-26,-276,-127,-308,-143,-274
19047,-44,109,-90,-132,-187,-252,-50,85,-142,-9,-55,-242,122,-152,-4,37,-202,-272,-123,65,-415,-19,130,-133,-56,-97,-24,-336,-151,-305,-140,-278
19048,-61,80,-98,-149,-209,-238,-71,103,-149,-7,-56,-221,134,-132,-8,46,-186,-260,-106,77,-391,-43,194,-97,-28,-89,-22,-157,-73,-257,-102,-234
19049,-85,45,-116,-170,-217,-231,-95,86,-150,-2,-75,-228,139,-128,-19,-1,-169,-240,-95,73,-429,-95,222,-66,-14,-114,-50,-16,-2,-233,-155,-266
19050,-67,64,-106,-143,-221,-226,-73,109,-138,16,-60,-239,155,-118,-11,-34,-172,-223,-61,87,-454,-103,217,-59,3,-114,-78,-58,0,-248,-153,-270
19051,-67,80,-99,-133,-210,-231,-86,104,-139,1,-49,-248,141,-131,-16,-103,-185,-256,-83,76,-480,-183,177,-93,-16,-132,-139,-122,-61,-289,-209,-365
19052,-78,90,-110,-125,-190,-263,-107,94,-119,-3,-71,-260,157,-117,-7,-97,-219,-270,-92,77,-483,-152,144,-104,-42,-147,-168,-215,-104,-321,-235,-395
19053,-63,74,-110,-119,-196,-303,-116,104,-103,0,-52,-273,149,-130,-3,-111,-278,-280,-115,57,-484,-183,70,-150,-69,-153,-149,-384,-140,-341,-222,-368
19054,-71,46,-150,-127,-203,-215,-118,79,-110,10,-40,-298,126,-153,-19,-142,-306,-330,-122,52,-490,-231,34,-175,-67,-179,-160,-493,-208,-412,-273,-409
19055,-133,33,-190,-158,-218,-251,-135,30,-128,-13,-50,-330,103,-161,-33,-139,-326,-339,-133,49,-515,-246,39,-175,-84,-197,-198,-365,-194,-405,-288,-450
19056,-117,49,-196,-153,-195,-266,-82,15,-124,23,-41,-335,101,-149,-16,-95,-343,-358,-140,51,-512,-238,23,-196,-90,-171,-203,-367,-208,-401,-277,-449
19057,-109,50,-158,-158,-197,-254,-56,7,-121,29,-80,-361,92,-143,-12,-28,-333,-369,-157,63,-470,-178,35,-208,-93,-149,-172,-353,-209,-395,-237,-388
19058,-118,35,-170,-180,-199,-252,-68,-25,-131,22,-70,-359,74,-165,-13,-6,-329,-387,-164,68,-453,-152,33,-221,-88,-131,-151,-322,-192,-370,-201,-368
19059,-113,14,-150,-197,-221,-239,-72,-34,-157,7,-63,-344,54,-163,-2,6,-332,-388,-176,62,-438,-90,57,-195,-78,-121,-130,-193,-141,-315,-164,-342
19060,-152,28,-202,-237,-248,-259,-67,-54,-175,-7,-80,-361,38,-177,-5,3,-295,-377,-169,57,-449,-91,109,-185,-59,-123,-124,-51,-61,-253,-123,-323
19061,-151,23,-208,-221,-241,-235,-23,-42,-184,2,-92,-333,61,-143,-3,11,-280,-356,-151,67,-443,-53,114,-170,-47,-130,-106,-79,-70,-266,-133,-297
19062,-128,28,-190,-231,-222,-209,21,-20,-192,3,-76,-349,49,-160,-5,38,-354,-394,-157,54,-477,-46,20,-215,-78,-133,-108,-375,-220,-353,-201,-353
19063,-85,96,-151,-216,-210,-185,48,14,-169,0,-32,-317,61,-157,-12,42,-347,-380,-161,48,-468,-71,-10,-218,-56,-149,-105,-549,-275,-358,-189,-342
19064,-101,96,-127,-189,-205,-168,39,61,-159,25,-27,-305,114,-145,-3,30,-268,-320,-125,69,-451,-31,52,-164,-6,-120,-75,-383,-151,-253,-111,-297
19065,-113,95,-119,-139,-190,-192,23,104,-141,9,-20,-276,115,-140,-8,36,-239,-298,-101,66,-467,-83,127,-134,8,-108,-96,-175,-60,-199,-73,-296
19066,-66,87,-127,-180,-206,-273,25,99,-145,-2,-34,-285,108,-136,-8,27,-256,-317,-90,88,-446,-48,98,-137,14,-99,-69,-209,-92,-217,-66,-273
19067,-44,88,-121,-223,-215,-267,42,116,-141,-6,-31,-260,127,-107,7,8,-243,-319,-86,94,-413,11,97,-148,23,-61,-48,-271,-118,-224,-70,-266
19068,-50,75,-98,-95,-204,-162,37,136,-131,18,-20,-235,154,-103,21,0,-194,-288,-71,109,-418,41,151,-109,54,-42,-32,-184,-39,-166,-38,-219
19069,-55,91,-101,-79,-213,-199,20,147,-134,7,-13,-243,145,-118,4,18,-240,-274,-89,100,-433,35,119,-123,36,-60,-35,-300,-89,-210,-62,-222
19070,-68,113,-51,-91,-223,-214,17,167,-127,6,-33,-230,144,-124,-11,36,-270,-298,-107,80,-444,55,51,-167,-1,-101,-41,-542,-226,-305,-141,-260
19071,-62,96,-34,-88,-225,-197,0,199,-115,4,-53,-221,168,-118,-12,-12,-231,-277,-79,80,-442,32,110,-123,5,-102,-53,-376,-175,-262,-113,-236
19072,-42,99,-74,-103,-222,-224,6,176,-116,-3,-80,-241,163,-134,-34,-72,-257,-287,-108,70,-470,-12,101,-136,-14,-131,-76,-322,-145,-269,-129,-268
19073,-79,50,-96,-102,-228,-264,-34,167,-99,-7,-104,-257,159,-138,-35,-62,-259,-301,-105,85,-473,0,116,-122,-8,-118,-64,-247,-95,-238,-100,-263
19074,-49,46,-50,-77,-221,-302,-16,176,-71,-24,-100,-231,169,-112,-6,-7,-235,-296,-82,88,-443,25,110,-135,-17,-108,-57,-278,-115,-264,-114,-278
19075,0,64,-11,-75,-213,-325,24,154,-81,-15,-72,-222,182,-113,-3,47,-218,-288,-90,105,-429,63,92,-132,-13,-107,-30,-279,-122,-265,-110,-253
19076,27,94,20,-61,-219,-248,32,137,-85,-8,-29,-193,181,-102,27,92,-231,-273,-74,111,-414,59,81,-128,-15,-87,0,-320,-147,-253,-100,-216
19077,46,121,20,-60,-197,-271,35,168,-80,-17,-14,-168,188,-94,25,134,-191,-245,-52,126,-382,91,129,-102,23,-68,14,-251,-91,-202,-39,-190
19078,21,134,50,-65,-219,-274,49,197,-82,-22,-11,-158,215,-98,23,111,-116,-195,-32,101,-371,108,221,-54,50,-56,31,-11,31,-116,30,-185
19079,39,183,81,-64,-216,-241,100,214,-88,-4,-3,-145,200,-110,33,126,-74,-192,-36,99,-381,113,254,-38,45,-53,26,78,40,-109,10,-168
19080,70,228,70,-48,-185,-226,122,219,-91,13,34,-117,194,-104,38,150,-38,-163,-46,125,-392,95,280,-30,39,-38,32,63,38,-128,-6,-181
19081,90,223,60,-34,-187,-219,91,205,-121,-6,32,-107,183,-109,23,111,-26,-153,-63,110,-400,80,294,-22,39,-61,-2,64,29,-141,-23,-180
19082,76,212,52,-55,-195,-222,98,244,-116,0,31,-117,188,-126,8,116,-120,-182,-67,103,-377,95,190,-66,18,-69,20,-176,-51,-179,-32,-165
19083,56,207,28,-80,-187,-197,111,225,-104,19,30,-166,145,-137,5,135,-217,-251,-99,81,-389,128,67,-127,0,-62,23,-509,-156,-231,-47,-168
19084,41,212,39,-83,-180,-169,121,211,-116,28,37,-167,124,-125,9,120,-193,-267,-107,79,-392,65,68,-132,-15,-69,-10,-451,-190,-235,-50,-217
19085,18,209,42,-69,-191,-188,90,215,-126,20,26,-175,134,-110,11,106,-159,-254,-105,90,-398,0,93,-124,-16,-77,-25,-367,-181,-240,-47,-250
19086,2,164,46,-82,-202,-218,54,195,-136,7,-27,-201,138,-135,-15,49,-183,-275,-114,72,-408,41,108,-137,-31,-84,-18,-284,-153,-227,-38,-207
19087,3,139,36,-88,-213,-212,27,197,-121,-7,-61,-214,125,-128,-36,-34,-204,-288,-112,64,-433,0,110,-159,-30,-112,-87,-294,-159,-250,-94,-266
19088,3,148,46,-84,-208,-234,24,213,-127,-5,-69,-213,144,-125,-52,-70,-236,-300,-117,53,-461,46,44,-155,-35,-106,-92,-359,-182,-263,-98,-265
19089,30,149,59,-66,-188,-246,19,216,-110,-8,-61,-201,156,-125,-52,-34,-227,-304,-104,74,-445,54,65,-159,-8,-98,-49,-346,-154,-211,-57,-223
19090,33,128,49,-69,-211,-255,-14,227,-82,-17,-67,-214,156,-114,-34,28,-234,-320,-109,75,-427,28,71,-173,-4,-94,-34,-325,-136,-196,-62,-225
19091,2,119,48,-71,-225,-257,-40,230,-96,-18,-77,-219,142,-100,-33,0,-222,-330,-118,71,-427,24,64,-179,0,-102,-63,-293,-138,-226,-81,-255
19092,20,129,47,-60,-229,-246,-57,200,-105,-33,-83,-243,133,-98,-38,0,-256,-357,-107,85,-423,38,47,-179,16,-92,-56,-246,-129,-203,-64,-239
19093,28,126,56,-52,-213,-257,-56,211,-87,-24,-71,-234,139,-109,-11,-16,-243,-330,-97,84,-421,-2,73,-164,39,-80,-48,-179,-92,-172,-36,-230
19094,41,151,73,-58,-184,-258,-27,201,-89,-25,-27,-217,148,-102,-16,12,-213,-315,-86,96,-414,-15,96,-149,72,-66,-45,-225,-103,-171,-31,-226
19095,44,151,42,-66,-205,-262,-39,167,-102,-20,-45,-216,144,-88,-6,18,-151,-300,-83,111,-397,18,189,-127,89,-38,-19,-258,-68,-153,-17,-203
19096,28,121,32,-89,-214,-245,-36,134,-101,-6,-66,-243,136,-79,22,40,-185,-313,-72,148,-382,21,175,-111,108,-19,0,-208,-27,-98,48,-184
19097,21,92,12,-115,-209,-252,-45,119,-116,6,-59,-266,127,-62,17,57,-272,-337,-73,151,-360,29,94,-130,101,-2,9,-217,-37,-86,48,-177
19098,-32,46,-26,-147,-244,-287,-84,98,-138,-5,-102,-304,94,-92,-19,26,-301,-369,-93,123,-382,-15,30,-144,61,-16,0,-213,-50,-127,20,-246
19099,-50,63,-67,-169,-243,-301,-53,77,-157,-21,-102,-316,79,-93,-13,40,-307,-382,-97,141,-388,6,30,-143,82,-18,2,-105,-10,-83,51,-288
19100,-35,107,-74,-167,-227,-363,-29,73,-153,-6,-90,-322,78,-88,-17,31,-320,-386,-91,135,-392,-64,-5,-154,79,-25,1,-264,-74,-122,32,-253
19101,-6,120,-15,-137,-210,-342,-27,83,-148,-25,-120,-321,74,-85,-43,-8,-365,-424,-115,106,-427,-89,-76,-201,34,-56,-52,-599,-237,-246,-38,-258
19102,-18,92,-21,-136,-223,-318,-82,73,-125,-42,-153,-320,78,-73,-75,-46,-331,-386,-108,101,-431,-73,-35,-145,47,-56,-49,-408,-143,-183,14,-240
19103,-39,75,-71,-142,-228,-421,-111,70,-134,-63,-203,-327,88,-75,-93,-92,-361,-374,-85,78,-466,-109,-46,-142,41,-74,-84,-452,-197,-242,-68,-317
19104,-27,59,-87,-121,-210,-373,-106,74,-132,-49,-186,-319,110,-69,-94,-102,-311,-353,-76,92,-502,-115,-1,-149,22,-102,-108,-363,-154,-243,-83,-328
19105,-17,6,-70,-121,-220,-293,-135,80,-134,-25,-186,-295,111,-72,-91,-105,-294,-334,-65,94,-498,-108,34,-130,15,-113,-112,-323,-118,-220,-69,-314
19106,13,23,-46,-130,-224,-291,-135,119,-128,-63,-195,-282,126,-84,-91,-114,-279,-323,-70,60,-518,-140,60,-113,28,-135,-119,-283,-97,-230,-60,-307
19107,0,17,-35,-130,-251,-310,-148,132,-122,-69,-193,-263,137,-81,-95,-107,-254,-283,-77,81,-507,-98,94,-94,54,-111,-106,-261,-77,-183,-46,-274
19108,8,59,-22,-107,-233,-335,-143,148,-111,-60,-187,-240,152,-72,-85,-101,-242,-269,-44,92,-474,-88,112,-56,64,-65,-79,-265,-51,-153,2,-244
19109,30,121,-14,-73,-222,-318,-91,166,-107,-61,-169,-250,163,-82,-79,-103,-251,-282,-56,81,-483,-81,95,-46,53,-67,-83,-313,-43,-179,0,-230
19110,37,168,-36,-49,-190,-300,-57,170,-80,-58,-148,-235,169,-74,-60,-85,-190,-248,-56,108,-449,-27,176,-12,80,-50,-26,-156,52,-107,65,-176
19111,11,168,-38,-68,-174,-309,-63,170,-90,-59,-132,-233,167,-108,-50,-79,-187,-243,-67,88,-413,-10,193,-3,76,-37,-9,-68,92,-64,85,-178
19112,-21,138,-71,-87,-204,-296,-83,158,-97,-52,-117,-260,139,-119,-47,-55,-209,-274,-78,99,-422,27,202,-17,89,-25,17,-2,119,-11,103,-140
19113,-36,112,-97,-73,-200,-261,-72,129,-90,-15,-105,-269,134,-102,-9,-33,-166,-273,-63,140,-408,44,217,-14,106,-19,34,-21,108,-12,124,-108
19114,-47,84,-114,-111,-203,-274,-93,107,-100,-29,-116,-290,99,-74,-29,-40,-216,-302,-78,123,-424,-37,142,-61,78,-23,-7,-237,-12,-117,49,-197
19115,-74,48,-131,-159,-203,-300,-118,70,-129,-31,-150,-297,73,-84,-47,-37,-251,-326,-81,116,-453,-34,109,-99,67,-60,-44,-273,-40,-143,0,-240
19116,-75,51,-119,-181,-222,-287,-144,13,-165,-39,-165,-319,64,-76,-49,-101,-243,-357,-110,80,-490,-47,103,-114,23,-125,-87,-223,-43,-179,-57,-285
19117,-47,85,-87,-184,-221,-284,-118,3,-169,-37,-158,-309,64,-73,-58,-105,-224,-348,-124,83,-517,-47,130,-112,14,-115,-100,-117,-1,-145,-40,-257
19118,-5,120,-48,-174,-212,-253,-107,6,-168,-9,-155,-332,46,-83,-73,-103,-259,-367,-149,70,-529,-83,97,-142,-1,-134,-118,-171,-40,-157,-52,-305
19119,13,140,-52,-170,-194,-235,-101,7,-159,7,-136,-350,21,-101,-68,-103,-312,-433,-174,52,-514,-96,21,-196,-21,-149,-154,-348,-136,-237,-114,-364
19120,37,161,2,-134,-172,-202,-47,62,-148,41,-108,-313,23,-104,-54,-78,-292,-425,-174,51,-489,-37,18,-210,-35,-135,-153,-359,-127,-213,-125,-342
19121,45,139,-11,-116,-159,-194,-18,68,-166,17,-105,-298,10,-121,-47,-76,-272,-454,-178,38,-489,-42,58,-205,-35,-154,-161,-242,-83,-199,-103,-355
19122,51,163,0,-97,-143,-203,-30,74,-162,13,-94,-276,28,-104,-43,-136,-207,-415,-189,57,-479,-23,142,-181,-1,-118,-130,5,47,-102,-51,-313
19123,86,227,66,-81,-130,-218,-14,112,-149,2,-74,-268,42,-123,-51,-168,-189,-410,-195,68,-462,3,152,-193,-14,-91,-113,79,75,-90,-52,-286
19124,80,240,33,-76,-131,-228,-5,152,-130,4,-43,-256,50,-129,-34,-104,-177,-403,-175,83,-443,13,169,-195,1,-83,-97,42,83,-84,-36,-250
19125,82,276,37,-70,-129,-219,-5,155,-113,12,-23,-253,67,-126,-28,-38,-197,-400,-183,80,-426,19,109,-210,9,-75,-62,-127,19,-110,-34,-227
19126,103,281,51,-54,-129,-287,-12,184,-105,5,-21,-268,82,-114,-27,40,-232,-418,-186,70,-404,12,77,-220,-1,-58,-36,-210,-9,-113,14,-205
19127,63,223,33,-77,-145,-264,-12,166,-98,-11,-56,-263,70,-117,-12,65,-289,-431,-186,77,-427,5,27,-251,-5,-69,-30,-352,-113,-174,-17,-204
19128,33,190,2,-73,-156,-232,-36,157,-103,-15,-80,-273,82,-128,-38,28,-274,-403,-159,86,-437,-53,38,-238,-16,-81,-39,-171,-60,-161,-10,-209
19129,47,202,4,-64,-154,-258,-53,184,-87,1,-60,-284,100,-115,-38,8,-279,-390,-144,88,-446,-54,58,-225,-13,-91,-53,-86,-3,-135,-19,-234
19130,2,161,-50,-84,-178,-256,-83,138,-100,-5,-51,-365,72,-98,-28,-9,-345,-443,-163,69,-454,-49,-28,-258,-13,-91,-60,-268,-94,-181,-41,-247
19131,15,174,-70,-78,-175,-259,-49,108,-106,-22,-78,-403,51,-94,-37,-17,-467,-493,-164,74,-456,-35,-170,-324,-32,-104,-113,-671,-305,-315,-133,-311
19132,16,189,-75,-86,-160,-242,-45,98,-99,-1,-92,-433,58,-77,-14,-6,-511,-524,-165,84,-436,-40,-221,-326,-23,-102,-88,-750,-351,-346,-174,-315
19133,-16,186,-109,-119,-156,-234,-31,70,-114,4,-82,-464,53,-76,-11,-19,-552,-530,-156,90,-449,-91,-200,-324,-6,-106,-78,-648,-318,-328,-163,-310
19134,-52,159,-165,-131,-184,-209,-63,22,-127,-8,-111,-485,48,-80,-28,-63,-602,-532,-153,77,-469,-130,-210,-326,-41,-125,-126,-600,-349,-386,-191,-378
19135,-107,138,-206,-138,-182,-215,-52,0,-136,7,-121,-515,44,-74,-30,-58,-578,-526,-131,104,-472,-140,-166,-284,-9,-117,-134,-400,-296,-357,-146,-379
19136,-145,119,-232,-170,-201,-261,-91,-7,-150,4,-149,-518,49,-63,-34,-81,-572,-489,-123,100,-473,-148,-112,-244,16,-105,-123,-177,-190,-269,-97,-349
19137,-114,114,-263,-214,-227,-350,-114,-51,-175,-16,-160,-536,47,-70,-33,-96,-599,-496,-140,104,-470,-154,-128,-241,24,-87,-119,-243,-172,-224,-50,-325
19138,-82,126,-256,-207,-199,-238,-67,-58,-173,19,-115,-553,30,-78,-23,-61,-667,-545,-152,126,-452,-114,-246,-300,3,-78,-107,-647,-363,-336,-122,-363
19139,-88,153,-265,-229,-186,-188,-44,-45,-181,43,-81,-536,28,-94,0,-45,-632,-522,-152,119,-442,-73,-241,-293,-5,-97,-98,-714,-389,-356,-116,-345
19140,-105,160,-260,-227,-201,-215,-35,-45,-179,27,-94,-511,36,-82,-13,-36,-564,-483,-113,127,-437,-131,-150,-252,33,-76,-104,-500,-284,-299,-83,-365
19141,-93,138,-223,-191,-196,-211,-55,-6,-179,17,-96,-487,38,-67,-15,-30,-570,-476,-113,136,-441,-158,-137,-246,45,-82,-93,-531,-273,-270,-83,-366
19142,-106,107,-226,-174,-183,-230,-92,22,-179,7,-110,-455,53,-63,-20,-46,-555,-446,-104,128,-450,-134,-122,-215,38,-80,-103,-476,-244,-240,-55,-330
19143,-102,97,-231,-166,-191,-243,-102,33,-163,-5,-120,-425,74,-64,-26,-83,-482,-432,-99,118,-459,-47,-71,-188,41,-93,-121,-330,-185,-214,-67,-342
19144,-132,80,-233,-188,-183,-245,-134,30,-136,-14,-143,-417,83,-82,-58,-150,-452,-402,-96,116,-475,-72,-53,-175,49,-98,-120,-351,-172,-198,-67,-347
19145,-131,82,-253,-189,-202,-266,-116,43,-142,0,-147,-422,91,-84,-62,-162,-497,-397,-96,105,-476,-101,-101,-188,34,-111,-136,-524,-223,-258,-117,-369
19146,-130,81,-234,-207,-202,-271,-97,49,-134,-2,-145,-415,102,-89,-66,-157,-445,-386,-94,94,-500,-107,-45,-175,35,-121,-165,-410,-181,-250,-140,-410
19147,-121,83,-203,-205,-206,-320,-47,58,-122,12,-121,-400,97,-77,-76,-130,-441,-382,-100,62,-508,-130,-23,-156,16,-152,-190,-343,-139,-255,-164,-436
19148,-109,104,-202,-177,-200,-229,-30,69,-114,15,-112,-386,92,-83,-87,-132,-433,-398,-119,31,-545,-146,-45,-184,-9,-197,-234,-338,-147,-275,-218,-482
19149,-124,74,-194,-197,-201,-216,-31,58,-126,13,-108,-408,100,-87,-84,-136,-416,-397,-143,31,-560,-181,-57,-201,-31,-210,-254,-351,-158,-293,-231,-479
19150,-170,75,-211,-197,-224,-234,-17,49,-137,-3,-130,-424,72,-94,-86,-130,-493,-439,-141,27,-586,-205,-116,-230,-54,-246,-282,-567,-240,-345,-273,-543
19151,-200,110,-230,-201,-211,-223,-5,38,-144,3,-121,-454,52,-102,-74,-110,-473,-433,-155,19,-573,-212,-107,-224,-41,-236,-275,-498,-210,-337,-281,-519
19152,-216,106,-261,-210,-209,-225,-37,36,-146,13,-115,-450,69,-92,-77,-116,-458,-434,-144,35,-549,-207,-74,-220,-40,-193,-248,-398,-169,-293,-217,-468
19153,-216,80,-288,-205,-222,-207,-79,2,-142,7,-128,-470,46,-86,-72,-145,-522,-479,-183,27,-567,-191,-139,-260,-83,-215,-258,-522,-242,-357,-260,-473
19154,-255,-8,-309,-243,-244,-263,-128,-29,-148,15,-142,-502,42,-113,-101,-161,-538,-504,-203,6,-589,-243,-185,-280,-105,-243,-289,-559,-265,-387,-296,-526
19155,-276,-51,-321,-232,-254,-259,-146,0,-155,32,-152,-469,55,-115,-95,-189,-480,-468,-182,5,-585,-323,-126,-254,-82,-231,-273,-398,-226,-350,-252,-527
19156,-280,-27,-319,-206,-244,-238,-136,1,-146,15,-141,-461,54,-101,-80,-180,-482,-479,-185,15,-565,-284,-112,-252,-89,-198,-259,-411,-212,-325,-243,-503
19157,-279,-22,-308,-216,-239,-255,-125,17,-128,11,-133,-455,83,-89,-86,-167,-464,-468,-177,33,-541,-257,-63,-223,-61,-183,-233,-277,-107,-259,-189,-471
19158,-244,-13,-260,-227,-261,-253,-126,18,-129,3,-137,-423,73,-101,-85,-147,-444,-455,-180,28,-521,-254,-68,-233,-73,-189,-215,-331,-135,-283,-192,-463
19159,-186,20,-218,-187,-241,-248,-94,43,-105,27,-94,-409,62,-106,-51,-113,-438,-456,-194,49,-511,-196,-90,-255,-71,-168,-183,-424,-178,-282,-183,-423
19160,-137,54,-171,-137,-226,-227,-38,99,-97,48,-38,-376,91,-107,-32,-77,-407,-452,-183,60,-473,-158,-95,-261,-62,-155,-140,-547,-221,-292,-155,-386
19161,-142,63,-155,-140,-218,-209,-22,122,-109,23,-62,-348,87,-109,-18,-54,-380,-436,-180,69,-439,-125,-33,-236,-56,-125,-112,-384,-156,-263,-106,-355
19162,-132,76,-159,-145,-208,-219,-16,126,-97,18,-77,-335,103,-108,-22,-46,-368,-421,-182,89,-440,-125,4,-221,-34,-123,-82,-248,-80,-213,-106,-318
19163,-126,65,-137,-148,-209,-231,-21,124,-113,17,-79,-330,96,-99,-17,-46,-380,-422,-181,70,-429,-160,-7,-242,-56,-113,-72,-295,-124,-233,-93,-347
