,Fp1,Fp2,F7,F3,Fz,F4,F8,FC5,FC1,FC2,FC6,T7,C3,Cz,C4,T8,TP9,CP5,CP1,CP2,CP6,TP10,P7,P3,Pz,P4,P8,PO9,O1,Oz,O2,PO10
96315,167,353,202,288,42,584,556,550,130,154,556,513,510,42,409,318,14,249,268,5,288,329,390,307,350,400,494,186,370,241,132,252
96316,282,546,309,298,57,513,609,523,160,180,533,448,537,72,422,382,152,269,312,34,341,456,453,324,374,447,510,249,421,299,190,397
96317,385,642,387,243,56,508,608,489,146,177,552,338,541,78,424,373,197,262,313,55,354,498,476,331,377,469,528,268,459,299,208,368
96318,467,700,427,174,26,491,537,426,120,160,570,269,506,70,415,340,196,240,276,50,351,517,493,333,368,458,503,232,459,289,215,333
96319,426,677,413,199,26,501,537,400,125,192,633,263,493,80,455,314,208,249,296,75,345,611,511,339,399,493,537,192,468,333,247,460
96320,359,579,327,187,8,587,552,395,116,194,640,300,482,75,440,335,219,228,290,59,319,604,467,312,384,459,528,223,446,310,198,394
96321,324,402,293,194,4,636,571,432,108,177,617,329,479,44,415,333,165,203,260,43,294,497,437,271,354,418,471,227,406,270,150,305
96322,268,435,182,252,27,618,555,562,132,189,608,338,499,57,422,315,162,225,281,51,280,477,473,289,369,442,481,287,443,310,196,361
96323,268,588,128,267,22,582,523,598,131,169,592,318,511,68,394,301,188,223,276,48,293,495,448,287,387,439,531,367,455,333,241,405
96324,296,571,266,226,-2,527,502,575,117,164,576,322,502,59,400,319,211,206,269,36,306,529,426,274,374,454,526,316,436,324,226,402
96325,316,596,391,218,2,609,432,505,124,170,630,386,488,54,435,184,242,213,268,57,313,497,457,294,381,453,516,226,461,307,216,400
96326,321,629,467,172,25,631,368,401,113,190,648,420,492,57,440,93,257,244,283,71,379,638,529,310,417,496,614,238,476,342,260,509
96327,274,509,452,148,-1,673,417,398,90,197,682,387,476,46,474,298,156,240,286,77,423,716,537,297,404,514,653,278,436,332,235,532
96328,386,385,357,172,15,572,381,413,100,172,728,363,446,48,440,480,132,216,283,47,348,601,506,279,385,468,610,285,431,297,178,448
96329,420,445,299,215,30,669,484,461,104,199,680,399,463,55,409,462,255,235,283,40,290,573,530,312,383,459,568,234,462,343,246,537
96330,381,494,307,218,39,739,606,454,102,199,619,416,478,49,423,382,274,286,281,59,308,524,607,321,389,447,548,121,486,342,230,474
96331,401,479,335,154,49,688,634,400,85,180,594,387,449,24,395,396,157,227,253,24,311,505,547,280,347,423,550,91,433,295,175,341
96332,419,531,321,149,22,609,578,412,95,176,560,380,445,43,400,402,186,230,257,37,315,557,550,294,369,431,545,224,450,320,216,332
96333,416,619,329,159,25,574,538,468,111,147,509,385,471,52,374,354,201,230,264,31,295,573,512,285,352,422,525,263,434,311,211,336
96334,363,661,227,184,13,590,561,463,111,152,590,391,475,47,373,300,184,186,248,9,270,454,392,268,333,398,479,357,433,290,190,297
96335,341,582,234,200,-4,550,473,470,98,160,665,371,457,23,372,302,158,156,228,-24,250,350,314,222,297,366,456,345,416,259,170,169
96336,318,537,320,177,2,546,520,432,75,176,693,361,434,21,398,333,105,126,218,0,308,495,282,201,299,395,622,303,386,270,180,212
96337,314,493,317,163,13,541,627,432,107,168,587,389,454,38,402,340,168,169,242,13,322,646,334,235,343,425,657,356,444,328,219,363
96338,295,501,294,110,-5,611,627,372,82,159,542,332,417,43,384,318,220,171,235,12,277,648,368,237,326,396,548,406,454,335,239,473
96339,189,597,240,90,30,621,631,380,91,152,556,358,432,39,393,297,193,161,230,0,266,556,387,248,310,401,485,354,462,349,234,508
96340,145,603,62,151,5,519,633,457,109,151,478,418,475,22,380,351,180,210,243,-4,279,604,404,260,317,399,494,300,460,331,245,437
96341,158,507,89,209,-13,569,559,488,90,153,546,397,445,11,375,345,148,176,220,-12,283,593,379,222,283,395,552,283,429,308,238,388
96342,147,456,235,212,13,569,558,524,88,151,620,440,448,17,383,311,170,168,210,-14,294,599,362,222,292,389,564,302,433,296,223,468
96343,172,467,334,177,17,651,499,475,88,161,627,425,428,3,375,266,210,168,183,-41,267,571,368,191,268,364,489,276,377,257,174,435
96344,281,429,373,144,15,647,418,384,57,160,685,369,395,-5,368,259,148,138,194,-16,277,609,371,195,271,375,502,286,381,279,191,516
96345,342,210,267,167,3,703,382,484,67,158,722,466,428,0,380,276,116,171,201,-18,285,599,395,210,287,382,537,367,429,308,221,524
96346,298,133,266,216,24,731,491,640,101,172,679,561,460,3,379,275,151,219,215,-23,256,518,438,224,290,381,512,317,436,310,210,463
96347,278,271,337,205,33,641,501,578,99,162,583,515,457,1,351,317,203,223,226,-18,281,578,464,228,312,402,540,269,447,332,213,508
96348,373,540,334,167,9,608,525,405,80,150,575,365,404,-4,355,299,271,172,192,-26,295,555,444,228,295,383,549,225,402,267,159,354
96349,412,646,295,119,15,544,595,416,65,151,535,316,409,-4,397,203,281,159,199,-8,354,600,437,208,282,391,585,116,331,194,101,221
96350,288,623,284,126,13,544,547,457,84,142,545,318,429,9,423,208,246,161,227,9,386,581,404,205,290,398,591,162,337,187,106,201
96351,278,655,337,137,3,532,566,361,90,134,570,333,393,19,408,407,199,161,209,12,361,548,405,215,310,399,542,184,354,224,115,362
96352,332,675,358,124,7,497,638,343,75,157,641,343,411,20,392,563,154,146,197,8,308,636,410,216,308,414,557,228,382,244,151,524
96353,311,664,376,118,3,451,595,340,61,151,621,336,398,18,409,442,187,151,223,44,325,681,424,224,336,438,599,235,409,289,192,515
96354,372,609,399,109,4,523,510,355,56,152,571,365,380,17,422,354,221,166,228,44,334,700,406,218,316,441,579,197,385,283,192,383
96355,408,474,344,107,23,693,559,410,59,184,641,341,399,10,422,347,198,120,197,21,321,677,359,181,297,412,548,250,351,276,174,390
96356,383,455,319,110,13,643,570,390,34,181,734,326,383,-12,385,382,188,122,174,3,292,648,378,187,306,388,540,273,370,288,197,404
96357,336,545,363,125,3,692,571,371,43,181,647,363,368,-18,380,372,207,142,185,0,295,695,401,221,300,404,572,318,385,299,223,454
96358,318,548,408,133,-2,679,524,364,42,152,629,357,367,-14,368,322,206,125,146,-36,272,589,353,181,265,370,540,247,339,230,143,380
96359,353,485,446,163,7,627,537,394,56,145,644,369,388,-10,375,326,232,137,166,-42,291,608,375,192,276,392,594,249,397,289,191,441
96360,396,548,488,181,45,591,628,439,84,171,561,429,412,6,386,419,286,197,216,3,327,670,464,224,313,426,651,269,433,319,232,558
96361,397,599,461,171,12,516,657,441,89,156,560,419,429,-10,358,437,243,202,207,14,340,637,517,225,310,419,600,223,414,276,178,424
96362,421,708,430,175,20,476,681,473,94,141,576,448,442,0,379,391,256,217,215,6,320,578,510,238,327,396,562,252,418,287,176,350
96363,404,734,301,222,16,483,616,524,101,142,596,469,470,11,398,419,303,249,243,18,343,589,545,271,349,417,611,289,447,328,227,481
96364,293,682,140,215,9,510,597,559,103,135,665,392,461,-3,392,450,245,229,229,12,353,622,503,244,343,423,622,326,435,318,213,463
96365,291,667,140,237,33,522,534,605,103,138,655,375,474,-5,368,279,223,229,215,-1,315,569,441,254,323,416,576,371,425,275,201,348
96366,285,527,239,287,25,575,495,666,122,158,658,394,506,-15,376,104,166,215,227,5,343,643,395,244,330,447,628,318,414,305,210,438
96367,238,475,274,270,46,618,567,679,129,154,642,406,497,5,369,242,225,229,227,-6,334,602,447,243,318,427,594,320,426,304,207,450
96368,85,525,338,202,41,621,533,594,110,153,564,433,483,-18,354,527,252,227,220,-23,310,611,460,229,304,368,573,312,407,234,138,364
96369,79,521,396,249,36,609,560,519,117,169,574,450,493,-15,357,527,276,248,222,-26,259,636,472,247,312,370,599,325,431,249,164,371
96370,286,635,427,262,41,628,580,438,106,170,579,431,469,-1,354,436,272,220,237,-12,268,537,464,274,315,382,557,371,451,281,199,387
96371,368,756,453,310,37,534,607,401,105,166,570,430,470,1,401,259,238,223,249,-8,348,561,454,267,327,403,612,273,437,279,187,309
96372,426,692,489,296,25,566,642,447,100,157,564,478,474,7,400,274,213,262,242,5,386,632,505,279,327,416,650,297,437,269,187,288
96373,474,587,485,243,47,670,691,465,100,179,629,525,470,-12,410,487,253,280,246,-8,370,698,542,310,336,415,623,359,467,311,207,440
96374,523,482,526,174,53,729,649,497,79,180,684,536,465,-21,386,572,373,275,235,-25,281,745,550,310,331,396,593,391,483,315,209,399
96375,571,501,555,162,51,686,566,507,78,197,697,540,461,-4,393,471,369,281,260,-1,308,697,525,294,346,441,625,353,474,331,231,433
96376,566,523,559,174,54,677,524,474,92,204,708,528,471,8,426,437,381,283,272,6,335,652,527,321,366,466,642,423,510,377,272,545
96377,528,567,566,162,60,676,524,462,81,210,747,532,480,19,419,412,370,280,285,18,318,571,532,338,357,459,609,403,518,383,289,591
96378,526,672,577,196,62,628,481,503,111,219,747,545,514,26,424,432,340,298,292,24,336,505,557,342,384,451,573,427,515,387,283,551
96379,484,628,554,208,46,625,538,533,127,206,673,559,515,25,408,407,310,290,272,5,289,518,533,313,364,404,494,372,479,321,230,419
96380,421,626,492,208,18,622,624,537,113,182,645,552,516,9,389,360,294,280,281,-8,288,599,525,304,351,403,545,364,467,324,236,505
96381,317,582,438,244,17,650,607,578,127,187,655,614,534,17,388,293,371,313,285,-13,287,710,564,329,354,432,582,411,506,366,273,551
96382,359,455,411,242,22,629,505,631,143,177,600,613,558,27,383,341,405,334,306,-1,317,700,604,341,356,434,610,486,553,405,318,486
96383,432,508,416,258,37,638,447,619,147,191,600,544,572,31,409,378,368,308,296,17,344,681,590,342,364,451,680,419,533,405,302,470
96384,450,558,526,297,36,625,509,628,134,202,608,555,560,35,423,426,344,305,302,25,359,687,584,325,373,473,704,360,509,389,282,507
96385,416,590,464,268,36,525,560,579,134,181,625,597,529,44,409,398,359,306,320,27,355,648,571,304,375,461,637,325,490,354,252,509
96386,357,519,356,250,33,517,626,573,136,175,627,620,534,49,399,391,364,329,319,36,368,649,564,337,394,449,597,392,507,382,278,546
96387,314,489,367,247,16,540,638,575,146,161,583,548,508,44,395,383,321,278,288,13,357,639,492,300,382,435,576,301,463,355,256,532
96388,285,499,368,257,3,568,634,602,145,148,531,492,528,47,353,351,263,251,287,9,311,645,458,279,357,429,611,252,428,331,232,556
96389,314,536,366,249,7,572,653,599,156,169,488,438,531,54,342,349,241,260,297,12,295,675,487,289,373,418,614,317,461,326,256,504
96390,337,516,414,212,20,570,618,533,139,189,538,414,519,68,369,353,234,254,321,32,308,640,509,309,390,416,580,388,504,349,254,465
96391,376,496,410,204,1,566,615,490,132,206,541,427,516,66,380,346,314,257,315,31,312,645,539,316,377,428,580,409,521,362,264,522
96392,376,583,429,252,23,562,576,523,140,192,525,442,505,53,370,326,325,270,300,26,295,653,517,336,374,425,556,444,530,361,260,531
96393,363,650,408,246,40,523,556,622,146,189,531,460,532,56,361,260,276,269,306,15,274,651,505,334,378,427,571,438,511,351,259,557
96394,317,629,434,222,35,607,482,649,138,201,565,420,513,44,376,247,239,230,287,19,275,655,476,286,363,415,565,327,446,297,183,543
96395,253,611,451,224,6,740,438,529,106,206,554,384,469,22,371,275,237,220,255,-4,269,598,451,250,324,363,499,233,402,234,133,421
96396,247,583,428,242,16,647,353,456,110,189,555,411,473,20,368,286,230,205,245,-10,262,579,432,229,317,377,512,182,394,249,159,430
96397,218,438,323,275,19,604,274,486,145,205,614,396,482,54,385,290,227,203,260,5,267,520,442,250,334,364,495,207,393,222,130,324
96398,69,213,235,236,-4,616,305,511,114,168,640,361,465,41,386,210,173,184,248,-13,232,444,436,222,291,356,437,226,386,213,116,296
96399,95,135,285,234,15,570,387,573,109,192,567,390,478,37,359,217,218,194,262,-9,231,452,463,238,304,368,445,255,397,237,129,346
96400,199,171,311,126,34,629,543,545,91,189,577,370,457,31,382,33,244,202,243,-4,271,453,487,242,309,371,488,334,425,262,144,282
96401,206,286,362,183,32,645,483,519,108,197,660,381,464,27,417,-3,224,216,244,-3,312,471,487,244,318,403,549,317,434,286,178,313
96402,268,464,470,216,35,616,466,459,113,193,580,400,444,34,413,285,148,197,252,-9,332,474,410,216,325,382,526,175,366,243,141,347
96403,321,649,561,186,32,589,584,395,111,179,502,458,435,24,357,489,215,209,255,-16,263,474,444,226,307,352,464,192,379,220,97,265
96404,410,717,534,194,14,507,529,350,106,169,526,455,438,50,358,416,297,207,264,-6,235,458,520,247,328,358,487,186,393,205,106,252
96405,462,676,496,170,-4,479,515,364,81,149,540,409,419,43,345,300,245,189,222,-27,244,396,504,209,288,322,492,116,351,157,59,200
96406,451,642,493,138,9,498,563,350,77,143,525,417,414,31,342,296,228,182,221,-42,243,429,488,190,289,329,507,84,331,153,54,142
96407,397,538,453,146,-8,509,568,381,87,139,513,414,426,29,330,280,250,206,221,-36,225,403,508,217,276,302,475,150,338,157,65,89
96408,336,532,389,174,-8,540,587,422,103,138,511,394,434,33,319,279,142,191,225,-41,224,380,429,198,262,294,446,249,356,190,82,305
96409,295,533,374,170,7,535,586,458,111,141,514,403,445,32,319,282,158,186,235,-47,239,431,414,212,286,317,463,327,392,244,122,438
96410,289,419,341,152,-3,575,588,466,114,150,516,411,435,9,315,269,218,178,236,-55,251,494,384,209,287,333,516,440,423,264,154,461
96411,332,495,310,179,13,617,598,470,110,153,480,377,439,4,302,232,211,150,221,-69,233,482,343,178,260,316,441,388,374,216,127,384
96412,371,646,343,201,36,567,568,475,119,172,533,398,464,31,328,223,188,159,223,-56,233,541,352,181,271,316,430,223,333,179,81,372
96413,358,539,381,233,42,507,488,495,130,153,563,409,451,18,317,266,167,162,220,-75,205,565,320,160,243,296,458,150,266,127,25,164
96414,215,456,290,266,46,513,366,497,132,164,617,428,452,7,311,318,140,150,219,-84,213,516,306,140,224,273,525,138,214,76,-15,183
96415,120,402,317,246,37,601,314,485,121,180,644,443,448,2,341,272,115,126,197,-102,190,391,320,133,207,234,453,50,197,64,-29,259
96416,217,475,359,290,28,519,380,511,139,147,519,419,449,13,310,201,109,140,216,-97,134,337,329,147,205,212,334,51,232,83,-21,316
96417,184,413,365,296,32,528,337,492,136,138,451,367,430,20,300,31,142,144,210,-70,161,405,349,165,237,234,313,149,296,120,32,382
96418,144,366,444,234,37,588,427,449,97,160,530,393,424,39,352,6,136,160,217,-43,261,486,377,171,263,286,419,168,342,177,92,502
96419,287,483,494,205,30,510,528,443,94,161,536,463,442,42,366,275,179,192,234,-15,288,433,407,212,297,349,511,298,407,279,193,570
96420,416,520,443,172,27,475,560,470,112,164,558,479,450,50,357,477,278,200,270,-7,286,424,435,235,320,376,588,288,441,327,223,489
96421,371,391,340,160,11,631,548,526,103,194,643,445,454,49,373,451,354,232,265,-3,281,486,535,239,302,345,630,143,404,257,158,524
96422,216,225,210,183,-32,704,397,591,92,196,571,407,450,44,341,387,280,241,244,-38,253,458,616,210,265,282,571,29,324,94,13,276
96423,-33,203,112,141,-30,676,418,626,84,198,650,419,429,34,341,254,289,222,200,-68,195,326,619,169,210,227,403,-238,240,-46,-154,-456
96424,12,184,137,163,-20,714,453,622,82,192,683,418,417,17,348,39,297,199,183,-66,203,318,620,152,173,200,327,-83,240,-47,-179,-345
96425,317,369,286,218,-10,637,444,537,90,177,513,453,424,31,326,96,187,206,210,-59,190,395,622,175,204,212,242,-33,285,11,-79,97
96426,409,561,302,196,0,511,555,441,105,149,452,409,408,30,329,325,72,176,227,-51,199,534,588,178,226,256,306,119,295,26,-67,286
96427,378,549,357,191,-4,481,556,415,98,139,474,359,380,28,303,403,48,114,183,-66,137,534,392,115,207,219,336,83,234,2,-80,278
96428,320,497,331,146,-6,480,266,381,111,157,559,319,361,41,335,319,-6,40,168,-63,167,449,243,76,194,231,422,1,218,40,-44,144
96429,276,263,207,178,10,470,167,377,103,173,583,316,366,32,383,373,25,24,183,-37,283,423,204,89,208,308,632,91,249,93,12,-18
96430,71,-39,127,246,7,630,292,424,96,189,614,338,370,5,368,347,51,11,146,-53,272,309,136,41,184,298,692,-43,166,24,-70,-292
96431,-62,213,137,244,1,677,441,458,108,189,573,442,359,-9,340,304,25,46,156,-53,225,157,180,61,176,251,484,47,159,16,-90,-193
96432,-36,503,191,261,26,612,596,497,110,168,460,454,394,-7,348,366,16,90,188,-30,286,291,265,120,234,304,549,110,251,77,-21,-212
96433,36,623,273,265,31,575,602,469,110,173,445,424,416,5,350,307,180,169,214,-33,264,383,559,219,277,328,581,119,362,94,-2,93
96434,235,654,345,198,34,516,612,437,104,152,444,379,420,5,322,231,216,176,213,-59,173,352,600,228,272,280,261,-54,376,185,67,478
96435,377,655,450,196,43,481,627,413,104,152,464,367,424,-9,337,304,154,103,195,-52,244,550,389,150,283,335,387,82,330,193,88,334
96436,418,537,421,170,39,522,535,453,90,173,501,374,408,-29,337,272,148,95,203,-41,223,534,321,139,287,322,401,218,324,233,123,421
96437,467,472,342,138,18,563,519,483,92,193,558,396,421,-3,343,227,260,141,218,-44,188,386,399,192,287,314,311,131,353,243,147,419
96438,416,509,359,143,0,505,498,451,97,174,521,393,415,1,327,243,245,153,225,-21,203,29,429,190,317,331,387,132,332,220,139,-61
96439,323,438,331,157,13,568,368,436,89,190,607,363,420,5,379,378,115,127,215,9,339,88,366,194,330,396,679,121,352,213,128,-129
96440,204,485,338,125,-16,564,295,484,86,182,635,342,410,4,391,326,62,100,212,-19,294,317,279,160,302,348,618,48,274,142,44,69
96441,121,632,406,185,29,482,515,511,98,193,625,418,437,7,390,246,160,150,242,-6,185,228,344,204,335,327,267,129,343,208,134,499
96442,195,612,449,254,26,547,570,511,111,205,620,493,452,13,389,235,71,152,249,2,153,506,345,207,339,306,122,237,372,238,167,676
96443,383,622,465,225,24,675,613,409,91,229,591,437,412,21,407,246,60,127,246,11,205,633,270,196,350,350,274,372,394,265,179,647
96444,449,676,463,208,21,582,632,384,94,191,476,362,389,9,369,182,129,106,244,5,188,574,244,191,341,351,288,414,398,266,167,428
96445,461,636,470,167,16,553,520,367,77,193,491,326,379,22,372,131,101,88,237,9,175,553,179,202,345,355,284,422,402,282,197,473
96446,432,562,421,103,13,632,517,370,60,225,598,331,375,20,405,168,115,95,235,28,195,536,172,205,352,375,326,478,423,324,209,530
96447,386,483,301,63,8,642,543,396,65,211,585,329,376,0,392,225,76,95,208,15,229,440,174,196,343,377,448,377,392,313,206,379
96448,214,325,139,142,5,655,526,485,62,215,576,308,394,4,403,334,102,93,194,36,324,535,195,183,335,415,708,355,385,243,160,85
96449,155,112,96,297,-7,659,395,581,95,207,590,349,423,0,378,270,228,147,227,12,234,343,372,234,323,374,527,211,419,269,165,321
96450,162,24,78,261,34,699,290,608,111,196,582,449,481,-3,348,156,452,298,269,-20,134,195,829,328,320,305,237,-474,475,290,184,419
96451,103,136,130,234,24,758,356,556,114,198,549,512,488,8,355,-4,449,358,262,-29,148,324,1042,352,301,280,268,-668,452,188,109,195
96452,-40,299,283,287,47,715,423,560,120,205,531,489,461,2,358,-73,30,241,244,-24,200,452,651,280,304,300,396,-94,371,139,71,137
96453,76,225,340,249,62,881,492,482,98,244,501,375,421,5,372,205,-93,130,225,1,243,395,284,202,300,315,435,378,382,199,105,244
96454,245,333,297,214,32,807,598,375,115,233,529,262,392,1,397,543,-38,69,206,8,302,377,176,176,304,344,484,491,367,188,81,-65
96455,351,549,397,176,31,612,614,299,98,215,564,209,388,18,395,521,34,53,216,0,323,396,82,165,306,371,675,494,354,190,99,-216
96456,447,649,560,185,47,560,536,295,87,211,537,250,409,10,355,232,44,60,237,-1,197,364,84,182,329,335,441,552,372,241,143,174
96457,490,728,523,154,47,527,522,323,90,187,491,317,401,-7,338,187,95,84,245,-1,162,567,142,214,329,337,374,418,378,223,160,459
96458,405,759,498,96,33,487,565,287,88,184,509,314,394,-2,337,232,166,125,233,-23,144,553,283,226,331,319,255,360,441,281,190,788
96459,394,754,505,119,20,488,547,299,85,186,510,343,407,9,343,240,169,149,254,-12,157,530,374,236,330,327,263,392,486,322,207,658
96460,264,632,400,110,28,572,417,352,95,200,567,415,428,17,364,236,187,172,277,15,190,513,355,236,349,346,329,491,461,305,219,593
96461,185,468,238,109,30,650,221,419,93,221,644,440,440,-7,391,209,126,144,242,2,202,354,239,202,304,335,322,522,403,282,178,515
96462,239,393,246,140,42,674,185,408,102,225,652,430,444,12,390,205,125,118,235,0,199,465,224,193,298,331,352,510,417,289,172,493
96463,168,519,325,148,46,631,189,359,98,208,656,378,439,2,352,174,150,159,228,-29,153,462,300,216,289,318,337,475,418,248,160,436
96464,73,513,283,137,44,624,271,399,98,203,671,345,445,0,339,119,217,182,237,-53,165,394,440,240,279,295,360,511,457,224,137,277
