,Fp1,Fp2,F7,F3,Fz,F4,F8,FC5,FC1,FC2,FC6,T7,C3,Cz,C4,T8,TP9,CP5,CP1,CP2,CP6,TP10,P7,P3,Pz,P4,P8,PO9,O1,Oz,O2,PO10
55548,-294,129,-62,29,-1,276,-1071,350,-67,-24,186,1,281,-49,-198,463,-62,29,-116,-377,-514,-79,198,-44,-62,-134,-1,-1,-29,-273,-400,-385
55549,-207,131,-19,33,12,288,-1043,357,-40,-22,-199,-171,305,-33,-76,-336,-12,53,-77,-299,-300,-125,228,-31,-30,-65,-5,4,-39,-262,-401,-389
55550,-227,57,-65,50,1,282,-1217,362,-40,35,22,-185,293,-30,109,-1070,-61,31,-106,-216,177,-160,168,-49,26,86,176,-61,-41,-224,-284,-349
55551,-261,14,-71,46,-17,285,-1273,380,-39,34,138,-63,277,-50,95,-6,-98,13,-122,-216,-40,-76,184,-45,11,46,173,6,1,-191,-240,-231
55552,-272,50,-1,50,12,283,-1088,380,-53,13,199,-217,254,-53,-25,373,-93,9,-134,-313,-641,52,201,-60,-27,-95,-8,-20,0,-199,-240,-184
55553,-359,36,-8,80,29,273,-1218,383,-50,52,107,-278,275,-35,109,-201,-83,93,-117,-230,-160,-54,273,-23,14,44,170,-45,-1,-157,-195,-123
55554,-396,33,-175,56,7,294,-1277,405,-61,54,219,-208,265,-58,110,137,-97,135,-128,-236,-244,-31,256,-26,4,11,152,-83,-27,-181,-213,-84
55555,-345,15,-82,81,-2,273,-1229,545,-65,34,182,-94,289,-55,56,-135,-86,162,-139,-265,-301,-61,321,-34,-3,-14,115,-87,-15,-170,-206,-79
55556,-212,81,-23,37,2,325,-1136,189,-113,50,216,-320,180,-36,117,-130,-117,-142,-182,-236,-182,12,255,-95,-1,57,242,-2,35,-101,-157,14
55557,-209,47,35,84,1,286,-1218,447,-94,32,180,2,260,-32,102,69,-90,-13,-137,-240,-216,56,225,-47,23,41,248,54,69,-58,-92,82
55558,-186,67,79,104,6,274,-1202,453,-68,31,142,155,277,-48,85,-92,68,-3,-149,-240,-156,13,142,-59,18,61,254,-4,40,-78,-91,61
55559,-209,71,26,85,-5,259,-1176,364,-64,25,143,-21,269,-42,108,-278,4,-14,-134,-209,-29,13,169,-47,21,106,309,17,41,-46,-46,52
55560,-209,86,25,79,-2,243,-1138,331,-61,27,143,-89,296,-31,112,101,15,24,-100,-201,-37,75,241,13,62,111,340,-47,98,-17,3,154
55561,-230,76,83,54,-5,298,-1083,275,-56,42,322,-53,300,-21,116,525,151,56,-94,-218,-288,93,267,22,45,83,268,18,114,-54,-77,118
55562,-183,68,104,65,-3,289,-1040,377,-57,8,241,30,278,-49,91,121,119,51,-113,-228,-226,74,255,-18,30,62,267,210,102,-65,-99,46
55563,-179,105,140,85,8,263,-1223,470,-64,9,269,103,204,-46,121,64,-151,-16,-106,-194,-128,193,194,-30,67,136,362,90,108,-24,-23,137
55564,-174,156,119,94,20,305,-1027,435,-36,39,260,-25,225,-14,110,-20,-49,16,-93,-210,-122,184,254,-4,59,153,366,30,77,-21,16,210
55565,-173,157,76,59,-7,255,-1203,348,-67,5,139,-28,233,-61,77,37,-3,3,-102,-256,-172,12,256,-12,42,52,256,36,44,-64,-112,-73
55566,-184,161,156,87,22,258,-1155,425,-76,20,248,124,253,-41,68,-90,25,30,-98,-254,-210,25,229,-3,51,44,249,31,60,-46,-64,-2
55567,-192,123,36,69,16,270,-1139,337,-70,24,197,-80,259,-34,111,-263,-38,65,-82,-240,-129,73,235,7,75,121,353,55,105,80,131,380
55568,-251,142,-13,54,8,290,-1167,338,-86,39,296,-316,247,-47,220,-222,-108,56,-94,-185,47,75,239,14,107,194,449,-13,135,124,238,692
55569,-304,175,0,79,22,317,-1130,282,-71,51,302,-198,258,-29,154,-328,-72,28,-116,-188,-10,128,219,3,99,166,457,-14,104,84,172,691
55570,-256,163,81,133,40,266,-1235,91,-8,26,164,-167,371,-8,83,-850,-64,49,-87,-227,18,95,201,-1,71,137,438,68,59,-84,-71,188
55571,-192,145,97,136,55,287,-1133,220,-12,7,-60,-67,358,-26,58,-524,-5,1,-83,-239,130,76,266,-7,42,111,439,155,70,-169,-277,-476
55572,-102,186,132,139,60,368,-987,775,-64,32,186,227,186,-52,60,101,39,59,-97,-270,-252,14,357,18,25,0,155,208,141,-73,-240,-443
55573,-116,183,149,108,56,369,-1076,517,-79,75,363,72,211,-36,211,-122,-31,87,-106,-232,-255,36,277,10,40,26,66,108,106,-65,-177,-164
55574,-149,99,110,113,58,323,-1261,512,-67,57,301,71,250,-29,213,333,0,18,-118,-228,-90,76,175,-35,35,64,179,39,52,-74,-138,-63
55575,-157,131,20,108,55,308,-1129,551,-62,22,179,84,229,-49,43,329,51,-48,-130,-285,-298,36,165,-38,4,7,127,-5,7,-117,-153,-6
55576,-139,166,68,83,51,348,-1060,286,-80,19,196,-89,177,-72,76,-135,9,-75,-138,-251,-265,51,147,-70,9,18,129,-46,-55,-194,-229,-140
55577,-257,79,-41,43,29,310,-1179,311,-107,34,165,-166,162,-77,303,-408,-84,-55,-159,-227,-87,-92,130,-108,-20,2,55,-130,-110,-295,-364,-408
55578,-398,44,-118,77,25,299,-1370,359,-88,64,229,-242,189,-63,297,-177,-71,-26,-147,-215,-120,-118,145,-69,-7,23,62,-125,-84,-246,-279,-284
55579,-373,127,-24,170,42,312,-1183,558,-7,10,213,-55,280,-47,-69,151,12,29,-93,-270,-270,16,214,-8,34,32,174,-51,14,-132,-159,-77
55580,-324,127,7,118,45,295,-1116,391,-24,0,272,-35,261,-36,-11,107,57,49,-50,-216,-194,45,287,42,83,87,223,1,86,-59,-61,84
55581,-270,61,-11,68,35,291,-1209,265,-67,40,242,-52,235,-35,116,84,77,43,-63,-193,-147,1,280,41,81,108,243,20,104,-63,-75,122
55582,-189,79,21,92,22,306,-1219,357,-49,32,249,-154,244,-38,86,63,-25,73,-64,-196,-195,-53,236,41,58,72,140,30,69,-122,-192,-298
55583,-178,91,-6,52,2,316,-1302,295,-48,66,302,-172,259,-19,204,4,-83,142,-35,-165,-110,-32,329,69,97,100,171,-88,86,-88,-139,-296
55584,-211,112,-16,69,9,278,-1085,360,-29,46,-60,27,313,-13,139,-263,33,223,-14,-160,-94,39,414,129,144,180,283,-89,135,-20,-34,21
55585,-222,91,-76,48,5,291,-1079,302,-64,33,137,57,244,-12,162,-65,0,-25,-49,-138,25,-2,258,51,161,252,444,32,128,4,55,54
55586,-225,134,6,50,26,333,-1081,303,-56,40,339,-52,248,0,126,162,-4,-43,-25,-152,16,62,225,62,184,244,400,98,141,46,59,137
55587,-221,128,-50,36,32,323,-1107,252,-49,51,454,-138,262,-3,180,-104,-20,27,-27,-146,42,60,236,68,161,179,260,147,129,-13,-99,-59
55588,-215,117,-41,65,37,320,-1128,393,-42,50,161,-71,299,13,164,-170,-16,89,-15,-147,45,136,320,92,177,216,324,125,145,3,-53,-122
55589,-285,84,-62,79,11,356,-1229,479,-49,78,674,-25,322,-2,237,436,-18,95,-30,-157,-150,154,289,79,149,188,294,87,98,-16,-61,-94
55590,-383,81,-126,107,35,382,-1096,555,-2,111,811,41,385,-7,285,367,-43,124,-17,-151,-51,172,214,78,140,188,304,26,92,-32,-57,-57
55591,-337,153,76,95,22,319,-949,236,-28,44,-22,-102,323,-18,106,38,30,83,-17,-189,-130,87,230,81,167,171,301,66,146,28,17,54
55592,-230,183,39,68,33,346,-900,178,-62,50,24,-133,329,-23,136,150,80,102,-16,-154,-61,140,262,84,159,186,365,132,174,43,31,72
55593,-197,178,-44,79,35,396,-866,351,-10,82,245,-89,307,-3,221,-24,191,109,-20,-137,-4,138,316,104,186,243,398,193,220,97,122,268
55594,-225,121,-39,74,20,318,-1099,322,-24,73,202,-20,273,-23,229,-100,-37,45,-36,-137,39,191,245,103,190,267,465,211,226,136,187,454
55595,-243,93,-107,64,-5,294,-1179,4,-20,45,192,-149,399,-44,165,-517,-158,72,-44,-184,8,152,185,55,128,178,383,72,106,-6,-27,112
55596,-258,83,-90,77,20,331,-1142,196,-3,63,201,-203,436,-9,224,-588,-63,162,-3,-144,211,-84,288,82,144,208,342,-12,80,-78,-113,-252
55597,-247,111,-23,96,29,360,-1084,754,-67,82,326,-185,208,-1,222,-683,-76,85,-65,-122,398,-43,256,49,168,293,483,-113,79,-29,-21,-86
55598,-227,157,5,80,37,379,-1046,552,-68,68,373,-55,229,-6,130,-216,-30,82,-75,-181,-149,115,196,45,122,168,337,-39,121,21,-2,55
55599,-258,138,-61,52,29,360,-1127,294,-54,106,321,-172,287,11,255,162,-101,137,-40,-185,-284,188,303,78,138,146,258,79,155,61,20,32
55600,-311,157,-45,63,26,350,-1018,346,-51,96,280,-160,284,-1,252,52,-140,191,-42,-167,9,44,336,100,143,204,323,66,178,53,25,7
55601,-317,201,-44,70,32,414,-794,397,-39,74,276,-11,293,0,78,-118,-15,165,-51,-223,-162,23,250,79,129,149,291,77,165,52,39,68
55602,-333,119,-60,37,26,354,-1196,390,-40,83,235,76,290,5,225,281,54,84,-47,-167,-42,37,270,57,131,176,305,90,150,22,7,113
55603,-319,74,-28,102,29,363,-1207,474,-33,62,253,114,310,-8,207,304,21,69,-39,-178,-120,47,318,40,117,141,273,33,137,8,0,199
55604,-260,141,-108,93,42,398,-1088,460,-10,79,323,-104,267,-4,151,-141,-83,-19,-47,-176,-33,4,217,15,114,160,366,20,125,55,22,170
55605,-273,119,-100,68,28,378,-1151,493,-10,65,301,-74,279,2,138,-235,-29,5,-35,-184,54,-31,143,17,110,192,460,44,98,46,53,183
55606,-275,154,14,62,41,417,-1014,328,-37,99,289,-29,255,3,122,281,-72,-9,-57,-197,-115,31,126,-4,98,161,358,-50,82,19,48,303
55607,-280,175,40,54,47,456,-924,257,-42,102,391,25,248,-4,126,343,-154,-8,-61,-245,-394,53,129,-7,68,26,105,-273,9,-89,-98,198
55608,-277,81,-26,46,9,349,-1424,293,-58,80,255,-2,249,4,197,-47,-58,-18,-56,-229,-176,1,107,-65,52,35,150,-59,-17,-135,-181,-72
55609,-251,105,40,66,26,357,-1289,277,-45,86,125,-155,237,-8,210,-283,-82,-65,-77,-224,-222,-48,95,-68,20,-3,84,-51,-7,-112,-203,-297
55610,-325,100,-8,61,28,406,-1327,287,-57,111,454,-264,244,-10,224,-175,-109,-49,-86,-218,-196,-111,107,-68,0,5,90,-138,-42,-154,-211,-143
55611,-222,184,-13,102,60,380,-1018,311,-28,47,194,-221,288,-8,-20,-144,-40,41,-56,-226,-105,10,179,-5,42,55,216,-34,10,-144,-217,-37
55612,-128,171,25,96,58,351,-1049,347,-6,61,127,-178,323,4,43,-298,-54,124,-55,-217,-62,-24,261,44,68,68,194,-11,15,-120,-187,-61
55613,-141,150,25,65,28,379,-1026,328,-19,72,321,-33,315,-14,88,101,-13,133,-46,-262,-230,-23,251,5,24,-33,30,6,-28,-262,-388,-459
55614,-114,165,130,102,49,367,-1012,444,7,63,262,60,317,-4,82,326,73,-13,-28,-240,-359,50,216,-11,52,-7,103,24,5,-166,-281,-318
55615,-141,136,98,89,58,381,-1028,426,19,77,258,-58,312,-4,146,14,40,-19,-11,-218,-193,20,219,6,70,76,206,13,62,-74,-103,-64
55616,-169,125,35,82,37,399,-1065,386,-15,112,254,1,314,2,189,-175,21,38,-17,-207,-108,8,216,14,87,94,232,25,47,-57,-94,-33
55617,-160,121,41,85,31,371,-1100,473,10,78,145,-43,329,-10,184,-721,41,36,-42,-198,-85,70,245,30,94,103,251,126,100,-35,-115,-48
55618,-200,155,62,88,21,362,-1081,500,3,39,220,-87,302,-49,108,-294,26,39,-62,-248,-123,60,243,-2,46,64,122,54,65,-117,-244,-295
55619,-242,190,3,66,15,389,-1023,322,-25,52,401,-156,259,-34,125,323,-77,36,-88,-226,-187,0,265,-26,49,42,99,-36,41,-127,-243,-236
55620,-249,159,-85,50,22,407,-1063,359,-48,67,399,-147,296,-25,185,174,-92,91,-49,-186,-184,-31,332,32,88,75,152,36,128,-25,-118,-38
55621,-270,147,-104,93,8,394,-1003,515,-3,49,346,1,361,-18,161,-60,-6,101,-5,-176,-62,-29,275,27,106,159,251,35,106,-4,-40,112
55622,-257,150,24,51,13,393,-957,306,-23,51,247,-53,329,0,133,-170,185,36,8,-175,-42,95,241,26,135,186,365,-16,45,-23,-13,243
55623,-258,136,77,20,38,419,-918,-157,-21,75,229,-273,357,16,164,148,94,55,-14,-175,-45,143,266,63,128,166,378,-92,64,-31,-37,153
55624,-244,171,9,85,19,400,-1019,31,-5,82,322,-151,450,14,190,7,-192,72,0,-175,-95,51,281,58,98,111,276,-101,78,-63,-120,-60
55625,-225,176,-21,72,8,384,-1089,660,-86,103,294,79,196,0,313,-182,27,-11,-48,-147,34,54,301,7,112,150,243,120,97,-21,-128,-102
55626,-222,174,53,28,-2,365,-1116,652,-97,97,195,38,146,5,355,-401,-12,-1,-62,-102,117,92,269,18,144,228,297,100,144,74,33,243
55627,-357,158,31,20,1,413,-1142,390,-37,119,444,-65,261,46,282,-45,2,66,-2,-127,26,56,278,59,142,182,275,61,121,6,-73,-65
55628,-431,153,3,-30,9,459,-1095,323,-59,139,905,-114,207,-3,224,176,-45,31,-69,-190,-126,-4,204,0,86,66,128,46,19,-171,-315,-460
55629,-285,183,8,26,21,439,-1038,346,-48,102,544,-60,253,5,130,444,32,55,-54,-192,-172,142,201,7,116,87,178,101,39,-137,-235,-226
55630,-168,217,62,92,18,359,-1030,411,-43,60,-126,-78,300,22,91,23,78,48,-30,-170,-23,72,274,51,147,150,257,179,110,-47,-121,-144
55631,-160,185,29,48,14,417,-1020,356,-55,96,336,-120,276,14,205,8,-15,34,-17,-159,39,41,258,50,117,154,270,143,82,-71,-136,-134
55632,-184,172,4,62,9,380,-1071,402,-42,71,269,67,307,14,138,457,131,55,9,-196,-137,145,239,39,106,107,290,137,102,-48,-67,-29
55633,-202,172,45,78,29,352,-1100,397,-32,51,117,76,337,3,104,202,52,50,-2,-185,-137,115,257,43,112,129,306,85,79,-13,-41,68
55634,-263,120,-44,55,12,345,-1075,364,-43,64,225,-4,319,11,143,-122,-89,66,-17,-207,-60,111,259,-5,91,136,307,-120,-29,-99,-80,110
55635,-255,77,-48,80,3,269,-1250,450,-42,14,49,-67,365,7,111,-693,-84,117,-16,-198,122,50,268,7,88,156,357,-105,-20,-128,-108,-18
55636,-200,87,7,99,11,269,-1233,475,-25,17,74,-82,356,4,139,-703,-75,149,-19,-190,272,-28,207,0,55,166,349,-127,-51,-192,-205,-216
55637,-195,104,14,112,41,332,-1133,232,-41,58,298,-84,278,-11,145,328,14,50,-56,-244,-296,104,166,-8,50,62,223,-68,-39,-168,-180,-137
55638,-207,158,5,124,49,358,-931,362,-41,34,342,-280,276,-23,81,-69,-110,-36,-60,-256,-381,18,199,-44,16,19,178,-47,-38,-164,-173,-97
55639,-219,134,-6,115,12,262,-1204,371,-51,25,103,-118,303,-17,81,-505,-94,18,-73,-227,4,25,247,-25,43,129,352,-14,-8,-118,-96,63
55640,-240,125,-24,116,28,275,-1275,344,-12,48,164,32,324,19,184,-1034,82,70,-43,-155,251,101,182,12,126,253,549,21,67,7,77,414
55641,-268,41,-4,68,-7,265,-1244,343,-14,28,156,-194,277,-3,170,-690,-5,40,-39,-148,309,134,139,10,142,300,706,0,87,19,150,601
55642,-242,9,-23,65,-19,251,-1220,334,-26,27,105,-222,279,-4,121,697,13,117,-22,-175,13,120,252,53,118,238,643,44,89,-37,55,147
55643,-248,70,-12,97,-1,298,-1043,337,-20,42,210,-135,311,3,102,666,5,109,-14,-228,-365,84,262,50,86,69,212,72,89,-88,-152,-408
55644,-231,48,-3,110,27,303,-1087,407,-4,67,228,-21,308,36,141,342,78,21,-11,-213,-269,133,316,36,135,87,189,111,120,-20,-95,-89
55645,-317,2,-45,57,5,276,-1232,396,-40,60,410,69,295,29,268,220,61,20,-71,-166,-32,109,265,24,135,202,412,29,92,5,28,277
55646,-354,22,-37,34,-15,301,-1147,333,-50,68,277,21,244,24,331,80,11,-34,-62,-161,-66,144,202,9,125,205,423,34,96,28,54,386
55647,-271,50,29,51,-9,293,-1031,369,-36,56,101,-6,261,5,254,-54,5,22,-58,-168,-100,173,282,20,124,188,392,98,159,29,45,250
55648,-284,99,-52,27,-13,266,-1185,279,-26,25,199,-2,274,-10,26,-63,121,68,-24,-191,-112,216,358,72,141,185,380,210,213,59,19,-82
55649,-399,88,-124,26,-19,333,-1146,239,-33,58,331,-121,246,15,182,-74,75,30,-42,-179,-31,191,331,60,145,184,414,159,170,55,3,-85
55650,-319,97,-45,69,5,296,-1062,395,-21,81,123,-50,318,16,162,195,96,72,-31,-162,-123,218,361,88,152,164,424,112,186,38,-19,-60
55651,-275,77,-152,42,7,313,-1081,302,-17,75,257,-119,300,20,135,193,95,81,-32,-169,-117,212,392,113,145,149,387,19,195,39,18,19
55652,-256,111,-170,29,1,313,-1035,325,-37,43,254,-51,351,31,75,-60,122,128,-6,-178,-151,167,419,91,148,167,335,206,188,75,55,108
55653,-305,91,-142,14,-18,306,-1042,122,-3,73,271,-53,434,26,159,-290,31,124,-15,-178,-57,155,348,99,162,172,332,209,173,66,51,99
55654,-276,27,-141,28,-3,316,-1203,128,16,91,212,-195,399,24,271,-387,80,28,-25,-142,67,110,288,67,154,208,358,124,142,45,36,95
55655,-258,94,-176,-9,21,336,-1118,482,-50,79,202,-57,187,14,258,-280,221,-6,-53,-125,76,114,312,56,151,212,357,139,163,38,27,71
55656,-195,147,-23,44,35,353,-1094,577,-39,64,225,45,158,23,101,232,32,66,-43,-163,-84,191,344,96,172,189,411,222,211,90,54,107
55657,-193,183,-2,59,21,313,-1011,404,-4,45,154,-161,265,8,28,170,-29,84,-29,-220,-206,251,361,112,143,153,315,238,227,94,43,104
55658,-258,149,-113,30,5,345,-1115,398,20,78,356,-143,246,12,179,192,100,50,-22,-178,-55,222,294,78,147,192,351,212,229,115,73,131
55659,-292,149,-48,65,17,345,-1093,449,23,86,244,-51,272,21,196,98,59,46,-23,-154,-40,159,250,51,159,200,416,94,185,97,75,169
55660,-267,149,-63,23,17,351,-1066,247,1,104,255,-116,253,48,241,72,97,54,-22,-121,14,224,297,72,186,209,437,7,173,93,103,263
55661,-244,123,-52,11,19,332,-1096,190,22,99,288,8,274,50,221,78,35,56,0,-105,31,174,289,80,183,220,429,74,200,117,127,290
55662,-236,92,-42,39,0,347,-1096,325,7,63,248,-108,280,45,177,-237,45,-6,-16,-109,39,114,286,67,168,211,403,139,221,115,82,236
55663,-219,109,-16,59,12,357,-1072,312,14,73,305,-106,274,41,208,-148,46,-14,-17,-119,41,126,332,68,171,221,399,155,232,116,74,174
55664,-243,143,-11,62,26,327,-1030,326,31,84,321,-142,283,33,211,-90,3,-5,-20,-130,11,156,297,49,160,230,430,140,200,135,134,288
55665,-291,118,-28,40,3,318,-1121,287,8,68,327,-207,292,10,206,209,-1,1,-31,-117,72,219,217,45,168,262,500,118,168,146,219,537
55666,-272,137,-26,58,27,341,-1044,287,-20,58,186,-195,301,9,128,-90,-35,8,-32,-164,-35,374,175,18,135,197,454,56,102,69,134,458
55667,-271,128,22,73,41,356,-1041,346,-25,68,187,12,300,-9,127,-56,-17,-4,-55,-218,-38,177,161,-29,60,93,270,-106,-10,-116,-178,-223
55668,-310,102,-26,72,24,355,-1039,331,-41,70,319,36,253,-28,129,432,-52,-71,-93,-259,-249,-149,66,-108,-2,24,166,-268,-109,-175,-239,-150
55669,-460,87,-133,55,23,337,-1270,325,-18,68,348,-273,249,-29,135,115,-106,-21,-74,-244,-174,-28,134,-64,5,38,228,-231,-85,-169,-194,-69
55670,-466,54,-151,47,11,382,-1137,407,-7,86,489,-442,296,-4,170,-122,-183,91,-46,-209,-50,-82,241,5,48,82,280,-311,-54,-138,-146,-62
55671,-320,99,-139,19,27,399,-1138,185,-40,82,521,-324,253,2,207,61,-114,88,-51,-184,-135,104,242,-17,80,100,312,-177,-28,-86,-54,235
55672,-285,62,-114,12,34,371,-1114,183,-35,110,477,-111,236,5,222,-217,-3,30,-58,-189,-89,104,192,-45,71,79,248,-138,-65,-173,-159,180
55673,-202,108,-99,42,24,326,-1137,326,-2,94,-75,7,285,21,165,-957,-8,64,-38,-179,181,-61,227,-13,65,114,253,-113,-57,-218,-321,-317
55674,-220,105,-33,46,47,377,-1167,295,-35,132,19,26,265,19,275,57,-4,-97,-74,-164,108,22,145,-84,40,76,236,-32,-94,-270,-407,-600
55675,-280,149,-38,24,24,371,-973,245,-55,76,155,39,263,-19,88,-30,-63,-62,-94,-222,-390,160,176,-67,38,-13,176,-31,-51,-208,-343,-395
55676,-268,163,-84,27,31,400,-1091,235,-5,90,258,-34,286,24,155,-746,-45,24,-43,-126,152,130,232,-2,121,172,492,12,7,-129,-182,-193
55677,-231,107,35,79,34,333,-1194,407,-11,73,128,-64,277,3,158,8,38,1,-61,-163,36,56,205,-36,97,143,353,-2,-19,-153,-236,-223
55678,-200,121,-5,89,39,347,-1136,437,-33,59,191,-96,266,-17,97,430,-18,-9,-89,-251,-447,62,161,-49,24,-35,-34,-73,-71,-198,-319,-263
55679,-191,116,-75,112,52,363,-1065,455,-6,98,205,-144,313,29,144,283,-71,36,-75,-177,-246,113,265,0,69,53,145,-36,-7,-140,-209,-187
55680,-185,111,92,117,42,391,-982,396,-2,114,247,-116,301,48,212,233,-21,16,-48,-124,-86,49,245,-7,91,119,245,-28,9,-131,-181,-141
55681,-262,88,33,85,45,348,-1178,323,-2,109,138,66,291,48,265,-150,118,0,-34,-120,-96,-34,202,0,113,120,205,18,44,-106,-179,-118
55682,-358,35,-59,36,35,325,-1385,369,-18,122,148,-72,285,41,356,-271,3,10,-45,-129,-46,-24,197,-3,105,135,214,-41,40,-100,-179,-110
55683,-333,73,-42,93,30,351,-1252,48,-4,103,207,-255,368,40,255,-483,-9,28,-24,-128,-13,0,204,6,135,163,276,7,64,-67,-132,-51
55684,-347,60,-143,89,24,336,-1206,-67,-24,54,313,-390,353,32,221,-493,-188,-6,-52,-141,64,-102,169,-7,117,169,297,-45,20,-81,-105,12
55685,-375,28,-86,67,17,369,-1319,563,-65,98,443,-104,207,11,293,326,-165,1,-72,-127,59,-10,207,-18,102,192,360,-32,13,-51,-31,149
55686,-220,145,97,98,64,380,-1054,479,-59,60,190,-25,134,7,-24,61,122,-3,-77,-197,-281,193,304,13,121,110,306,61,89,14,0,175
55687,-320,133,67,109,74,367,-1040,374,-52,80,149,-137,150,-14,55,13,125,-106,-91,-223,-210,22,200,-35,91,84,221,-63,-2,-79,-114,-129
55688,-411,49,-31,66,36,349,-1255,401,-72,86,269,-218,189,-27,206,72,-279,-100,-113,-204,-90,19,159,-65,58,102,257,-205,-67,-136,-151,-123
55689,-289,22,-41,71,28,310,-1275,482,-32,59,198,-101,254,-25,96,-387,-240,-9,-92,-234,-120,45,191,-29,52,105,311,-154,-21,-115,-94,82
55690,-201,56,28,47,30,295,-1197,322,-33,27,104,-68,219,-10,5,-193,-83,-34,-68,-231,-58,146,210,-8,79,160,415,-40,52,-25,2,275
55691,-200,96,2,30,27,346,-1210,240,-47,68,237,28,208,14,91,391,24,-85,-103,-198,-105,128,118,-39,90,160,395,-47,64,3,29,407
55692,-236,76,-32,37,21,342,-1170,308,-44,67,281,-75,219,-5,98,225,-56,-77,-115,-216,-233,-55,110,0,69,106,265,-37,90,-26,-30,323
55693,-294,27,-53,24,3,274,-1215,275,-44,36,120,-105,210,-9,59,11,-109,-42,-61,-240,-213,0,198,16,56,77,197,-119,88,-112,-207,-78
55694,-254,37,-51,48,31,273,-1171,293,-46,59,70,-92,217,-18,26,-58,-68,-44,-96,-263,-238,-21,163,-27,28,24,138,62,52,-153,-320,-548
55695,-286,27,-56,3,10,281,-1204,291,-69,33,100,-116,175,-17,65,-281,-55,-58,-114,-250,-99,-20,158,-45,18,87,250,57,23,-111,-183,-132
55696,-339,14,-87,-11,-12,261,-1312,244,-51,57,140,-111,152,-22,123,-626,-123,-65,-118,-223,89,52,139,-55,28,134,329,-71,-49,-123,-112,138
55697,-348,33,-137,-12,3,312,-1270,206,-42,89,153,-123,204,0,162,-231,-75,-25,-94,-209,89,209,173,-30,58,128,332,0,-31,-141,-173,-231
