,Fp1,Fp2,F7,F3,Fz,F4,F8,FC5,FC1,FC2,FC6,T7,C3,Cz,C4,T8,TP9,CP5,CP1,CP2,CP6,TP10,P7,P3,Pz,P4,P8,PO9,O1,Oz,O2,PO10
61758,145,256,166,-28,114,305,-105,349,83,59,138,28,283,57,-86,-200,50,-92,143,-15,-277,71,151,161,224,108,29,-250,92,-191,-656,-248
61759,157,265,208,-18,124,309,-89,365,92,82,142,48,309,67,-61,-337,84,-70,159,13,-243,63,172,158,242,106,42,-239,110,-189,-621,-259
61760,142,251,199,-17,116,315,-119,353,81,85,150,60,307,57,-52,-354,88,-62,142,2,-252,63,176,176,244,126,74,-203,159,-142,-580,-176
61761,114,222,146,-22,109,301,-148,355,66,63,119,51,288,30,-81,-248,68,-97,131,-22,-283,1,144,148,221,92,53,-223,117,-190,-648,-244
61762,133,172,156,-36,95,273,-150,341,60,49,87,43,281,37,-112,-131,58,-101,106,-40,-336,-50,147,135,191,62,51,-226,101,-196,-661,-277
61763,148,176,169,-48,92,265,-126,316,59,42,74,51,260,43,-141,14,40,-104,82,-59,-376,-34,134,142,196,59,77,-226,111,-169,-636,-262
61764,122,173,140,-46,79,287,-121,301,51,60,61,37,258,41,-134,48,14,-96,82,-28,-339,-6,152,163,203,93,93,-230,136,-145,-602,-220
61765,105,167,108,-83,53,278,-130,278,42,37,51,-4,239,19,-152,39,-111,-116,119,-37,-349,-42,151,162,212,92,85,-249,163,-151,-631,-265
61766,117,173,118,-55,82,274,-135,300,58,36,76,7,271,31,-121,36,-27,-82,136,-13,-332,19,178,199,251,127,130,-193,230,-109,-600,-227
61767,122,184,133,-49,90,286,-125,337,68,36,78,66,294,38,-119,36,146,-42,151,-13,-300,60,196,229,262,150,176,-177,183,-101,-556,-137
61768,125,206,154,-40,96,296,-100,326,61,40,85,59,273,47,-127,32,50,-65,134,-27,-289,49,173,214,250,149,186,-221,122,-114,-522,-74
61769,140,174,151,-24,76,305,-113,334,62,29,73,63,269,28,-149,-38,4,-69,123,-49,-310,13,165,204,222,106,151,-215,154,-115,-548,-116
61770,145,176,160,-12,111,305,-83,373,72,42,68,65,279,20,-147,-89,47,-66,121,-42,-309,33,153,182,211,103,138,-225,117,-153,-590,-151
61771,152,165,150,-45,108,284,-79,323,75,40,85,47,269,27,-141,-81,8,-86,128,-41,-314,-8,137,170,213,83,105,-269,87,-169,-616,-231
61772,135,150,105,-67,91,287,-102,281,59,47,77,26,253,16,-135,-183,-39,-108,112,-57,-318,-10,100,157,210,74,92,-283,70,-200,-629,-290
61773,108,153,99,-55,93,292,-131,290,46,17,66,23,239,19,-145,-210,-6,-121,95,-69,-336,-23,107,128,192,72,80,-254,82,-203,-643,-243
61774,117,232,84,-47,97,310,-89,284,36,27,92,-3,230,2,-141,-172,2,-141,62,-73,-321,-35,90,129,174,72,81,-252,93,-194,-640,-212
61775,153,214,93,-40,94,285,-91,289,55,17,89,3,234,11,-159,-124,-22,-140,77,-82,-325,-21,87,133,170,70,109,-263,77,-207,-623,-239
61776,185,172,111,-41,115,286,-82,306,77,40,64,2,244,10,-163,-86,-18,-144,89,-90,-341,-135,98,122,179,56,100,-250,72,-233,-636,-281
61777,164,173,109,-23,116,298,-86,316,82,44,59,-14,249,8,-170,-45,-52,-140,83,-98,-367,-234,89,116,162,10,75,-250,56,-267,-687,-333
61778,130,157,108,-44,110,278,-149,326,54,22,51,-49,252,-1,-191,-84,-83,-133,80,-108,-374,51,66,110,152,-7,63,-306,29,-295,-726,-321
61779,124,192,118,-56,112,289,-117,332,62,40,64,-69,281,13,-180,-82,-8,-100,106,-91,-377,-23,67,125,158,28,43,-336,39,-264,-701,-289
61780,124,208,129,-32,112,290,-89,339,64,35,73,-39,282,12,-182,-55,8,-89,125,-98,-373,-81,79,145,172,34,56,-255,69,-215,-676,-283
61781,148,231,162,-35,112,321,-72,343,66,31,84,-29,279,-8,-167,-48,-13,-89,132,-97,-371,-9,101,142,158,34,42,-233,80,-241,-711,-319
61782,179,238,172,-18,120,334,-64,348,58,29,96,21,272,-20,-151,-51,37,-91,117,-90,-346,39,138,147,155,50,105,-219,105,-213,-688,-302
61783,192,234,166,5,135,347,-68,359,74,45,88,33,260,-6,-153,-86,35,-117,101,-92,-330,-57,152,121,147,41,88,-248,91,-215,-668,-281
61784,167,238,165,13,149,337,-122,378,91,57,99,61,274,4,-147,-54,79,-82,104,-83,-314,-2,162,136,155,44,68,-230,116,-183,-636,-213
61785,187,267,188,-16,151,369,-107,374,78,60,109,95,271,-2,-145,-33,57,-84,96,-76,-318,17,162,139,138,34,58,-206,126,-186,-646,-227
61786,234,287,225,26,172,408,-34,395,90,63,127,101,272,5,-137,-21,20,-87,95,-69,-312,-7,171,131,129,34,55,-169,129,-185,-651,-232
61787,216,273,218,29,139,393,-16,394,72,64,131,102,252,-16,-133,-111,-17,-95,75,-101,-338,-14,132,99,99,11,24,-213,93,-220,-698,-286
61788,234,260,246,4,128,399,5,378,52,43,141,139,275,-8,-150,-141,91,-57,85,-102,-335,-9,170,129,111,8,85,-188,112,-238,-680,-258
61789,229,262,231,24,151,411,-44,382,69,61,155,114,289,9,-116,-119,67,-59,90,-87,-300,15,183,138,148,47,115,-163,129,-223,-655,-213
61790,221,300,219,24,146,396,-40,373,79,92,163,97,284,25,-96,-27,49,-70,99,-77,-284,28,145,127,159,57,72,-235,71,-239,-694,-234
61791,190,284,193,1,112,366,-42,351,71,48,130,57,246,-3,-130,34,-35,-100,75,-106,-312,5,113,87,120,40,57,-279,-7,-287,-731,-309
61792,185,233,186,-5,103,364,-26,345,56,20,126,64,223,-7,-134,73,-36,-125,66,-134,-324,-57,69,57,100,18,15,-313,-37,-319,-783,-359
61793,211,286,197,7,140,375,11,367,70,41,158,126,269,21,-109,109,100,-101,95,-119,-287,-50,101,93,143,37,25,-285,23,-268,-739,-337
61794,226,290,199,35,140,362,14,359,91,36,145,165,294,18,-122,97,113,-73,89,-83,-283,15,170,132,161,51,87,-240,88,-220,-668,-257
61795,242,292,201,51,162,365,33,364,75,54,144,116,264,20,-115,103,59,-84,69,-80,-298,54,147,115,161,80,117,-263,84,-222,-628,-198
61796,222,303,159,39,168,380,14,395,72,67,139,110,233,24,-87,70,52,-117,57,-85,-272,25,116,93,160,89,99,-247,62,-233,-619,-206
61797,246,307,222,36,160,392,30,347,79,79,186,183,250,18,-81,70,50,-93,69,-84,-274,30,128,97,140,67,108,-220,46,-255,-641,-269
61798,259,319,217,43,170,390,37,334,76,81,219,234,256,19,-65,72,114,-84,98,-83,-257,76,168,122,145,73,147,-158,105,-192,-623,-190
61799,235,328,215,55,172,417,39,349,76,99,226,196,264,17,-75,57,105,-80,125,-95,-273,52,221,152,157,74,143,-119,147,-163,-628,-179
61800,240,309,218,20,161,405,48,325,73,79,210,97,259,9,-59,27,69,-76,132,-87,-268,50,193,149,151,70,120,-130,144,-177,-634,-220
61801,228,332,227,9,151,410,76,338,66,84,222,101,260,13,-55,-43,86,-72,117,-79,-246,87,186,143,160,75,129,-125,147,-178,-603,-222
61802,239,363,229,19,161,401,88,350,68,110,249,114,264,32,-50,-135,84,-67,107,-55,-217,134,185,145,153,95,133,-102,166,-158,-586,-169
61803,241,364,251,38,159,405,105,367,73,111,266,121,275,53,-31,-75,95,-51,117,-49,-205,85,186,156,186,99,155,-121,143,-177,-599,-167
61804,225,354,237,27,135,423,107,332,44,85,255,84,246,29,-51,-5,88,-91,87,-63,-240,63,149,118,159,89,148,-166,81,-202,-614,-194
61805,243,306,198,13,146,433,71,323,59,87,257,78,243,7,-49,63,78,-96,58,-66,-249,80,120,101,150,77,150,-185,64,-224,-606,-207
61806,237,299,199,31,169,445,82,350,92,135,248,84,267,40,-32,130,49,-67,127,-46,-216,132,134,131,169,89,175,-164,97,-201,-613,-171
61807,220,314,185,-2,168,443,77,324,67,127,207,51,229,13,-58,103,-23,-125,101,-86,-256,-104,83,95,128,54,77,-227,42,-241,-689,-245
61808,241,346,208,3,168,428,90,327,64,134,203,52,239,26,-61,59,-31,-121,89,-102,-272,-119,117,100,132,39,60,-186,66,-230,-678,-244
61809,273,338,219,23,158,398,40,353,70,113,184,77,266,22,-78,31,92,-115,92,-104,-274,179,142,96,145,40,134,-145,98,-200,-635,-201
61810,252,318,248,38,135,402,14,393,76,109,203,91,260,3,-67,111,114,-109,95,-86,-283,49,156,121,136,44,151,-138,117,-183,-607,-179
61811,201,297,235,10,121,396,23,352,57,95,231,89,256,8,-51,110,49,-106,111,-80,-254,75,159,135,157,76,189,-108,142,-167,-576,-178
61812,217,333,244,3,125,407,87,320,71,110,270,128,267,24,-22,15,80,-73,167,-49,-210,133,194,153,191,100,230,-89,152,-145,-554,-150
61813,257,322,260,12,131,409,89,358,87,119,258,113,292,41,-15,-21,107,-55,184,-44,-201,130,195,157,202,109,249,-84,168,-124,-532,-100
61814,237,296,256,7,133,404,76,388,77,115,255,88,280,62,-2,72,131,-69,169,-33,-184,123,190,159,228,131,271,-62,179,-103,-520,-96
61815,237,291,220,2,125,400,77,341,65,107,262,83,259,44,8,62,140,-93,112,-45,-164,136,167,130,198,128,277,-82,144,-145,-563,-142
61816,259,290,223,14,142,403,97,345,59,109,260,72,251,34,1,1,106,-109,74,-59,-196,112,152,127,170,111,224,-95,128,-179,-608,-184
61817,249,267,233,4,172,383,105,349,89,92,233,71,279,50,-13,14,107,-102,92,-48,-215,111,162,125,191,121,186,-101,132,-161,-574,-148
61818,222,255,201,0,153,367,42,340,83,70,204,59,252,42,-30,32,89,-97,106,-57,-221,101,171,130,180,119,199,-101,130,-149,-566,-95
61819,241,287,206,9,146,398,49,339,77,87,207,79,278,56,-32,103,85,-93,110,-66,-231,83,180,138,166,91,210,-84,137,-143,-565,-119
61820,235,305,210,2,163,392,65,325,94,99,201,99,287,59,-39,183,101,-57,121,-56,-232,102,204,146,190,113,244,-59,163,-123,-550,-130
61821,187,274,174,-36,138,368,23,309,97,100,197,75,272,38,-61,192,100,-63,109,-65,-214,134,195,160,187,109,254,-54,164,-119,-551,-102
61822,199,242,162,-32,124,368,9,287,64,109,191,62,248,26,-28,192,85,-89,103,-73,-201,146,188,153,163,108,228,-67,161,-117,-555,-101
61823,262,280,207,0,155,392,74,330,94,125,253,110,291,51,-3,190,105,-59,104,-55,-191,170,204,169,188,107,204,-75,164,-132,-551,-113
61824,239,286,177,2,144,401,89,317,84,118,258,76,263,34,-49,131,88,-97,76,-71,-242,119,168,128,153,90,177,-107,120,-183,-591,-181
61825,218,281,176,12,129,400,79,310,74,103,245,59,248,13,-33,75,66,-118,80,-84,-239,101,150,131,135,94,191,-119,136,-171,-578,-145
61826,231,325,211,49,151,433,106,329,78,128,278,85,292,57,20,18,53,-91,97,-45,-186,175,159,146,177,125,230,-118,143,-153,-570,-113
61827,209,289,169,-12,122,401,115,289,67,103,253,21,281,25,10,-37,65,-116,70,-53,-182,140,139,119,166,108,179,-137,110,-188,-624,-244
61828,219,287,151,-29,122,386,102,295,61,87,241,-31,263,13,5,37,38,-99,88,-64,-184,165,156,143,148,115,213,-117,134,-170,-605,-184
61829,262,318,203,-1,139,419,137,328,59,115,276,-15,277,21,23,124,24,-61,85,-68,-181,129,152,158,166,121,238,-110,143,-171,-606,-164
61830,235,302,229,4,123,428,134,337,52,110,259,-6,301,27,4,228,65,-58,88,-71,-176,121,140,167,174,103,218,-109,146,-159,-586,-147
61831,249,297,268,10,138,420,128,354,70,79,247,54,295,32,-12,299,107,-59,106,-63,-178,171,183,181,181,124,232,-72,176,-128,-564,-93
61832,269,300,265,41,141,417,131,366,86,94,248,120,303,47,-19,236,120,-52,125,-46,-144,219,216,185,182,152,283,-64,198,-96,-543,-71
61833,263,300,253,30,150,420,124,359,81,109,251,126,317,52,-8,193,73,-35,124,-22,-148,194,230,213,190,164,304,-23,224,-57,-505,-50
61834,230,332,234,4,146,440,93,324,68,102,273,134,283,27,5,231,37,-38,126,-40,-134,172,219,191,192,155,303,-10,202,-76,-493,-64
61835,209,342,234,-8,156,440,78,322,74,118,274,129,279,33,19,234,139,-23,124,-56,-137,230,229,165,190,164,320,-17,217,-64,-470,7
61836,255,370,246,20,165,455,74,341,85,117,284,156,283,39,20,239,125,-14,119,-58,-146,203,237,188,168,152,327,-23,192,-88,-535,-63
61837,269,343,255,16,176,456,77,349,88,121,282,130,297,37,-1,225,14,-8,121,-46,-179,175,222,177,175,129,292,-60,158,-151,-601,-152
61838,264,348,247,28,181,450,110,352,83,120,278,141,279,36,-8,245,58,-15,118,-55,-192,46,201,164,178,121,245,-56,146,-164,-599,-156
61839,271,369,250,46,191,478,90,357,95,140,304,128,289,62,10,281,166,-34,119,-55,-167,90,211,158,180,121,269,-52,142,-149,-577,-144
61840,255,365,246,17,173,466,79,351,102,138,298,106,291,49,18,228,97,-31,125,-38,-152,388,209,162,190,145,315,-75,142,-131,-561,-115
61841,221,344,215,1,151,443,122,336,89,130,281,121,288,35,12,225,114,-22,136,-34,-148,253,209,162,175,161,303,-70,153,-117,-524,-77
61842,217,365,203,3,164,460,194,345,90,135,314,122,310,54,59,265,161,-17,131,-22,-115,269,227,184,204,185,335,-71,154,-128,-539,-98
61843,207,306,189,15,144,434,171,351,88,116,284,128,313,65,38,159,136,-5,146,-1,-127,263,227,203,226,198,326,-69,158,-107,-525,-91
61844,188,289,193,6,150,415,108,335,78,102,248,110,294,34,20,38,73,-15,152,-21,-158,231,207,189,227,185,298,-67,160,-114,-530,-92
61845,196,296,181,-29,139,404,84,322,75,77,220,102,298,28,6,-4,42,-30,135,-37,-186,172,182,174,197,156,282,-71,142,-136,-566,-103
61846,243,318,220,1,137,405,144,336,78,99,245,120,322,65,12,43,73,-5,131,-5,-132,210,203,193,201,162,304,-60,171,-117,-568,-85
61847,234,319,219,22,154,401,144,335,79,110,251,87,292,46,4,106,94,-35,133,-22,-151,214,189,188,188,164,310,-55,151,-122,-559,-96
61848,219,321,180,9,155,410,138,345,91,114,250,80,303,35,0,149,80,-55,138,-24,-134,163,185,178,186,152,306,-72,151,-129,-576,-126
61849,217,324,182,54,180,442,163,361,89,125,292,96,323,56,28,158,64,-34,172,-17,-82,224,218,190,215,179,285,-21,191,-116,-543,-122
61850,225,316,204,42,165,420,75,342,88,116,282,89,310,43,14,61,83,-47,123,-26,-178,152,242,196,199,151,199,-22,167,-136,-570,-123
61851,205,298,220,19,119,355,21,361,73,80,231,105,285,29,-34,41,95,-54,95,-46,-238,90,218,176,184,94,175,-48,158,-144,-613,-150
61852,253,354,257,40,162,395,70,402,87,106,249,141,328,42,-10,183,163,-13,157,-25,-187,131,264,192,210,129,254,-7,189,-113,-550,-136
61853,277,385,276,55,194,431,133,402,120,139,264,151,340,66,13,164,157,10,164,-22,-155,171,291,244,226,172,280,18,218,-77,-516,-73
61854,264,343,270,50,185,422,137,387,122,129,264,152,335,50,15,83,69,8,144,-37,-156,166,276,241,231,165,262,6,214,-62,-508,-37
61855,282,338,231,34,167,416,125,375,91,100,259,126,335,32,10,56,82,-11,141,-48,-173,146,262,208,198,129,269,-5,199,-94,-529,-67
61856,267,363,229,39,175,407,126,395,91,98,261,138,327,36,7,92,128,-24,133,-59,-163,145,269,217,174,142,265,-17,209,-103,-548,-93
61857,291,306,281,51,198,406,118,395,102,97,242,165,335,46,10,145,167,3,128,-34,-161,184,275,233,185,148,261,1,229,-91,-558,-90
61858,312,311,284,78,199,414,114,398,100,107,249,176,356,74,25,203,190,23,145,-36,-168,192,290,246,199,147,263,12,240,-74,-525,-45
61859,274,311,262,61,173,413,50,413,102,106,242,214,357,59,3,256,188,39,159,-34,-183,140,295,231,200,154,267,1,210,-84,-570,-61
61860,321,343,304,79,191,420,50,449,114,119,237,256,354,60,3,265,173,28,160,-17,-185,143,297,226,210,141,261,-31,212,-117,-566,-109
61861,315,378,300,64,190,418,70,446,126,118,232,230,350,60,-2,233,158,12,172,-44,-193,147,275,203,190,118,237,-70,181,-157,-569,-143
61862,290,365,284,74,165,427,89,432,111,117,232,134,353,52,-4,224,139,16,146,-54,-196,179,259,209,175,121,228,-63,170,-150,-588,-138
61863,286,367,281,93,151,419,58,444,120,96,237,109,348,50,-8,196,142,17,106,-50,-213,178,254,205,167,100,194,-61,192,-157,-590,-148
61864,295,353,270,95,162,415,35,426,110,110,234,131,362,40,-16,176,132,8,129,-62,-228,155,246,206,152,111,162,-66,178,-183,-610,-179
61865,276,301,275,100,162,395,4,417,119,131,240,144,363,54,-2,154,123,9,107,-58,-210,144,264,226,174,119,185,-71,187,-142,-622,-140
61866,285,265,264,66,177,399,-21,405,111,118,220,168,343,43,-12,54,138,6,90,-58,-226,98,291,231,190,116,154,-55,200,-116,-581,-144
61867,283,268,264,70,190,401,24,409,131,101,250,212,341,66,-15,3,184,24,144,-46,-222,137,307,243,189,124,138,-41,205,-133,-603,-151
61868,284,219,254,61,168,404,74,364,109,77,233,202,326,49,-48,-33,163,10,134,-62,-233,116,297,216,161,95,130,-40,196,-160,-640,-176
61869,282,236,272,58,177,429,128,380,114,95,247,210,341,55,-8,-1,158,-10,142,-55,-227,90,281,209,160,103,135,-40,195,-157,-626,-176
61870,258,307,280,52,165,399,129,402,121,105,223,214,342,68,-3,47,159,1,134,-63,-235,118,289,218,177,105,184,-29,206,-140,-611,-172
61871,266,321,253,42,156,394,96,366,101,110,199,175,336,55,-32,39,150,-2,102,-85,-226,37,262,215,165,95,178,-43,192,-163,-652,-204
61872,236,290,247,52,154,387,107,363,103,105,209,147,329,56,-3,37,146,-24,92,-59,-214,-148,257,191,150,96,136,-71,173,-181,-661,-221
61873,234,294,249,38,150,371,82,373,108,112,203,149,323,53,-10,21,145,-21,123,-56,-219,171,251,202,135,80,111,-57,171,-168,-667,-177
61874,252,284,251,30,153,386,31,377,95,114,205,143,318,43,-32,17,141,-29,101,-77,-238,227,256,196,131,69,144,-97,162,-191,-648,-173
61875,246,292,289,53,151,371,30,433,88,98,201,139,324,20,-37,101,84,-30,68,-84,-238,80,243,184,118,74,221,-128,153,-178,-619,-149
61876,240,273,289,52,147,379,36,401,109,102,197,156,327,50,-23,168,31,-22,70,-70,-220,96,273,189,136,72,211,-66,172,-167,-622,-170
61877,233,232,260,60,143,372,30,373,112,102,189,191,335,45,-27,189,98,-11,86,-68,-227,102,274,199,148,68,161,-61,169,-157,-609,-143
61878,202,204,248,55,153,357,22,390,105,94,184,159,335,53,-51,159,215,0,125,-64,-230,134,280,221,144,76,190,-40,185,-133,-595,-126
61879,195,202,238,70,161,365,26,421,108,107,193,149,356,66,-54,162,153,1,146,-79,-229,155,289,224,141,94,258,-15,209,-119,-575,-119
61880,174,224,235,52,141,375,13,394,108,104,184,156,352,71,-45,143,137,-16,115,-81,-234,117,300,232,139,90,220,-33,193,-127,-607,-144
61881,199,249,243,60,132,398,28,381,110,118,187,182,351,58,-58,92,120,-22,102,-72,-228,141,284,219,134,76,141,-64,151,-168,-628,-177
61882,187,260,246,26,134,381,41,385,110,112,215,166,337,56,-53,72,151,-34,90,-73,-236,97,280,196,149,91,111,-94,145,-196,-634,-203
61883,178,261,229,8,146,374,57,359,87,132,225,146,333,65,-25,115,80,-32,112,-54,-223,102,255,202,174,107,148,-99,160,-170,-617,-184
61884,195,231,233,12,132,357,39,346,79,91,203,129,327,34,-35,172,93,-56,97,-76,-247,60,241,185,139,81,174,-112,142,-174,-622,-188
61885,204,246,237,33,154,373,57,374,88,104,231,145,318,48,-35,229,171,-41,94,-87,-237,88,274,206,131,72,200,-64,166,-155,-605,-178
61886,232,252,221,36,161,378,52,377,86,116,256,145,320,80,-26,200,190,-14,93,-73,-230,136,276,202,127,70,204,-48,191,-146,-591,-151
61887,223,219,214,22,138,377,58,339,94,108,255,106,310,65,-25,176,152,-36,99,-80,-221,158,254,160,112,74,203,-53,186,-154,-614,-170
61888,227,186,261,23,153,366,49,355,88,103,237,107,291,52,-36,159,97,-65,90,-90,-223,140,235,139,114,74,182,-81,155,-173,-633,-188
61889,207,152,275,15,159,339,40,363,77,97,185,103,290,41,-51,96,102,-77,81,-114,-274,97,206,120,87,39,128,-83,162,-171,-672,-141
61890,189,138,270,-4,144,315,16,363,70,68,182,99,277,46,-70,28,78,-91,88,-125,-299,74,173,111,62,14,76,-114,115,-208,-694,-165
61891,183,112,248,-10,114,314,-36,341,73,55,154,113,280,41,-74,-66,90,-96,99,-118,-296,82,163,108,75,8,95,-130,93,-228,-698,-213
61892,120,95,214,-19,98,326,-95,337,78,80,155,121,308,58,-61,-167,117,-85,109,-105,-297,86,176,112,85,16,81,-117,133,-205,-676,-196
61893,125,121,206,-11,110,331,-107,343,67,63,186,92,295,50,-59,-150,102,-93,100,-118,-305,49,150,107,82,3,74,-144,107,-226,-706,-212
61894,128,111,206,-32,101,313,-107,319,58,59,207,85,276,41,-68,-69,81,-115,85,-134,-310,29,139,86,53,-19,46,-177,76,-269,-727,-257
61895,118,138,190,-50,114,346,-62,316,80,71,223,84,286,54,-46,42,64,-104,88,-104,-296,46,144,81,58,-8,60,-181,76,-280,-747,-273
61896,132,165,175,-22,133,349,2,335,82,111,228,79,277,71,-25,42,25,-102,108,-88,-281,10,130,85,79,1,79,-194,70,-273,-732,-271
61897,149,155,197,-32,134,328,22,343,89,112,210,102,280,74,-42,-15,46,-99,94,-78,-296,23,146,84,86,-3,94,-201,63,-263,-744,-264
61898,153,166,178,-33,127,327,16,327,83,102,179,113,291,63,-35,-188,71,-79,86,-72,-284,26,165,105,93,-8,105,-169,76,-252,-723,-243
61899,119,160,123,-61,105,332,0,300,58,96,166,95,259,51,-18,-251,1,-95,102,-88,-288,6,161,96,69,-2,87,-170,70,-266,-732,-242
61900,126,180,161,-68,127,333,-25,311,72,106,183,63,273,59,-39,-166,47,-94,120,-78,-311,2,155,94,85,0,56,-159,62,-272,-738,-242
61901,127,209,142,-58,133,341,-31,311,59,111,217,46,262,39,-46,-44,2,-108,74,-76,-306,-64,148,96,80,-7,51,-142,65,-266,-710,-250
61902,130,197,132,-55,106,337,-36,301,40,88,199,34,251,26,-69,100,-38,-131,62,-102,-316,-250,123,60,39,-12,39,-185,40,-295,-741,-286
61903,179,195,159,-34,135,344,-35,301,68,111,158,45,263,54,-83,105,68,-115,77,-101,-337,12,155,74,52,-4,77,-208,44,-280,-738,-280
61904,177,191,153,-13,147,317,-25,309,85,109,117,64,262,68,-73,115,25,-106,73,-111,-308,158,167,90,54,10,127,-183,62,-251,-716,-268
61905,123,144,115,-37,138,301,-24,276,73,89,106,43,228,51,-89,128,9,-120,44,-117,-300,14,167,74,51,22,135,-195,54,-263,-703,-262
61906,118,125,161,-41,144,301,-38,286,60,82,100,26,242,26,-95,106,23,-124,45,-125,-304,5,157,77,54,17,141,-166,70,-235,-682,-240
61907,129,161,149,-36,145,300,-65,278,61,74,113,28,234,23,-75,81,37,-120,64,-122,-299,43,150,68,37,17,142,-166,77,-220,-693,-227
