,Fp1,Fp2,F7,F3,Fz,F4,F8,FC5,FC1,FC2,FC6,T7,C3,Cz,C4,T8,TP9,CP5,CP1,CP2,CP6,TP10,P7,P3,Pz,P4,P8,PO9,O1,Oz,O2,PO10
144600,659,920,595,113,125,288,-212,402,105,44,395,642,568,-49,146,-436,300,19,-40,75,0,280,128,-132,148,347,40,31,-9,-134,-153,17
144601,591,881,574,138,141,280,-257,435,92,48,370,646,563,-58,149,-514,476,14,-60,60,-30,280,170,-147,137,337,28,14,-21,-154,-202,-9
144602,593,849,590,121,131,268,-372,422,84,11,346,671,556,-80,145,-607,364,12,-77,55,-41,370,169,-169,111,321,48,7,-29,-208,-284,-79
144603,691,808,620,67,133,297,-308,389,91,36,335,644,557,-80,130,-621,381,16,-68,72,-1,394,176,-181,111,347,142,38,-9,-181,-240,-109
144604,714,774,681,95,164,333,-281,441,125,57,370,611,587,-64,169,-574,425,51,-44,72,8,425,154,-162,120,397,125,28,24,-138,-154,25
144605,702,790,729,24,154,349,-300,451,117,57,447,573,582,-69,210,-512,350,57,-61,84,13,320,116,-182,115,375,84,-54,-31,-186,-138,12
144606,657,696,728,24,135,430,-285,456,89,58,432,571,586,-89,189,-420,215,68,-68,89,49,302,132,-173,124,390,150,40,-2,-182,-150,5
144607,670,748,717,120,153,524,-308,508,105,62,350,641,622,-81,159,-223,246,78,-31,121,77,432,142,-105,130,396,205,22,36,-102,-91,138
144608,621,824,676,138,119,594,-321,446,107,88,343,693,623,-75,196,-247,456,78,-17,127,80,439,247,-94,148,394,264,51,102,-24,10,204
144609,510,750,596,102,114,630,-399,433,83,68,311,684,595,-76,210,-285,419,95,-31,107,43,475,313,-100,161,403,266,14,89,-9,46,292
144610,440,770,510,84,122,459,-426,461,106,56,319,692,604,-79,180,-331,315,99,-42,125,13,384,302,-122,156,372,160,-138,5,-106,-77,204
144611,460,772,431,103,140,365,-362,486,122,63,356,617,622,-75,166,-518,212,84,-39,142,14,319,239,-143,145,354,78,-152,-19,-130,-135,109
144612,570,674,327,62,137,332,-285,502,86,59,390,533,622,-87,191,-632,194,56,-69,93,12,314,200,-143,142,359,71,-16,44,-85,-106,137
144613,606,748,410,64,134,331,-287,450,94,46,369,610,627,-78,181,-704,127,128,-45,97,7,338,237,-112,162,390,112,74,100,-42,-49,189
144614,623,805,480,0,128,370,-229,363,105,50,382,734,587,-69,209,-628,144,98,-25,119,5,365,196,-120,178,397,161,53,102,-15,-17,160
144615,642,814,524,-37,121,316,-215,376,69,29,360,626,584,-81,158,-613,288,50,-17,101,-58,376,179,-121,151,336,116,36,60,-88,-166,-77
144616,638,878,643,-19,108,235,-233,411,81,22,309,613,586,-85,119,-647,314,76,-18,74,-53,337,235,-138,142,336,127,72,29,-124,-188,-79
144617,633,858,614,17,109,214,-249,433,101,30,333,640,612,-76,131,-649,275,203,-4,95,-30,339,202,-93,171,357,113,42,34,-95,-121,109
144618,595,831,434,-35,104,177,-270,440,103,15,315,587,614,-76,129,-636,303,73,-4,91,-49,336,265,-46,209,401,124,200,122,30,42,291
144619,540,796,398,-41,89,225,-272,431,116,28,311,542,606,-48,159,-641,224,49,12,131,12,356,179,-46,225,461,240,166,158,104,159,509
144620,520,612,461,-27,103,265,-350,379,137,30,281,534,641,-33,159,-586,201,153,51,143,40,295,140,-46,252,471,269,341,202,139,176,535
144621,581,550,511,-38,122,223,-308,388,140,25,310,500,632,-39,130,-576,238,52,16,102,-56,210,110,-83,197,382,70,-2,59,-27,-105,54
144622,615,633,586,36,115,193,-239,413,135,2,232,473,618,-63,89,-581,294,78,-23,73,-112,217,81,-124,129,305,-102,-131,-56,-225,-325,-416
144623,614,771,632,26,115,193,-220,383,112,-2,192,524,627,-61,98,-568,283,62,-34,96,-48,305,82,-156,134,341,5,-168,-12,-133,-148,-233
144624,532,883,623,54,124,188,-245,449,119,-9,223,611,610,-64,120,-546,201,87,-44,84,-44,323,124,-150,148,343,81,-152,7,-88,-100,-58
144625,463,907,593,68,112,146,-239,429,121,-13,253,609,590,-88,132,-508,162,75,-78,68,-29,340,77,-170,130,331,101,-210,-50,-164,-148,40
144626,592,926,688,72,141,180,-188,445,119,1,321,649,581,-79,167,-445,263,77,-62,72,-8,333,133,-170,119,352,54,-155,-55,-212,-163,-14
144627,748,961,744,99,143,227,-194,477,119,4,384,717,630,-58,170,-458,215,134,-75,73,-14,362,227,-157,132,348,6,-109,-25,-222,-228,-160
144628,714,936,743,117,146,236,-193,479,120,15,404,723,663,-53,153,-476,390,154,-39,105,4,429,320,-91,166,395,75,14,74,-65,-42,93
144629,653,928,757,118,129,254,-215,476,119,10,357,662,632,-63,150,-459,423,97,-17,106,21,450,307,-112,173,418,158,-71,62,11,89,264
144630,628,886,725,92,127,305,-279,491,125,5,342,666,628,-45,159,-426,430,119,-30,108,61,349,327,-114,168,381,167,-29,84,-5,10,204
144631,540,804,621,115,114,400,-338,467,108,1,361,828,567,-69,170,-413,369,104,-56,62,24,214,283,-152,112,329,71,-107,-7,-189,-247,-138
144632,454,725,442,92,117,470,-328,400,82,2,403,1042,522,-99,131,-432,372,101,-80,53,18,137,291,-215,66,290,76,-81,-77,-287,-389,-329
144633,437,656,437,95,155,523,-276,380,77,13,394,886,546,-101,131,-534,341,46,-98,48,21,245,158,-282,43,298,138,-102,-147,-323,-352,-214
144634,512,687,548,80,157,434,-294,421,93,8,350,651,580,-103,113,-672,449,39,-79,33,-42,401,168,-253,54,302,99,-45,-127,-254,-245,-84
144635,588,634,606,33,158,312,-324,398,100,-14,326,604,576,-114,108,-619,478,68,-59,26,-46,434,236,-218,74,305,87,176,1,-145,-148,5
144636,674,652,659,13,171,416,-253,424,113,10,334,606,597,-108,123,-587,338,100,-48,23,-17,426,217,-223,94,308,104,13,2,-90,-82,118
144637,757,781,686,-37,170,470,-179,374,106,59,359,630,604,-101,157,-550,264,139,-39,76,5,480,315,-197,139,357,203,27,48,4,21,309
144638,726,849,721,-20,137,370,-150,360,86,34,355,679,609,-81,181,-496,288,178,-33,95,55,490,432,-159,163,417,302,100,139,66,116,417
144639,674,936,747,38,117,293,-172,433,112,16,330,745,618,-85,181,-484,341,147,-47,79,74,445,365,-132,184,440,358,100,178,88,120,439
144640,684,931,689,26,126,207,-187,449,92,-5,280,703,586,-95,159,-535,372,110,-65,64,37,411,275,-186,152,399,262,141,125,17,-2,208
144641,712,933,682,44,118,236,-174,480,91,-4,279,682,562,-104,138,-576,277,90,-96,40,-16,280,191,-213,114,338,89,122,13,-110,-182,-84
144642,693,887,665,-2,129,246,-215,416,78,-6,316,624,556,-112,94,-540,374,76,-117,21,-44,224,165,-215,118,331,97,139,33,-97,-111,-8
144643,612,855,641,-17,131,259,-198,409,100,22,352,554,586,-57,139,-479,445,86,-68,56,64,330,228,-175,178,456,243,218,159,80,144,292
144644,554,902,650,10,146,195,-194,447,109,15,314,558,578,-58,143,-438,376,33,-45,60,68,366,185,-177,189,498,376,60,153,117,164,358
144645,472,960,579,-22,151,283,-190,448,107,26,319,610,558,-55,163,-465,359,35,-61,59,50,394,150,-161,184,413,329,14,119,16,27,125
144646,491,919,567,9,129,289,-167,441,110,20,305,641,571,-68,133,-536,486,133,-58,25,-12,421,109,-215,145,322,176,-112,-3,-154,-184,-96
144647,545,862,578,-5,116,257,-164,472,112,22,353,661,624,-49,125,-512,371,256,-23,36,7,439,65,-215,156,361,173,-154,-39,-96,-37,186
144648,570,886,598,67,126,186,-192,462,118,16,342,672,606,-40,151,-501,358,112,-6,68,37,404,211,-118,203,428,215,-12,70,27,93,335
144649,502,804,543,184,99,250,-252,500,122,0,309,677,575,-68,115,-551,479,66,-32,54,2,266,310,-107,170,345,100,39,91,-12,13,56
144650,435,679,463,135,78,332,-394,486,112,-7,278,661,586,-82,97,-574,471,102,-44,13,-45,344,272,-144,148,290,58,-10,62,-79,-109,-106
144651,435,608,400,98,94,438,-452,444,111,19,314,625,580,-82,113,-595,402,135,-35,44,-28,312,233,-132,141,344,137,-79,40,-48,0,169
144652,350,546,391,110,116,451,-457,473,101,-2,279,610,602,-114,53,-695,371,133,-55,-2,-108,253,318,-142,95,264,-13,-36,-6,-120,-150,-86
144653,347,648,352,77,97,342,-294,467,102,-8,296,609,618,-115,64,-637,375,188,-33,13,-62,356,422,-95,130,329,117,112,98,-38,-56,81
144654,485,767,404,24,95,343,-119,415,106,22,349,616,598,-100,105,-561,424,188,-29,24,-10,333,461,-98,141,361,271,282,126,-20,-60,81
144655,608,803,621,52,131,371,-50,393,108,22,408,659,585,-100,112,-409,466,190,-57,12,5,338,422,-118,131,364,268,213,119,-46,-97,36
144656,693,948,712,69,156,332,-26,406,79,3,317,712,570,-120,55,-236,427,162,-78,5,-54,321,330,-148,100,288,120,176,82,-110,-188,-143
144657,775,986,776,34,153,361,-20,397,80,15,298,707,560,-128,72,-300,420,88,-101,-22,-105,387,220,-224,60,239,-28,-171,-85,-230,-215,-66
144658,837,1015,838,55,149,317,-12,410,81,38,327,731,549,-112,79,-363,416,87,-86,-8,-118,427,241,-250,53,249,-15,-192,-122,-234,-176,12
144659,792,873,757,26,126,319,7,381,63,17,311,717,526,-110,82,-444,418,58,-105,-12,-102,419,207,-247,26,283,3,-163,-131,-248,-197,20
144660,754,809,733,-7,135,407,-24,390,77,32,331,697,527,-90,102,-628,450,81,-128,30,-67,430,241,-242,43,301,53,-168,-136,-228,-140,82
144661,766,893,750,25,123,446,-55,409,94,50,271,679,538,-89,127,-680,429,79,-106,49,-40,431,221,-188,86,326,118,-112,-12,-108,-42,193
144662,743,1018,744,66,123,351,-9,439,88,35,254,700,544,-78,122,-600,386,143,-94,48,13,367,258,-148,112,368,144,254,133,27,53,264
144663,701,1083,710,98,142,404,-12,422,93,57,349,689,586,-68,171,-552,333,170,-91,89,27,379,285,-111,157,387,174,394,213,117,140,385
144664,707,1030,631,67,142,420,-93,379,82,74,403,602,556,-73,189,-428,231,77,-95,85,18,405,110,-194,132,407,219,-76,101,84,132,385
144665,741,971,646,80,147,327,-114,391,83,31,265,581,529,-74,154,-404,330,79,-83,86,26,271,129,-243,135,386,209,-101,21,-1,15,98
144666,747,930,707,126,149,298,3,432,98,38,361,615,533,-71,173,-389,303,112,-80,108,62,270,115,-229,145,400,328,-324,-52,-67,-5,52
144667,694,831,693,128,158,315,0,419,118,63,437,715,573,-44,211,-441,299,127,-57,108,66,413,155,-193,136,408,311,-321,-106,-125,-88,42
144668,629,917,688,122,147,312,-40,426,98,47,429,747,574,-60,214,-487,342,141,-67,90,5,344,232,-166,129,335,68,-61,-57,-244,-291,-206
144669,548,987,677,123,143,352,-18,452,112,58,451,749,600,-55,219,-485,375,163,-18,119,10,377,263,-147,172,347,13,-43,16,-155,-170,-71
144670,533,912,688,146,128,411,-29,454,117,77,430,745,633,-58,203,-499,474,182,0,95,-10,385,240,-153,171,345,-15,16,41,-110,-146,-75
144671,583,799,607,177,129,444,-81,424,116,89,415,809,631,-53,188,-463,613,178,9,98,2,322,178,-174,187,353,-15,-46,42,-95,-96,-26
144672,571,831,614,182,99,466,-133,350,82,67,351,958,547,-61,183,-436,435,114,-3,109,33,272,119,-199,154,387,15,-140,-14,-102,-103,3
144673,643,899,648,208,123,518,-109,363,94,68,383,915,575,-53,214,-493,292,137,-19,124,71,345,148,-181,173,385,68,-27,5,-95,-122,19
144674,630,885,611,162,125,492,-187,401,102,64,393,812,604,-48,210,-499,360,221,-1,140,64,349,226,-162,187,395,155,131,113,-1,-29,132
144675,603,931,613,125,122,364,-133,440,116,62,391,665,622,-36,233,-421,422,131,8,168,111,318,208,-132,202,470,243,-125,100,38,95,333
144676,573,898,588,7,83,297,-89,409,101,72,420,599,613,-43,232,-411,410,100,-35,177,115,316,182,-142,182,474,229,-361,14,-11,135,348
144677,595,884,608,30,67,275,-41,501,115,43,397,645,602,-57,206,-442,459,173,-33,114,43,334,310,-150,172,375,88,-250,4,-95,-101,-8
144678,636,874,617,117,105,300,9,560,133,38,349,726,651,-46,210,-470,564,321,-22,97,33,396,315,-149,163,315,24,-26,14,-169,-288,-218
144679,564,815,558,77,107,276,-60,508,94,48,362,756,635,-70,207,-453,547,245,-36,112,62,449,267,-159,169,368,156,24,53,-52,-120,-6
144680,545,849,540,126,118,311,-65,454,105,65,439,721,584,-60,228,-405,531,69,-57,145,104,466,312,-202,184,435,257,-11,28,-46,-56,42
144681,609,892,591,160,156,356,-7,466,126,68,427,762,614,-30,234,-446,576,153,-27,159,144,435,353,-177,220,457,268,15,28,-61,-25,127
144682,664,840,653,130,152,342,-88,431,106,40,371,761,612,-61,196,-521,593,164,-66,126,106,372,326,-151,175,420,245,56,78,-20,29,147
144683,680,832,607,84,128,299,-117,438,107,60,351,779,610,-55,220,-554,654,174,-67,125,57,407,399,-99,171,388,134,175,136,0,2,75
144684,656,843,608,79,118,265,-66,420,116,55,364,776,585,-49,220,-493,593,194,-45,117,36,357,428,-96,170,357,79,179,149,1,-18,8
144685,580,870,690,65,117,416,-145,337,100,61,367,777,574,-54,239,-427,475,177,-44,142,46,399,365,-127,162,383,104,55,104,6,45,220
144686,589,924,723,70,142,348,-183,372,120,43,306,779,595,-60,189,-423,381,179,-64,125,14,429,344,-129,163,351,82,88,87,-16,33,258
144687,603,944,687,44,153,259,-105,426,128,50,298,800,634,-43,171,-398,291,202,-36,119,75,495,272,-138,173,339,165,12,86,-3,53,220
144688,666,938,730,47,156,289,-10,488,132,67,341,840,663,-31,195,-406,317,228,-23,123,66,497,273,-151,160,366,90,-187,-29,-150,-135,-31
144689,669,813,744,70,148,314,-26,490,131,62,366,777,681,-39,214,-431,414,200,-71,128,34,471,147,-168,155,392,147,-345,-1,-98,-59,20
144690,625,832,722,114,148,282,-36,470,122,53,349,742,680,-33,230,-431,554,203,-28,155,85,442,204,-99,224,435,285,51,177,110,149,239
144691,571,891,720,114,146,269,-44,443,98,47,360,741,638,-41,208,-512,567,171,-11,162,104,495,263,-68,267,505,411,335,344,279,335,539
144692,528,874,742,141,148,273,-55,419,115,47,405,743,630,-14,236,-656,571,194,3,190,123,528,263,-57,294,543,526,351,414,381,491,830
144693,549,875,752,133,155,285,-78,432,128,46,413,760,657,-20,250,-640,642,257,33,183,77,430,345,-27,272,471,335,454,380,240,207,401
144694,583,815,718,83,141,282,-90,444,118,52,425,694,648,-37,209,-587,561,202,7,126,27,407,228,-114,216,384,123,174,191,-7,-102,-23
144695,598,749,642,74,111,356,-77,399,111,60,459,624,607,-52,217,-559,447,90,-44,122,-34,438,65,-212,192,347,-11,-263,8,-113,-147,-206
144696,624,762,636,76,112,404,-66,366,115,75,456,591,600,-35,221,-507,449,82,-62,136,-56,371,63,-230,187,360,-42,-277,-95,-163,-145,-196
144697,655,778,625,116,135,422,-49,371,108,64,444,589,639,-31,216,-414,349,113,-101,109,-38,252,28,-314,136,323,-82,-560,-313,-388,-319,-186
144698,645,825,656,138,142,460,-104,429,120,67,419,649,656,-30,235,-456,340,120,-71,96,-24,260,104,-262,154,329,-111,-504,-253,-344,-341,-257
144699,561,805,645,106,128,381,-143,444,104,58,342,605,650,-41,198,-521,350,142,-73,109,-23,288,140,-203,167,363,-102,-375,-195,-305,-265,-193
144700,486,786,658,114,150,293,-106,468,110,52,349,599,656,-42,199,-497,439,157,-46,118,-23,315,165,-163,192,406,-41,-263,-113,-213,-163,-66
144701,431,843,659,103,167,284,-66,434,119,54,378,626,655,-44,233,-509,393,140,-42,108,9,320,104,-182,198,408,1,-259,-88,-176,-171,-83
144702,418,829,627,60,109,323,-123,406,97,56,325,659,631,-43,210,-516,323,129,-24,122,36,308,158,-157,212,452,128,-216,-38,-93,-35,131
144703,497,823,646,58,128,357,-135,396,98,51,309,696,633,-39,231,-492,346,157,-9,156,60,266,270,-127,236,514,229,-199,0,-32,101,440
144704,579,818,659,66,144,393,-106,390,102,53,313,713,630,-39,229,-510,301,192,-21,132,38,296,322,-110,209,458,83,-213,-36,-121,-64,147
144705,654,775,697,105,159,360,-34,406,111,50,354,717,628,-32,215,-525,308,184,-41,90,-30,262,252,-132,182,377,-116,-225,-35,-225,-315,-467
144706,637,739,702,103,142,278,-41,357,107,53,386,639,608,-37,236,-525,383,136,-32,126,0,313,194,-142,221,436,19,-160,17,-79,-112,-133
144707,603,794,726,89,135,299,-29,335,120,86,412,689,616,-25,255,-495,224,147,-29,143,38,298,140,-149,211,466,64,-143,10,-138,-200,-180
144708,524,793,708,98,113,344,-88,356,127,87,377,771,622,-16,240,-494,274,160,-26,162,81,264,124,-142,221,517,77,-108,24,-174,-239,-221
144709,502,782,654,70,91,372,-96,401,132,74,356,702,631,-8,238,-509,385,158,-1,177,71,283,159,-113,237,527,65,-55,113,-82,-141,-121
144710,496,642,528,85,95,409,-97,380,122,92,331,824,611,-17,230,-499,358,216,-7,160,61,318,201,-79,264,491,69,31,167,-33,-110,-68
144711,553,606,426,141,129,442,-100,378,117,76,367,856,600,-32,253,-490,429,249,-4,131,45,332,211,-75,242,461,45,75,172,-8,-86,-37
144712,535,738,458,173,134,280,-84,403,117,51,383,729,610,-54,224,-501,491,135,-32,136,13,312,163,-84,215,444,64,63,186,21,-72,-12
144713,511,794,651,188,123,234,-132,360,115,34,332,712,633,-56,176,-525,435,144,-52,129,2,325,158,-118,215,432,71,38,192,4,-86,20
144714,536,778,734,129,134,271,-215,320,108,16,255,665,635,-53,122,-597,480,166,-53,82,-46,377,164,-115,202,404,18,78,223,12,-39,87
144715,461,728,664,48,135,358,-228,291,117,38,281,667,629,-30,164,-585,514,195,-8,97,-30,359,232,-86,221,409,36,231,307,99,52,158
144716,450,758,645,55,124,310,-232,363,112,29,322,689,622,-30,161,-575,469,198,18,93,-9,287,264,-77,237,390,53,293,357,151,49,161
144717,464,825,663,100,122,347,-228,452,100,31,354,709,613,-46,178,-594,420,180,-2,80,-57,310,226,-95,202,381,10,180,285,68,-31,100
144718,314,844,583,168,103,347,-239,412,107,37,350,702,591,-53,187,-636,389,168,-45,54,-98,332,159,-133,160,341,-77,33,135,-131,-257,-81
144719,333,843,576,179,122,293,-229,397,113,23,317,716,569,-51,148,-670,296,164,-75,51,-104,358,111,-166,155,345,-4,-87,75,-118,-170,46
144720,397,724,633,131,136,322,-180,329,127,31,336,789,600,-28,161,-576,294,297,-46,65,-30,329,167,-159,190,345,35,52,123,-92,-138,89
144721,460,737,643,161,136,282,-187,317,138,56,334,768,602,-17,200,-486,301,279,12,103,39,279,266,-139,205,403,124,-6,121,-104,-115,170
144722,584,815,679,104,120,241,-205,359,134,47,339,638,599,-28,189,-473,369,119,-3,133,51,238,338,-166,200,439,219,-39,127,-76,-93,147
144723,646,777,672,55,113,271,-228,336,98,41,308,521,588,-25,173,-572,335,103,-34,121,38,358,210,-176,195,445,207,-17,81,-84,-124,116
144724,630,772,669,47,129,316,-172,327,107,44,331,514,571,-23,173,-611,362,54,-35,99,25,394,131,-199,198,436,126,-98,24,-110,-167,50
144725,653,802,708,44,127,325,-129,336,94,43,338,585,569,-31,175,-638,373,65,-52,101,-14,294,89,-210,177,385,-11,-134,-32,-165,-243,-107
144726,666,864,650,-16,138,312,-78,311,81,56,357,613,554,-53,189,-567,344,46,-73,106,2,246,45,-252,144,411,13,-131,-68,-178,-181,30
144727,601,799,581,21,122,297,-48,362,95,59,407,652,581,-25,206,-472,368,67,-63,120,34,266,144,-229,169,432,113,-55,-36,-121,-104,176
144728,517,655,575,20,117,311,-75,376,95,54,386,650,611,-17,200,-496,303,77,-52,121,45,269,274,-186,185,439,174,-171,-37,-117,-90,179
144729,418,542,533,60,96,385,-101,362,97,53,372,576,579,-33,168,-581,169,76,-78,120,23,248,354,-194,153,386,136,-239,-51,-142,-131,102
144730,352,577,585,130,111,430,-131,381,100,64,415,612,551,-18,170,-622,-47,94,-84,132,0,130,332,-195,142,370,112,-219,-81,-146,-120,60
144731,288,614,489,95,99,479,-129,216,66,86,425,819,502,-30,207,-655,61,98,-90,134,75,113,239,-215,145,408,211,-173,-76,-105,-32,318
144732,324,637,382,100,82,392,-166,162,63,71,379,900,477,-57,173,-742,244,106,-94,104,59,211,146,-230,137,409,306,-33,-20,-76,-4,428
144733,407,691,392,111,95,320,-201,231,78,57,381,711,505,-58,167,-635,96,-4,-122,78,32,81,75,-245,123,396,236,-33,-2,-87,-98,171
144734,480,756,472,59,95,276,-217,185,80,48,386,665,520,-47,170,-589,61,-34,-127,80,27,35,-12,-275,98,365,94,22,-30,-196,-339,-370
144735,538,797,486,-36,103,218,-163,215,98,63,418,645,529,-17,198,-610,408,11,-99,89,39,318,-5,-220,122,392,109,139,-4,-162,-287,-344
144736,511,843,522,-53,89,161,-95,297,84,32,379,600,541,-26,160,-501,603,1,-92,60,10,365,29,-205,138,381,50,264,70,-83,-164,-86
144737,568,961,585,1,133,179,-94,340,98,15,259,672,563,-18,114,-255,468,26,-76,86,15,433,82,-202,119,367,53,263,109,-30,-65,120
144738,564,988,622,20,135,184,-85,386,117,42,289,657,591,-1,157,-280,443,60,-59,105,52,419,96,-223,144,366,81,155,65,-56,-51,126
144739,590,978,664,50,117,280,-88,316,95,45,349,630,569,-20,194,-340,514,49,-43,85,33,423,64,-241,158,377,113,25,4,-35,-48,144
144740,620,944,711,17,118,382,-118,279,85,59,322,638,553,-34,193,-485,449,16,-76,72,-33,386,26,-265,123,321,15,-159,-102,-181,-192,41
144741,595,884,690,3,127,318,-115,315,95,63,254,642,553,-20,179,-660,422,57,-78,92,-48,356,149,-191,134,308,-23,47,-29,-154,-132,84
144742,527,889,601,-52,126,298,-97,300,85,49,325,650,579,-22,154,-703,330,78,-37,85,-38,391,215,-184,147,352,2,152,43,-77,-77,103
144743,506,874,608,-30,150,306,-79,356,96,68,368,688,622,-16,141,-639,320,91,-32,111,-17,403,126,-228,157,347,12,-32,15,-120,-128,34
144744,452,786,594,23,146,302,-235,379,120,66,376,629,646,3,151,-589,365,113,-31,142,-3,330,90,-197,178,344,41,-58,33,-77,-110,96
144745,373,746,607,-47,128,264,-317,335,114,43,355,643,631,-30,130,-670,289,214,-32,125,-47,294,56,-233,153,315,29,-62,-34,-188,-224,-78
144746,390,779,651,33,103,238,-185,293,96,38,368,676,570,-46,138,-643,191,53,-64,89,-42,269,32,-277,126,304,31,-182,-110,-257,-208,-56
144747,464,768,588,111,118,231,-108,290,106,52,330,727,582,-23,161,-556,262,6,-61,80,-25,255,82,-301,127,311,0,-372,-192,-306,-226,34
144748,547,685,611,120,117,264,-79,304,123,50,340,574,612,-18,181,-522,362,69,-44,113,-43,167,87,-249,158,340,-16,-310,-127,-249,-191,10
