,Fp1,Fp2,F7,F3,Fz,F4,F8,FC5,FC1,FC2,FC6,T7,C3,Cz,C4,T8,TP9,CP5,CP1,CP2,CP6,TP10,P7,P3,Pz,P4,P8,PO9,O1,Oz,O2,PO10
84873,367,296,289,66,1,584,210,366,119,-126,177,-7,217,-35,141,218,633,128,39,-68,-30,716,318,53,-174,126,352,632,177,-43,9,315
84874,364,256,253,33,-33,564,162,438,97,-143,166,-67,182,-72,137,110,599,96,0,-100,-60,713,271,4,-218,89,321,554,78,-110,-2,317
84875,372,235,283,58,-21,566,128,601,52,-102,226,-28,85,-58,208,136,561,104,0,-78,6,693,285,-2,-227,105,325,524,70,-109,-5,317
84876,361,240,280,24,-31,564,142,371,19,-114,189,-100,62,-65,191,283,599,64,-10,-95,-10,697,280,-1,-226,102,324,528,116,-82,-7,311
84877,388,263,300,27,-37,559,206,362,14,-141,154,-12,15,-82,139,324,621,61,-34,-109,-49,709,346,0,-220,82,360,584,122,-75,4,276
84878,375,280,241,17,-34,578,203,449,41,-133,189,-33,63,-55,170,321,569,55,-22,-94,-26,725,332,-22,-229,81,284,514,34,-128,-20,302
84879,339,266,213,21,-40,589,122,452,62,-115,183,-45,94,-41,145,316,573,92,21,-82,-26,747,321,10,-195,85,295,591,125,-61,26,327
84880,331,249,230,3,-59,592,156,438,55,-137,174,-57,94,-70,122,268,553,97,4,-101,-84,719,341,11,-207,55,292,599,149,-74,-4,245
84881,353,243,276,18,-60,574,154,382,49,-120,40,-65,86,-59,135,242,545,84,-3,-111,-131,671,313,-8,-226,27,232,605,149,-86,0,196
84882,298,244,136,16,-55,578,118,308,40,-97,1,-52,61,-65,162,224,544,57,-16,-100,-67,672,300,-15,-236,32,273,600,165,-75,18,231
84883,323,252,188,26,-44,578,159,291,36,-132,207,-135,89,-65,143,302,467,36,-21,-111,-31,669,267,-1,-250,60,338,620,184,-31,31,247
84884,348,275,321,21,-47,566,192,456,72,-147,161,-77,184,-74,74,254,548,143,21,-104,-61,711,316,44,-219,85,317,606,223,-14,57,304
84885,343,293,282,-6,-59,585,178,411,39,-144,174,7,138,-66,134,288,664,121,24,-75,-9,739,341,46,-203,117,359,590,205,-16,62,315
84886,394,312,325,40,-39,574,221,345,36,-129,234,26,47,-43,158,305,662,65,18,-55,8,720,335,58,-170,126,346,621,248,29,80,297
84887,368,279,287,20,-75,534,173,362,51,-140,101,40,93,-62,124,245,618,114,28,-71,-40,659,319,66,-156,113,315,656,287,47,80,290
84888,354,269,244,21,-75,523,151,340,84,-143,63,4,115,-54,161,214,540,107,52,-59,-29,657,284,45,-157,117,306,647,271,38,44,247
84889,270,223,178,15,-96,495,127,384,47,-152,103,-105,127,-56,191,173,502,75,14,-72,-58,606,256,17,-178,110,267,576,213,-22,2,209
84890,276,234,180,8,-85,528,168,492,51,-122,182,-89,118,-18,181,255,519,105,41,-28,4,694,274,55,-137,136,367,621,278,1,24,258
84891,377,289,247,-21,-62,565,236,334,36,-108,217,-24,68,-28,150,310,532,115,52,-17,25,777,337,83,-116,148,389,663,294,39,68,297
84892,350,241,255,-45,-93,529,183,326,19,-146,182,-31,62,-40,173,253,575,69,42,-49,-5,789,339,51,-141,133,344,608,255,53,85,345
84893,324,266,246,-36,-92,547,213,392,31,-127,207,-50,65,-36,170,270,564,38,18,-48,7,784,240,15,-154,132,368,583,236,32,44,314
84894,339,277,217,-30,-77,549,219,348,37,-122,192,-71,65,-37,150,273,562,35,6,-57,4,781,240,3,-180,122,363,565,214,26,41,306
84895,349,258,220,-4,-68,587,245,345,54,-104,204,-107,69,-38,139,313,554,34,10,-47,-29,740,272,16,-176,100,343,609,246,39,70,327
84896,338,243,169,-19,-76,551,219,325,34,-127,186,-120,54,-41,150,291,490,1,-19,-79,-47,700,249,-31,-202,85,327,583,171,-33,-8,257
84897,320,206,171,-36,-80,524,164,301,42,-142,171,-96,-16,-65,153,227,482,-52,-53,-94,-55,685,206,-91,-243,71,313,532,97,-94,-34,230
84898,276,185,159,-29,-112,522,149,283,27,-133,141,-163,-15,-77,127,196,354,-45,-74,-121,-91,673,144,-127,-277,27,264,408,33,-153,-90,201
84899,275,187,171,-19,-90,521,97,273,27,-112,181,-171,7,-54,178,274,364,-55,-61,-79,-59,711,143,-121,-227,66,321,380,31,-132,-65,261
84900,219,144,104,-43,-84,503,93,195,31,-106,130,-305,62,-71,187,203,394,-143,-109,-97,-91,673,108,-169,-277,35,288,339,-24,-195,-112,217
84901,245,159,93,-6,-94,484,87,299,79,-141,55,-340,188,-91,124,175,351,-133,-109,-133,-105,671,107,-183,-308,-13,248,314,-61,-215,-165,177
84902,271,202,195,-9,-81,520,109,464,21,-132,159,-135,-53,-90,124,227,418,-50,-120,-119,-76,679,145,-145,-298,29,289,447,29,-141,-119,225
84903,293,231,246,-51,-78,545,199,335,-26,-97,160,-71,-183,-99,137,330,474,-36,-117,-95,-52,684,195,-120,-251,79,317,554,107,-92,-34,225
84904,282,216,193,-47,-79,540,187,302,34,-102,53,-79,27,-67,132,267,513,27,-69,-72,-61,698,293,-63,-218,84,334,595,153,-33,5,252
84905,226,206,69,-91,-92,533,200,221,9,-93,30,-135,1,-77,210,291,531,26,-65,-45,-21,691,245,-59,-207,107,364,589,166,-25,11,264
84906,293,227,145,-45,-87,548,167,272,-10,-83,6,-134,-46,-87,230,246,480,-25,-90,-73,-34,659,174,-98,-262,74,350,520,106,-96,-53,206
84907,322,249,188,-11,-61,579,206,389,9,-69,254,-69,-48,-85,218,292,466,-51,-104,-64,-1,695,210,-110,-257,76,366,509,96,-106,-50,228
84908,331,288,189,-37,-52,575,233,361,3,-86,334,-85,-10,-79,125,270,511,4,-74,-72,0,726,268,-71,-216,98,347,544,119,-52,-23,280
84909,323,259,174,-29,-82,532,246,330,0,-124,154,-101,-21,-83,173,203,502,0,-84,-89,-46,683,258,-73,-221,71,264,549,114,-67,-31,270
84910,314,230,189,-44,-89,541,171,252,9,-106,191,-165,-20,-75,187,197,461,-19,-93,-92,-75,642,246,-69,-220,53,257,544,101,-66,-46,174
84911,355,239,259,-19,-64,529,188,303,33,-131,146,-180,0,-63,48,248,471,-11,-91,-131,-155,634,274,-54,-214,37,252,520,143,-82,-73,177
84912,363,266,262,5,-68,524,197,366,51,-119,86,-101,34,-73,78,238,501,-1,-59,-110,-146,644,325,-13,-208,60,254,587,186,-58,-67,128
84913,356,268,241,15,-83,527,165,320,30,-134,87,-117,-4,-84,71,170,506,-28,-78,-134,-124,607,289,-49,-212,36,215,647,228,-43,-70,81
84914,377,254,266,17,-59,520,151,302,37,-135,110,-125,-5,-56,95,175,497,-2,-70,-113,-108,599,276,-48,-203,31,213,552,220,-34,-72,106
84915,379,226,209,17,-54,507,126,333,45,-132,91,-125,-5,-56,96,138,466,-9,-91,-117,-139,591,244,-67,-219,9,211,461,148,-67,-83,110
84916,387,230,141,39,-47,526,122,301,31,-138,64,-137,-45,-58,87,96,476,-19,-121,-134,-140,614,213,-85,-226,0,251,454,63,-111,-104,164
84917,445,257,287,32,-49,546,155,247,37,-111,85,-159,-34,-33,112,85,480,-32,-81,-110,-136,630,201,-108,-234,5,241,393,-45,-189,-122,136
84918,366,246,250,-49,-77,540,176,243,34,-96,41,-208,-19,-48,192,96,466,-22,-79,-115,-169,617,227,-106,-253,-7,164,364,-32,-203,-161,130
84919,377,245,220,-26,-73,590,173,385,4,-69,77,-235,-53,-35,269,97,452,-38,-102,-120,-172,574,176,-138,-273,-23,148,367,-36,-197,-162,138
84920,384,261,272,-7,-83,555,163,386,5,-112,192,-212,-24,-39,99,97,465,-54,-87,-112,-162,576,197,-110,-235,-11,190,489,56,-107,-88,149
84921,374,249,224,28,-69,498,123,422,45,-172,115,-132,31,-57,33,48,447,-19,-77,-117,-183,610,207,-86,-238,0,194,539,138,-72,-94,144
84922,399,265,279,50,-65,507,127,375,35,-136,40,-77,-37,-57,145,52,448,-30,-90,-118,-157,602,187,-105,-244,14,194,487,117,-86,-69,157
84923,400,283,294,85,-49,496,122,374,60,-155,85,-79,12,-69,50,133,441,-17,-98,-122,-148,575,219,-83,-241,11,190,454,87,-104,-99,144
84924,375,246,310,70,-60,525,162,448,58,-144,163,-86,59,-63,51,200,414,-8,-93,-132,-168,565,173,-126,-258,-10,178,320,-76,-219,-167,155
84925,395,250,355,58,-69,520,178,355,57,-121,111,-77,25,-47,77,147,496,6,-84,-145,-183,566,190,-122,-245,-4,155,357,-58,-213,-150,103
84926,405,251,298,53,-90,473,101,363,60,-148,24,-99,-14,-68,48,234,471,-14,-96,-168,-204,584,158,-123,-262,-10,173,436,-7,-193,-146,76
84927,409,248,297,78,-79,491,186,406,40,-149,22,-64,-44,-69,60,173,439,-35,-122,-156,-194,578,134,-137,-269,-7,199,447,22,-164,-130,126
84928,358,235,250,52,-91,487,172,362,24,-145,-10,-48,-16,-88,113,100,468,-28,-130,-170,-187,566,160,-141,-267,2,182,424,29,-143,-84,134
84929,413,241,324,41,-78,495,118,360,37,-162,69,-117,-35,-121,82,108,424,-67,-170,-208,-199,471,136,-191,-328,-58,121,377,-15,-165,-170,75
84930,466,274,320,86,-62,517,160,388,74,-181,132,-137,18,-123,11,186,436,-77,-162,-202,-199,516,108,-169,-307,-52,149,433,42,-132,-137,77
84931,411,259,249,93,-50,533,147,498,97,-165,66,-150,80,-128,60,132,410,-97,-154,-200,-222,519,66,-171,-321,-56,134,389,15,-154,-146,58
84932,450,303,374,90,-34,552,187,451,71,-121,145,-100,-8,-93,130,152,510,-59,-141,-183,-158,556,117,-178,-318,-19,201,437,13,-146,-148,87
84933,515,334,474,79,-46,566,239,386,31,-155,207,-15,-109,-133,64,224,530,-3,-161,-181,-101,659,150,-157,-316,6,246,474,-9,-175,-129,132
84934,522,346,387,72,-25,574,218,433,43,-152,220,-51,4,-127,116,193,502,2,-147,-166,-82,665,136,-145,-313,20,213,431,-35,-197,-112,165
84935,489,328,345,55,-24,577,186,461,30,-128,195,-75,20,-121,123,290,531,15,-141,-164,-123,673,131,-163,-299,16,226,407,-29,-145,-121,171
84936,506,350,392,85,-13,581,222,506,40,-126,132,42,-39,-131,68,270,561,4,-143,-187,-173,670,164,-168,-308,11,233,401,-21,-154,-121,153
84937,548,385,461,126,14,577,245,476,60,-132,108,17,23,-114,86,263,570,31,-102,-147,-114,708,186,-120,-265,44,282,428,22,-97,-78,174
84938,521,363,439,67,-14,598,253,375,29,-122,184,9,-24,-115,108,278,550,8,-111,-134,-93,760,179,-121,-268,56,258,426,60,-60,-51,234
84939,490,338,374,65,-16,587,254,345,35,-128,183,-12,-25,-97,108,254,543,8,-124,-128,-73,766,157,-126,-248,67,302,470,76,-36,-7,287
84940,507,329,408,118,10,578,173,445,54,-115,214,41,30,-80,125,224,588,56,-113,-101,-89,737,193,-96,-224,92,290,525,128,0,19,280
84941,523,328,396,118,-2,575,207,459,56,-112,144,15,36,-55,136,224,586,61,-87,-100,-96,742,236,-79,-193,113,292,571,174,45,54,305
84942,535,340,375,64,-27,576,304,414,27,-129,76,-22,15,-69,158,215,581,57,-78,-81,-55,773,259,-61,-170,125,377,665,235,85,92,330
84943,485,341,373,73,-23,577,244,364,54,-138,55,-31,89,-58,182,216,551,91,-56,-64,-32,827,303,-26,-157,129,356,696,302,91,95,303
84944,477,330,390,111,-9,559,128,299,80,-125,84,-6,160,-52,166,228,581,77,-36,-78,-55,761,336,-25,-170,127,310,664,280,34,48,223
84945,493,363,434,103,9,624,216,366,69,-112,201,41,-5,-56,137,295,598,52,-64,-83,-82,763,268,-77,-202,99,329,561,178,-18,0,232
84946,471,353,347,85,-1,597,256,451,60,-119,188,-3,-44,-70,130,284,570,20,-122,-129,-103,772,174,-125,-264,65,339,391,1,-133,-71,299
84947,456,347,299,43,-26,585,216,463,36,-134,162,-10,26,-71,94,226,591,15,-123,-140,-123,759,233,-126,-267,71,329,435,-15,-148,-58,281
84948,437,367,254,39,-39,598,228,435,27,-118,185,20,-19,-75,85,182,625,29,-112,-142,-140,719,233,-119,-251,45,288,539,40,-100,-19,286
84949,414,339,260,57,-25,573,244,462,53,-128,147,-50,1,-84,128,142,590,12,-130,-148,-126,705,186,-113,-261,39,280,482,51,-117,-66,164
84950,384,305,315,46,-48,547,162,415,24,-131,106,-167,-16,-101,166,192,480,-19,-139,-127,-106,669,152,-160,-263,41,273,445,52,-143,-95,116
84951,367,292,241,50,-43,586,182,358,38,-91,88,-194,0,-81,205,273,533,12,-120,-96,-92,711,151,-153,-245,76,317,434,42,-106,-58,229
84952,361,261,167,46,-55,532,216,447,48,-135,92,-122,56,-54,217,270,518,39,-87,-96,-80,699,157,-115,-248,86,341,468,39,-108,-85,233
84953,390,306,277,36,-50,541,196,420,38,-123,203,-18,16,-79,176,270,578,-19,-81,-83,-27,761,200,-96,-224,112,382,598,100,-60,-11,275
84954,393,332,370,31,-36,535,207,442,50,-154,193,-6,42,-79,56,298,540,48,-69,-95,-34,784,255,-63,-203,135,420,628,160,-33,12,314
84955,336,249,207,-36,-72,525,161,418,22,-152,142,-62,26,-98,92,267,438,47,-78,-100,-73,690,238,-71,-201,102,357,591,169,-51,-21,255
84956,307,215,141,-36,-85,523,150,403,20,-148,119,-63,1,-85,85,316,402,30,-68,-104,-114,663,244,-59,-190,64,303,617,216,-13,-10,232
84957,281,164,122,-44,-106,491,121,389,16,-162,86,-109,31,-85,71,245,457,28,-58,-114,-178,686,211,-43,-187,44,255,581,190,-24,-44,206
84958,299,166,132,-40,-114,483,101,330,5,-141,84,-100,18,-61,95,64,475,-1,-59,-95,-134,655,231,-49,-189,76,245,532,197,-17,-40,217
84959,296,233,174,-55,-97,523,118,156,11,-120,175,-147,1,-56,108,102,411,-32,-59,-105,-136,652,187,-69,-214,25,211,440,107,-103,-108,169
84960,226,188,80,-62,-126,486,68,206,12,-153,144,-240,46,-63,54,41,367,-26,-74,-122,-188,579,165,-92,-245,11,196,462,81,-124,-124,124
84961,253,176,93,-42,-93,476,66,295,6,-168,34,-199,-44,-69,65,150,403,-70,-86,-125,-164,593,146,-128,-246,32,244,504,55,-132,-115,139
84962,291,191,182,-49,-83,470,91,272,-7,-158,12,-170,-79,-88,75,168,421,-54,-98,-133,-152,612,162,-131,-273,36,274,489,52,-128,-100,168
84963,315,209,185,-24,-87,467,93,239,5,-166,24,-245,-51,-90,53,129,428,-56,-116,-120,-142,535,150,-128,-274,35,306,458,56,-142,-111,142
84964,351,244,219,-1,-76,501,125,284,9,-164,69,-135,-111,-95,62,115,446,-105,-134,-129,-134,570,119,-168,-265,12,273,416,-70,-239,-176,102
84965,359,282,303,-22,-78,497,118,262,10,-146,6,-172,-80,-80,70,95,472,-100,-112,-140,-194,683,93,-160,-279,7,216,348,-123,-256,-196,156
84966,316,236,281,-39,-89,479,97,273,-7,-159,3,-169,-76,-72,65,25,473,-86,-113,-140,-233,645,88,-171,-289,-16,209,360,-77,-227,-193,164
84967,329,232,251,-28,-81,487,102,282,8,-156,0,-166,-81,-67,76,-17,481,-93,-111,-117,-174,643,116,-148,-264,-6,237,406,-26,-170,-122,160
84968,346,249,236,-8,-86,483,95,259,5,-150,12,-185,-111,-71,108,137,456,-121,-123,-113,-133,663,133,-164,-265,28,245,426,12,-140,-100,206
84969,309,239,145,-41,-87,515,123,262,3,-146,-6,-182,-95,-74,69,121,469,-93,-109,-111,-181,654,181,-125,-228,38,238,528,92,-87,-88,226
84970,299,234,158,-46,-111,507,101,234,1,-160,46,-192,-95,-87,48,23,454,-102,-88,-118,-149,658,182,-118,-211,41,247,491,62,-91,-64,257
84971,333,265,182,-50,-89,525,65,249,-2,-130,87,-168,-86,-66,104,84,431,-69,-71,-105,-100,665,204,-99,-187,67,283,443,62,-104,-48,205
84972,268,266,80,-75,-111,531,144,279,-3,-131,19,-172,-50,-74,106,102,503,-61,-63,-94,-77,663,266,-68,-184,86,313,518,87,-92,-49,174
84973,294,212,176,-51,-115,471,108,204,-9,-149,-119,-253,-86,-88,116,-43,454,-125,-123,-125,-144,586,143,-151,-247,30,224,430,15,-165,-124,96
84974,250,196,97,-96,-99,490,48,94,-21,-122,-12,-303,-127,-83,190,36,413,-168,-136,-123,-193,565,87,-169,-264,11,185,344,-8,-171,-133,127
84975,242,200,91,-64,-104,475,72,315,19,-161,80,-275,-74,-75,33,126,412,-132,-113,-128,-185,566,121,-145,-247,36,219,407,37,-111,-90,145
84976,265,200,110,-92,-103,470,122,310,-16,-167,144,-275,-102,-43,-41,97,373,-142,-99,-106,-158,649,81,-143,-193,79,247,522,120,-37,-9,246
84977,254,186,140,-74,-96,467,99,269,-13,-142,54,-274,-107,-31,24,53,343,-161,-116,-111,-172,615,61,-161,-194,57,239,442,67,-93,-51,193
84978,218,193,58,-107,-129,455,82,204,-10,-154,-42,-271,-105,-32,40,70,309,-156,-119,-113,-154,587,45,-156,-202,41,234,330,25,-123,-85,87
84979,226,179,5,-188,-136,457,88,72,-54,-155,-27,-294,-152,-53,67,35,344,-197,-143,-125,-186,575,22,-167,-213,42,214,324,38,-113,-73,76
84980,291,215,76,-100,-103,463,64,162,-17,-159,31,-325,-102,-68,25,0,221,-153,-125,-145,-205,587,25,-175,-234,-8,198,329,0,-135,-94,85
84981,291,195,119,-60,-91,454,34,182,2,-165,37,-328,-81,-56,6,77,256,-117,-98,-133,-210,604,48,-172,-240,-14,182,336,-34,-151,-111,101
84982,230,158,46,-102,-118,473,-1,134,-15,-154,58,-362,-116,-80,48,63,254,-155,-138,-156,-218,548,-11,-219,-284,-20,158,299,-77,-192,-141,67
84983,222,161,36,-90,-127,447,15,183,-17,-161,-53,-335,-83,-95,39,29,218,-160,-138,-173,-236,515,-29,-224,-310,-32,130,298,-71,-187,-142,65
84984,213,149,83,-76,-119,438,20,230,-8,-155,-160,-299,-69,-90,97,0,248,-152,-137,-167,-235,537,-18,-208,-298,-21,138,290,-60,-183,-127,59
84985,254,183,130,-60,-86,459,-4,165,-12,-128,-50,-308,-105,-78,87,50,333,-167,-132,-163,-206,548,18,-194,-276,-12,158,337,-43,-203,-153,35
84986,263,199,93,-34,-81,491,90,221,17,-173,158,-271,3,-82,-81,136,331,-83,-99,-158,-173,545,52,-150,-255,5,199,421,23,-167,-156,32
84987,252,190,93,-41,-94,491,27,163,9,-160,3,-259,-28,-65,8,94,326,-167,-120,-146,-180,563,58,-169,-264,-6,256,445,59,-140,-135,8
84988,227,179,23,-74,-84,474,-11,226,6,-167,-15,-338,-13,-70,7,79,324,-152,-118,-146,-205,544,66,-181,-268,-33,207,392,12,-167,-168,-10
84989,283,196,59,-54,-72,542,64,365,-13,-137,18,-246,-120,-63,42,98,387,-100,-134,-141,-224,545,59,-167,-254,-45,88,361,2,-179,-179,45
84990,263,180,51,-41,-83,508,8,295,-19,-141,-10,-300,-62,-109,43,10,308,-155,-150,-178,-259,493,-1,-208,-302,-73,55,267,-71,-248,-213,0
84991,259,195,124,-88,-73,536,21,75,-3,-130,39,-330,41,-87,79,-37,290,-134,-114,-139,-194,544,15,-178,-285,-26,129,320,-63,-204,-168,72
84992,279,237,96,-53,-62,575,93,264,-1,-113,170,-249,-60,-88,76,101,353,-79,-113,-120,-127,599,72,-171,-278,0,170,399,-11,-164,-141,133
84993,369,283,211,12,-59,577,81,375,-27,-120,101,-144,-174,-95,74,44,392,-80,-123,-122,-158,603,150,-152,-275,1,194,440,39,-125,-112,150
84994,353,263,209,-5,-54,521,96,295,6,-109,-81,-164,-69,-59,102,32,373,-60,-97,-113,-180,554,156,-127,-257,22,229,437,52,-102,-94,183
84995,282,224,128,-90,-61,536,91,270,9,-107,129,-208,-46,-52,151,98,355,-69,-74,-89,-121,570,110,-107,-238,50,242,388,18,-113,-79,169
84996,353,227,213,-21,-54,508,113,336,19,-147,169,-189,-17,-42,59,223,356,-41,-50,-76,-72,587,145,-104,-219,61,219,444,49,-100,-86,134
84997,401,291,247,11,-56,510,147,314,45,-148,82,-145,-23,-40,33,158,406,-31,-73,-101,-140,624,120,-128,-240,34,233,446,14,-140,-122,114
84998,357,277,184,-7,-56,540,128,272,33,-123,118,-161,-60,-57,100,145,455,-94,-102,-86,-131,649,125,-148,-260,42,252,473,12,-134,-92,147
84999,328,228,186,9,-65,536,113,337,34,-124,102,-154,-21,-64,99,49,470,-87,-97,-94,-128,620,120,-137,-273,30,226,508,83,-83,-65,168
85000,359,232,243,3,-65,558,84,277,20,-107,131,-173,-33,-78,122,97,412,-83,-108,-102,-91,611,91,-149,-288,27,248,486,55,-105,-57,185
85001,368,232,190,-7,-69,547,116,158,11,-127,127,-140,-33,-90,86,230,324,-69,-117,-132,-96,617,91,-181,-296,9,245,420,-36,-204,-145,141
85002,363,227,191,19,-48,545,148,256,37,-128,101,-112,-11,-70,95,257,336,-41,-89,-116,-92,615,122,-159,-271,29,244,398,-30,-180,-127,135
85003,391,264,200,27,-33,561,141,371,35,-113,137,-171,-27,-96,118,281,421,-59,-94,-114,-54,638,106,-133,-261,64,259,505,65,-82,-61,141
85004,412,290,277,-14,-39,596,164,266,-14,-112,165,-208,-99,-95,136,274,394,-73,-99,-97,-57,646,125,-136,-245,68,286,497,101,-41,-50,158
85005,370,269,214,-3,-42,579,177,273,-13,-117,143,-254,-80,-83,113,257,344,-98,-125,-117,-73,628,90,-161,-271,44,278,370,-10,-136,-109,145
85006,363,272,185,-7,-37,581,145,280,-8,-92,186,-286,-94,-86,121,237,350,-159,-132,-101,-49,607,0,-188,-284,59,284,353,-62,-170,-123,119
85007,334,236,132,-26,-75,543,94,249,-23,-112,119,-321,-115,-112,76,132,342,-205,-160,-149,-163,504,-36,-235,-305,-14,157,324,-127,-247,-180,72
85008,315,198,113,-17,-77,545,47,281,1,-120,134,-358,-54,-92,86,149,304,-176,-142,-169,-207,456,-39,-230,-305,-28,133,271,-118,-260,-205,5
85009,349,243,150,-37,-54,576,138,196,-3,-111,104,-354,-82,-95,98,141,334,-160,-142,-150,-154,517,-15,-225,-299,-1,186,258,-85,-223,-187,0
85010,342,290,159,-23,-56,594,192,205,-19,-99,68,-233,-114,-89,147,152,341,-144,-126,-121,-125,585,16,-200,-259,24,233,328,-37,-187,-166,22
85011,328,257,106,-24,-72,561,126,213,-11,-92,57,-213,-89,-76,184,147,373,-128,-104,-97,-106,617,45,-170,-237,63,246,353,9,-162,-146,55
85012,329,250,134,-3,-64,542,95,195,13,-99,124,-210,-37,-66,151,179,416,-88,-70,-82,-131,611,92,-132,-200,64,221,481,85,-110,-120,81
85013,299,282,122,-7,-41,558,108,180,31,-117,149,-271,6,-63,93,159,349,-101,-47,-71,-109,572,78,-110,-179,75,216,456,98,-81,-97,92
85014,235,267,46,-63,-77,547,122,199,6,-110,126,-316,11,-87,84,107,273,-125,-89,-105,-127,537,15,-152,-201,36,200,325,38,-125,-123,108
85015,272,251,53,-53,-60,535,101,310,-9,-114,31,-263,-115,-80,120,127,312,-132,-112,-95,-102,560,51,-165,-221,58,243,313,-16,-157,-132,102
85016,330,245,121,-47,-65,497,18,260,-27,-127,-25,-272,-152,-74,125,10,301,-155,-122,-104,-138,525,51,-195,-248,23,218,290,-45,-190,-150,77
85017,286,206,66,-83,-90,474,-9,177,-23,-117,-74,-294,-114,-82,106,4,305,-168,-121,-103,-176,514,32,-214,-241,10,157,290,-46,-209,-184,32
85018,281,211,73,-56,-89,489,63,209,-7,-118,7,-313,-103,-64,29,156,283,-180,-107,-106,-197,535,-19,-224,-233,12,136,338,-47,-236,-198,41
85019,250,162,60,-99,-108,455,51,217,-6,-137,60,-323,-102,-70,63,127,258,-181,-118,-99,-176,526,7,-205,-237,8,187,378,-34,-227,-191,33
85020,260,150,60,-98,-105,489,78,186,2,-164,104,-339,-101,-81,42,70,294,-179,-114,-100,-153,553,0,-185,-229,26,185,348,-13,-197,-160,79
85021,278,163,72,-75,-108,480,40,189,-8,-150,32,-325,-83,-67,35,63,297,-169,-99,-104,-158,552,46,-179,-214,30,189,349,18,-158,-122,109
85022,296,196,94,-46,-85,509,68,199,4,-109,135,-327,-43,-31,106,121,276,-142,-61,-76,-115,575,65,-152,-185,73,240,397,66,-156,-79,133
