,Fp1,Fp2,F7,F3,Fz,F4,F8,FC5,FC1,FC2,FC6,T7,C3,Cz,C4,T8,TP9,CP5,CP1,CP2,CP6,TP10,P7,P3,Pz,P4,P8,PO9,O1,Oz,O2,PO10
51297,-37,113,-569,-64,-166,225,-63,285,-180,-135,-11,21,181,-137,-445,118,-216,-242,504,-164,-345,95,151,97,-73,-155,206,-219,82,-128,-528,-210
51298,-167,36,-522,-13,-173,274,-207,336,-193,-146,0,-29,189,-149,-467,108,-211,-253,508,-169,-379,50,165,102,-101,-188,202,-188,94,-119,-511,-155
51299,-128,10,-508,5,-191,242,-286,279,-213,-147,-99,71,161,-164,-493,84,-210,-255,493,-181,-395,-44,168,107,-126,-211,152,-181,95,-154,-595,-176
51300,-42,-31,-326,-74,-192,189,-241,206,-225,-144,-79,-84,164,-162,-514,-7,-198,-229,460,-209,-456,-194,172,100,-143,-242,12,-47,149,-191,-749,-447
51301,123,21,-271,-132,-178,161,-142,209,-219,-145,-53,-145,189,-161,-473,-47,-229,-207,486,-187,-397,-78,207,127,-104,-208,64,36,244,-75,-609,-343
51302,149,93,-258,-170,-185,145,-81,173,-236,-156,-32,-203,156,-156,-453,-111,-251,-271,465,-183,-376,2,119,74,-125,-195,130,-342,109,-148,-616,-233
51303,168,122,-163,-177,-180,100,-50,139,-233,-168,-55,-179,157,-150,-445,-56,-256,-255,466,-164,-349,28,166,86,-101,-164,160,-217,114,-139,-608,-198
51304,168,136,-106,-196,-157,116,-11,144,-231,-155,-69,-143,164,-148,-450,56,-302,-264,482,-170,-346,37,112,49,-123,-163,163,-428,-42,-217,-652,-266
51305,135,108,-119,-185,-178,97,-45,101,-234,-151,-97,-151,164,-136,-476,82,-270,-253,487,-166,-334,68,150,75,-127,-166,197,-261,102,-126,-556,-199
51306,107,44,-110,-205,-198,68,-95,95,-232,-173,-121,-126,174,-145,-490,42,-196,-246,478,-187,-352,14,202,88,-118,-166,216,-104,166,-65,-520,-154
51307,105,13,-65,-224,-211,62,-125,96,-240,-195,-130,-155,175,-174,-506,32,-244,-266,437,-208,-371,0,181,42,-133,-198,190,-174,110,-111,-578,-223
51308,87,17,-86,-189,-196,59,-113,110,-236,-191,-128,-198,149,-180,-495,6,-261,-280,408,-211,-356,-24,146,33,-154,-196,219,-205,125,-91,-552,-135
51309,57,3,-129,-163,-203,59,-141,118,-229,-197,-147,-201,149,-165,-493,-143,-279,-293,384,-217,-403,-69,97,-10,-165,-246,136,-304,50,-200,-674,-314
51310,14,-28,-184,-167,-198,42,-146,81,-238,-190,-157,-224,126,-163,-500,-279,-333,-325,387,-223,-391,-55,50,-35,-165,-240,175,-360,35,-177,-590,-230
51311,15,-49,-180,-191,-208,30,-177,62,-239,-198,-151,-229,120,-162,-501,-259,-306,-341,381,-220,-384,-77,49,-66,-189,-224,173,-243,35,-196,-573,-196
51312,8,-42,-156,-180,-206,35,-164,91,-224,-187,-119,-224,128,-139,-475,-126,-280,-359,395,-211,-345,-26,24,-62,-173,-199,225,-290,-9,-215,-624,-137
51313,-22,-55,-157,-166,-206,48,-186,84,-226,-175,-141,-240,135,-127,-468,-41,-299,-358,402,-205,-355,-42,13,-55,-134,-180,210,-355,-26,-227,-651,-208
51314,-45,-72,-221,-169,-226,25,-225,63,-212,-178,-165,-266,132,-115,-499,-4,-339,-348,423,-188,-388,-39,17,-10,-92,-173,170,-287,34,-139,-544,-126
51315,-27,-35,-246,-176,-220,54,-187,47,-201,-168,-144,-291,130,-119,-501,45,-414,-359,459,-180,-367,15,0,-4,-58,-139,227,-359,29,-106,-489,-59
51316,-73,-61,-252,-181,-223,51,-185,49,-212,-201,-147,-275,113,-153,-519,7,-404,-380,448,-192,-378,-6,-28,-16,-68,-162,199,-391,-2,-159,-534,-188
51317,-66,-87,-244,-167,-219,55,-179,73,-226,-199,-140,-252,132,-135,-493,20,-394,-345,453,-160,-364,34,-14,19,-47,-144,227,-344,15,-126,-511,-135
51318,-61,-51,-255,-163,-222,60,-148,88,-213,-199,-98,-216,139,-125,-473,82,-410,-349,469,-143,-328,111,11,31,-44,-120,277,-268,34,-110,-516,-38
51319,-56,-32,-270,-173,-225,78,-100,77,-217,-187,-101,-205,148,-127,-481,44,-298,-328,470,-159,-345,50,1,33,-61,-134,240,-299,42,-119,-497,-113
51320,-35,-69,-243,-156,-216,58,-90,76,-200,-181,-123,-194,157,-136,-464,30,-292,-335,479,-167,-362,19,-7,34,-49,-127,206,-368,17,-105,-525,-223
51321,-14,-60,-232,-139,-196,63,-85,113,-195,-168,-107,-228,156,-116,-456,35,-308,-334,486,-176,-354,8,22,23,-51,-143,195,-295,57,-95,-540,-260
51322,-56,-15,-251,-157,-214,71,-95,110,-200,-159,-97,-265,148,-119,-467,39,-367,-332,504,-144,-336,67,50,64,-25,-109,189,-212,114,-53,-512,-163
51323,-93,-59,-240,-189,-214,88,-98,48,-201,-171,-82,-243,146,-134,-455,72,-493,-339,480,-141,-331,128,71,65,-14,-97,198,-205,122,-46,-514,-108
51324,-69,-91,-199,-173,-222,81,-120,57,-224,-182,-80,-255,104,-135,-477,45,-189,-354,461,-175,-338,127,45,34,-69,-148,229,-299,41,-104,-570,-99
51325,-66,-92,-178,-158,-203,103,-111,60,-205,-124,-94,-298,113,-124,-452,23,-291,-329,439,-148,-342,5,52,40,-53,-143,223,-172,87,-85,-577,-157
51326,-103,-132,-210,-189,-212,79,-149,12,-243,-138,-73,-314,85,-162,-471,-34,-332,-361,420,-167,-387,-105,69,46,-63,-171,138,-79,108,-89,-596,-332
51327,-117,-138,-247,-215,-236,69,-157,-9,-252,-150,-63,-341,62,-171,-487,-36,-343,-390,394,-183,-385,-31,38,11,-88,-179,125,-194,126,-74,-559,-219
51328,-110,-119,-257,-201,-213,107,-134,8,-220,-124,-70,-332,85,-140,-442,1,-311,-381,432,-146,-347,34,-15,19,-60,-153,202,-448,85,-45,-523,-55
51329,-114,-164,-274,-211,-235,70,-180,5,-245,-156,-123,-335,87,-144,-470,-59,-302,-383,443,-144,-369,40,18,27,-53,-153,230,-339,110,-57,-523,-92
51330,-162,-192,-306,-246,-249,40,-200,-5,-264,-177,-182,-332,73,-153,-487,-298,-315,-391,417,-176,-390,-48,41,33,-55,-158,177,-258,142,-43,-513,-207
51331,-165,-185,-304,-242,-219,66,-200,-17,-242,-146,-143,-303,78,-133,-448,-538,-314,-383,442,-161,-358,1,69,49,-34,-138,188,-241,163,-19,-509,-191
51332,-178,-166,-306,-249,-210,58,-189,-30,-242,-124,-88,-281,80,-133,-430,-519,-299,-363,447,-157,-353,-6,93,62,-24,-143,213,-235,168,-54,-534,-180
51333,-181,-166,-289,-239,-217,38,-196,8,-225,-135,-133,-268,93,-144,-446,-352,-270,-339,453,-167,-393,-121,106,77,-33,-170,143,-185,176,-64,-571,-305
51334,-180,-161,-275,-228,-226,40,-196,15,-227,-142,-153,-276,110,-148,-457,-130,-251,-319,467,-165,-371,-96,150,127,-12,-120,179,-93,254,16,-456,-196
51335,-151,-166,-217,-174,-227,59,-168,61,-206,-147,-96,-182,150,-128,-443,45,-196,-257,467,-135,-330,20,194,149,30,-74,251,-159,294,78,-381,-164
51336,-141,-180,-155,-188,-252,56,-184,96,-202,-171,-123,-121,159,-132,-469,110,-176,-219,489,-137,-349,0,235,174,18,-91,222,-104,271,-2,-460,-230
51337,-155,-182,-197,-190,-254,40,-189,98,-219,-183,-162,-120,163,-123,-470,60,-180,-238,512,-138,-352,-16,192,137,16,-109,238,-222,169,-66,-499,-224
51338,-180,-193,-208,-189,-239,41,-189,86,-206,-174,-142,-133,182,-115,-469,-13,-162,-233,506,-125,-356,-9,196,132,21,-115,232,-220,175,-35,-467,-171
51339,-183,-196,-226,-195,-243,42,-191,76,-203,-175,-135,-164,172,-109,-489,27,-200,-238,511,-120,-369,-18,221,149,-14,-132,181,-163,213,-41,-474,-215
51340,-189,-177,-245,-206,-235,37,-201,47,-236,-193,-136,-217,138,-143,-482,12,-246,-277,497,-139,-376,-43,166,107,-19,-148,153,-182,210,-60,-498,-197
51341,-156,-144,-193,-183,-219,34,-137,61,-206,-167,-112,-203,134,-112,-462,-12,-285,-276,490,-137,-360,-21,155,129,-3,-130,183,-209,166,-74,-506,-167
51342,-153,-139,-212,-200,-216,39,-148,53,-214,-173,-116,-236,104,-115,-470,-63,-287,-303,481,-158,-363,2,126,104,-20,-141,202,-251,92,-100,-524,-130
51343,-175,-157,-256,-244,-254,28,-203,12,-266,-209,-145,-291,71,-156,-496,-61,-304,-377,431,-171,-372,-27,35,46,-47,-173,183,-291,51,-128,-508,-170
51344,-196,-157,-261,-226,-237,39,-199,22,-242,-180,-161,-288,74,-145,-482,-53,-361,-391,425,-150,-364,-33,34,27,-42,-164,160,-283,103,-110,-503,-239
51345,-165,-169,-253,-195,-214,54,-206,13,-230,-191,-150,-302,76,-121,-470,-15,-400,-405,416,-148,-362,-22,33,34,-62,-154,164,-279,92,-113,-507,-290
51346,-159,-183,-277,-229,-250,32,-227,18,-255,-193,-161,-316,68,-145,-501,0,-420,-397,396,-173,-358,13,-4,21,-61,-146,195,-328,76,-116,-473,-195
51347,-155,-164,-259,-211,-236,41,-204,36,-234,-182,-150,-290,71,-140,-506,40,-404,-399,388,-166,-350,54,-15,23,-32,-137,214,-354,47,-134,-499,-195
51348,-125,-182,-244,-189,-242,58,-209,24,-224,-187,-134,-283,106,-112,-467,65,-359,-377,439,-129,-313,106,-2,48,-9,-117,280,-331,79,-100,-458,-118
51349,-138,-176,-253,-202,-236,49,-193,44,-240,-178,-144,-308,105,-129,-472,15,-372,-354,468,-140,-297,59,6,51,-14,-113,280,-276,110,-72,-445,-122
51350,-152,-168,-232,-215,-234,38,-196,41,-213,-191,-163,-300,111,-132,-479,-125,-392,-343,473,-155,-343,-59,35,57,-34,-131,247,-241,112,-75,-464,-169
51351,-172,-173,-237,-228,-242,36,-200,51,-216,-199,-168,-312,125,-137,-482,-209,-431,-344,448,-145,-347,-57,38,85,-1,-113,302,-253,149,-35,-414,-67
51352,-142,-159,-200,-197,-236,23,-201,76,-220,-206,-153,-319,142,-121,-465,-177,-326,-346,448,-119,-323,-11,36,115,27,-91,319,-256,156,-37,-417,-91
51353,-137,-176,-188,-199,-248,21,-180,75,-226,-188,-128,-316,133,-127,-481,-94,-339,-334,444,-127,-302,25,44,110,5,-88,345,-202,175,-28,-408,-55
51354,-143,-211,-196,-171,-235,41,-154,88,-208,-154,-112,-315,166,-119,-471,-9,-335,-312,472,-137,-311,16,72,132,-10,-88,350,-161,224,1,-402,-37
51355,-131,-223,-199,-142,-207,46,-157,103,-207,-163,-100,-282,166,-112,-463,64,-305,-305,472,-109,-284,100,74,131,-10,-77,392,-240,215,13,-381,-40
51356,-152,-228,-241,-177,-246,2,-183,64,-222,-186,-131,-279,125,-124,-467,82,-357,-325,459,-138,-293,113,31,74,-28,-75,412,-242,159,-8,-371,-50
51357,-158,-228,-210,-187,-271,0,-203,82,-233,-184,-140,-230,116,-129,-467,43,-316,-326,459,-139,-301,42,66,81,-28,-64,391,-248,141,-7,-348,-51
51358,-117,-210,-137,-179,-250,44,-174,97,-225,-151,-110,-173,157,-114,-453,56,-227,-278,489,-114,-279,46,111,122,-25,-33,377,-170,180,7,-355,-42
51359,-152,-203,-180,-179,-257,32,-146,71,-235,-148,-84,-217,160,-126,-423,-23,-247,-282,482,-117,-260,104,103,104,-52,-31,354,-202,162,-39,-415,-21
51360,-187,-220,-229,-202,-264,29,-127,67,-231,-152,-108,-268,148,-113,-423,-117,-262,-328,474,-126,-277,96,107,75,-40,-66,335,-229,123,-72,-479,-65
51361,-181,-236,-244,-224,-260,29,-127,51,-244,-161,-108,-302,118,-134,-456,-30,-285,-331,441,-127,-292,94,71,31,-64,-85,353,-223,108,-87,-491,-58
51362,-142,-206,-218,-210,-245,37,-110,65,-214,-152,-107,-274,111,-145,-439,75,-279,-301,430,-130,-257,120,77,43,-67,-100,396,-177,114,-85,-453,22
51363,-122,-209,-191,-178,-243,24,-120,79,-230,-171,-116,-235,130,-146,-451,63,-270,-306,417,-137,-275,92,81,24,-62,-109,318,-188,114,-93,-456,-13
51364,-92,-163,-182,-166,-222,38,-127,92,-234,-149,-88,-225,130,-149,-447,82,-292,-309,413,-127,-256,119,39,42,-78,-111,314,-207,132,-73,-424,0
51365,-44,-121,-151,-167,-216,51,-97,106,-215,-153,-70,-198,138,-160,-443,126,-276,-294,418,-149,-267,115,56,46,-97,-119,252,-218,102,-104,-476,-116
51366,-73,-120,-160,-172,-217,64,-68,93,-229,-155,-75,-218,119,-154,-438,116,-270,-305,400,-157,-274,132,58,23,-89,-134,247,-243,142,-82,-468,-123
51367,-56,-114,-143,-160,-231,54,-66,84,-242,-161,-72,-211,111,-162,-447,126,-277,-329,379,-170,-273,171,38,20,-103,-128,322,-301,127,-93,-461,-15
51368,-17,-85,-95,-134,-217,46,-69,105,-230,-181,-83,-177,105,-170,-458,101,-246,-331,376,-169,-307,121,0,0,-139,-176,277,-356,-23,-189,-566,-110
51369,-12,-97,-73,-115,-212,61,-76,128,-222,-171,-78,-166,126,-159,-459,79,-209,-316,378,-186,-324,73,47,-11,-155,-183,221,-271,1,-167,-583,-238
51370,-37,-110,-104,-141,-228,50,-89,126,-227,-180,-101,-195,122,-165,-460,84,-248,-297,388,-178,-310,88,68,7,-154,-169,233,-232,81,-83,-479,-74
51371,-31,-115,-99,-113,-218,56,-75,124,-217,-172,-102,-187,140,-151,-456,56,-229,-296,420,-178,-334,82,53,16,-137,-176,199,-252,43,-131,-554,-139
51372,-37,-117,-78,-117,-213,60,-86,130,-214,-169,-103,-157,149,-141,-471,34,-209,-276,447,-193,-330,7,87,41,-141,-150,204,-197,99,-90,-488,-163
51373,-31,-121,-84,-119,-214,70,-121,136,-215,-209,-84,-180,128,-170,-475,-22,-238,-290,410,-206,-348,46,72,25,-182,-180,214,-202,63,-163,-545,-106
51374,-31,-138,-89,-99,-200,52,-128,146,-228,-188,-99,-166,142,-176,-493,-147,-214,-303,420,-206,-355,72,93,26,-199,-197,189,-222,82,-163,-610,-64
51375,-67,-174,-111,-108,-210,47,-117,132,-220,-184,-96,-165,153,-165,-487,-148,-195,-294,420,-204,-342,96,103,43,-213,-183,188,-260,93,-137,-528,-59
51376,-85,-177,-125,-128,-235,54,-111,126,-217,-207,-97,-154,136,-182,-482,-99,-190,-280,401,-210,-351,50,122,45,-230,-200,186,-172,105,-140,-566,-92
51377,-69,-143,-126,-132,-232,58,-94,122,-226,-207,-104,-185,137,-198,-489,-117,-210,-297,387,-206,-376,-6,103,31,-248,-215,179,-188,89,-153,-612,-141
51378,-65,-121,-138,-146,-224,65,-43,120,-236,-191,-82,-221,115,-191,-471,-31,-287,-312,385,-214,-361,72,57,-6,-265,-216,147,-239,17,-207,-636,-187
51379,-74,-121,-147,-139,-228,60,-76,112,-214,-195,-103,-201,128,-171,-482,24,-265,-293,400,-201,-356,56,77,37,-231,-200,174,-250,76,-164,-599,-129
51380,-87,-134,-145,-126,-212,51,-106,129,-227,-205,-139,-210,135,-184,-503,55,-293,-331,395,-218,-388,21,39,-9,-266,-239,143,-355,-2,-231,-674,-261
51381,-47,-130,-115,-126,-208,47,-101,125,-229,-201,-114,-220,122,-199,-504,66,-324,-349,360,-246,-385,59,-22,-43,-277,-245,128,-396,-70,-299,-707,-282
51382,-40,-109,-133,-123,-201,47,-104,99,-227,-216,-97,-248,95,-184,-498,98,-393,-348,370,-222,-358,121,-32,-33,-241,-213,213,-354,-33,-240,-585,-91
51383,-78,-134,-171,-155,-199,18,-106,82,-248,-226,-99,-297,97,-200,-507,77,-364,-364,362,-231,-380,80,-29,-48,-260,-216,191,-361,-28,-253,-642,-161
51384,-87,-141,-160,-132,-202,1,-134,83,-224,-206,-116,-286,112,-176,-518,37,-303,-354,358,-225,-396,10,2,1,-247,-227,168,-331,8,-247,-624,-224
51385,-80,-154,-141,-144,-221,7,-152,98,-224,-194,-153,-273,128,-173,-514,5,-289,-344,367,-228,-371,29,37,19,-259,-215,194,-263,54,-173,-545,-177
51386,-70,-161,-126,-160,-233,-1,-170,109,-227,-219,-156,-250,124,-191,-514,23,-299,-347,371,-238,-396,52,3,-1,-279,-219,165,-334,11,-221,-568,-259
51387,-69,-170,-108,-129,-219,-1,-167,98,-232,-217,-159,-230,115,-188,-503,23,-291,-323,366,-210,-360,81,23,3,-264,-195,223,-300,21,-195,-586,-152
51388,-84,-176,-169,-152,-230,3,-159,55,-230,-223,-143,-277,113,-186,-520,-69,-325,-357,365,-199,-374,89,8,-12,-252,-200,240,-300,45,-175,-527,-115
51389,-61,-135,-187,-145,-220,6,-166,45,-235,-214,-121,-298,100,-185,-520,-121,-334,-354,353,-191,-378,85,-1,-27,-253,-190,197,-327,8,-189,-548,-239
51390,-74,-124,-187,-151,-201,35,-152,47,-238,-217,-119,-284,81,-189,-515,-27,-320,-356,338,-192,-345,105,8,-13,-259,-182,230,-303,28,-161,-529,-170
51391,-43,-82,-169,-134,-161,33,-145,65,-230,-189,-125,-248,101,-187,-524,13,-302,-346,329,-206,-358,12,4,-12,-251,-155,223,-258,60,-142,-512,-138
51392,-29,-82,-180,-141,-174,14,-158,69,-233,-211,-144,-253,93,-189,-546,20,-348,-366,329,-223,-376,14,0,-37,-250,-178,195,-274,61,-150,-508,-182
51393,-44,-111,-180,-131,-192,32,-119,74,-234,-209,-156,-210,108,-181,-542,30,-293,-360,338,-205,-365,11,21,-15,-255,-180,182,-266,76,-131,-527,-201
51394,-57,-147,-186,-140,-187,36,-111,58,-231,-201,-147,-215,116,-175,-542,-10,-235,-326,348,-201,-363,7,40,2,-241,-168,196,-228,96,-121,-497,-207
51395,-33,-110,-152,-123,-178,59,-83,82,-207,-170,-104,-200,111,-141,-507,-91,-231,-319,352,-169,-324,36,76,23,-196,-126,287,-184,150,-65,-422,-58
51396,-21,-116,-159,-121,-190,43,-51,102,-210,-170,-83,-188,102,-156,-496,-235,-241,-345,318,-196,-321,59,43,-2,-205,-118,244,-273,51,-113,-454,-105
51397,-48,-144,-168,-152,-228,46,-56,71,-232,-184,-92,-226,90,-167,-488,-305,-240,-361,317,-185,-337,64,6,1,-218,-133,260,-349,11,-122,-424,-86
51398,-79,-157,-175,-163,-220,13,-78,62,-243,-188,-104,-241,91,-148,-492,-270,-250,-358,340,-175,-331,43,30,21,-186,-116,258,-273,81,-60,-400,-78
51399,-100,-179,-176,-181,-227,-15,-126,45,-258,-184,-141,-234,88,-173,-498,-173,-256,-335,335,-195,-343,19,40,14,-163,-124,228,-271,74,-89,-430,-89
51400,-83,-170,-165,-163,-236,-7,-130,58,-243,-220,-159,-192,110,-156,-525,-45,-220,-309,341,-198,-359,6,69,14,-184,-150,205,-222,101,-91,-495,-247
51401,-104,-170,-146,-131,-212,-18,-123,92,-227,-227,-187,-184,102,-167,-556,66,-238,-310,328,-210,-362,5,73,35,-191,-145,218,-207,115,-76,-459,-203
51402,-71,-126,-133,-114,-227,15,-148,128,-193,-208,-179,-208,112,-139,-526,124,-247,-298,356,-180,-334,80,73,21,-184,-121,239,-301,83,-80,-394,-55
51403,-64,-138,-118,-128,-223,12,-126,134,-198,-216,-176,-198,128,-143,-521,100,-254,-307,389,-180,-327,115,70,47,-177,-118,273,-286,72,-71,-367,-47
51404,-75,-169,-127,-138,-218,12,-124,116,-227,-235,-162,-183,126,-155,-525,117,-216,-304,385,-168,-320,111,84,64,-146,-106,291,-242,105,-47,-390,-56
51405,-72,-142,-104,-139,-226,14,-111,107,-219,-223,-154,-173,125,-155,-506,109,-214,-283,370,-155,-324,156,94,78,-131,-100,288,-171,139,-83,-456,-147
51406,-48,-119,-90,-134,-211,18,-98,117,-201,-218,-138,-145,140,-137,-492,119,-177,-254,388,-149,-302,218,137,110,-131,-71,355,-125,175,-20,-399,-31
51407,-76,-100,-114,-156,-230,14,-93,115,-221,-218,-148,-174,139,-149,-507,107,-202,-246,389,-145,-302,90,175,134,-109,-65,369,-51,242,44,-324,83
51408,-63,-103,-106,-148,-228,19,-99,111,-240,-231,-151,-181,135,-141,-502,46,-163,-258,396,-157,-334,-81,165,123,-96,-70,284,-118,256,74,-326,-30
51409,-53,-116,-104,-156,-239,29,-89,92,-225,-210,-136,-181,127,-120,-472,58,-167,-263,420,-130,-292,40,139,126,-77,-40,302,-157,218,77,-296,-35
51410,-21,-83,-87,-147,-225,68,-41,105,-225,-183,-103,-187,128,-140,-468,110,-170,-257,427,-123,-258,133,149,135,-56,-26,362,-190,195,45,-313,33
51411,25,-55,-81,-125,-220,67,0,110,-222,-198,-76,-167,140,-137,-458,143,-172,-257,450,-119,-241,147,161,140,-54,-38,381,-229,175,13,-356,-17
51412,20,-56,-62,-114,-214,73,4,122,-215,-190,-48,-159,159,-114,-433,179,-228,-251,440,-97,-204,176,151,131,-51,8,417,-245,187,63,-278,82
51413,51,-47,-29,-87,-190,69,-13,161,-213,-170,-50,-122,179,-104,-423,120,-210,-234,446,-90,-190,202,159,156,-26,31,447,-230,214,112,-175,146
51414,61,-48,-45,-118,-212,74,-34,150,-221,-175,-45,-142,162,-114,-433,15,-161,-253,439,-104,-204,187,171,151,-21,11,437,-175,249,155,-152,136
51415,30,-51,-66,-114,-227,88,-8,135,-218,-209,-32,-158,150,-141,-439,39,-137,-256,422,-112,-203,179,171,135,-51,10,447,-165,239,142,-210,162
51416,48,-45,-44,-103,-210,87,16,162,-211,-199,-24,-104,166,-135,-413,19,-118,-219,408,-106,-194,192,238,166,-28,10,453,-25,265,147,-193,128
51417,66,-38,-1,-83,-194,91,37,189,-186,-166,-13,-70,199,-120,-395,40,-56,-187,434,-111,-179,235,250,183,-21,-16,395,-95,233,12,-371,2
51418,32,-65,-30,-110,-223,73,11,182,-217,-180,-38,-69,191,-151,-429,42,-44,-183,436,-134,-212,193,239,177,-35,-27,337,-105,264,28,-372,-1
51419,20,-56,-49,-108,-230,65,5,175,-214,-187,-49,-76,178,-154,-430,122,-34,-162,442,-111,-209,180,270,211,-15,0,395,-56,375,162,-228,52
51420,36,-55,-31,-89,-212,82,37,172,-211,-196,-33,-72,180,-165,-429,199,-28,-163,421,-137,-218,232,290,198,-42,-7,416,20,384,132,-253,44
51421,38,-36,-48,-95,-202,84,61,175,-216,-206,-41,-94,169,-157,-457,211,-33,-175,391,-146,-230,245,270,172,-76,-38,394,55,272,40,-337,73
51422,26,-19,-61,-93,-188,97,61,166,-225,-187,-40,-97,165,-156,-437,235,-80,-185,389,-138,-205,255,249,154,-42,-16,438,70,285,82,-324,149
51423,-9,-76,-78,-105,-186,90,23,134,-215,-206,-52,-128,147,-166,-446,176,-96,-223,392,-143,-238,198,197,117,-54,-41,406,-70,261,65,-290,62
51424,-13,-78,-99,-94,-189,95,6,108,-211,-204,-58,-146,151,-149,-464,176,-130,-252,382,-160,-229,173,173,109,-75,-65,366,-127,194,4,-348,-21
51425,35,-55,-64,-43,-177,149,43,137,-210,-169,-4,-150,159,-141,-444,205,-143,-250,373,-155,-235,215,127,99,-72,-64,385,-312,120,-39,-386,-69
51426,28,-79,-62,-91,-185,107,33,139,-228,-176,-6,-126,146,-167,-449,212,-130,-249,352,-169,-266,187,165,80,-90,-89,369,-225,150,-46,-386,-96
51427,-8,-69,-79,-103,-227,75,12,142,-235,-184,-34,-123,121,-157,-444,180,-115,-259,324,-168,-244,219,151,46,-107,-78,352,-189,141,-13,-344,26
51428,4,-73,-83,-99,-230,79,14,151,-234,-206,-42,-148,121,-167,-444,172,-138,-267,306,-165,-238,233,124,35,-121,-79,369,-218,121,-54,-402,71
51429,20,-60,-68,-106,-231,76,-2,144,-214,-195,-67,-171,126,-166,-461,142,-214,-292,329,-178,-271,117,119,25,-116,-111,322,-222,152,-42,-416,-67
51430,-9,-62,-113,-121,-232,54,-25,124,-235,-212,-91,-203,102,-170,-469,100,-233,-312,319,-187,-301,52,101,-7,-142,-130,290,-260,80,-81,-425,-46
51431,28,-66,-159,-108,-222,63,-32,118,-213,-196,-79,-192,97,-166,-482,96,-199,-321,296,-209,-286,84,81,-11,-158,-130,302,-237,66,-110,-469,-49
51432,59,-28,-145,-108,-196,88,-31,113,-217,-176,-84,-172,103,-156,-484,109,-216,-316,298,-203,-287,77,86,-5,-152,-122,297,-223,86,-114,-429,0
51433,31,-22,-159,-110,-201,80,-25,103,-222,-183,-73,-200,107,-177,-452,112,-213,-318,322,-182,-269,94,90,12,-136,-123,323,-210,122,-58,-364,6
51434,24,17,-155,-120,-195,92,4,88,-235,-178,-84,-214,92,-176,-459,7,-232,-349,301,-214,-308,83,81,-34,-176,-150,222,-196,68,-190,-545,-309
51435,19,-5,-144,-135,-203,105,-22,78,-237,-176,-91,-180,73,-156,-464,-24,-214,-348,278,-220,-317,32,59,-56,-176,-168,176,-168,43,-229,-614,-286
51436,-5,-31,-139,-140,-218,75,-60,66,-253,-191,-99,-125,58,-192,-490,-52,-248,-367,275,-216,-322,16,7,-57,-175,-174,193,-399,-16,-194,-576,-184
51437,28,5,-125,-136,-182,99,-13,62,-246,-175,-89,-112,83,-174,-464,6,-313,-358,301,-197,-287,53,17,-45,-148,-104,262,-387,39,-76,-408,-98
51438,44,-20,-131,-107,-178,112,-11,100,-223,-151,-84,-160,122,-162,-441,-14,-269,-341,309,-171,-270,50,57,0,-116,-66,290,-272,144,73,-223,-5
51439,32,-34,-138,-126,-199,99,-78,94,-224,-162,-59,-166,105,-164,-425,-196,-210,-335,289,-169,-257,26,49,14,-113,-68,297,-256,166,129,-149,59
51440,19,-6,-144,-140,-207,101,-91,63,-257,-180,-74,-206,72,-177,-427,-293,-268,-361,258,-196,-286,-1,33,-31,-137,-105,263,-282,84,-54,-322,-48
51441,77,38,-121,-109,-175,132,-21,111,-238,-167,-25,-186,92,-154,-420,-109,-227,-334,275,-197,-291,79,54,-22,-180,-142,232,-239,9,-272,-634,-83
51442,108,13,-96,-78,-173,141,-8,139,-206,-125,-9,-145,108,-147,-400,57,-182,-296,297,-163,-242,135,90,15,-128,-94,269,-238,93,-163,-530,-3
51443,70,-1,-104,-101,-164,120,-10,94,-210,-167,-51,-204,117,-168,-427,92,-252,-299,302,-166,-268,65,69,8,-113,-99,248,-302,57,-152,-482,-122
51444,76,6,-116,-86,-174,114,-4,128,-217,-162,-62,-205,135,-166,-435,168,-274,-327,305,-165,-265,91,55,5,-96,-101,269,-277,19,-150,-480,-90
51445,94,-3,-123,-62,-166,138,9,152,-210,-158,-51,-209,148,-159,-418,208,-225,-314,335,-144,-210,210,54,16,-65,-54,401,-264,68,-74,-378,77
51446,96,16,-84,-48,-179,109,14,174,-214,-181,-57,-157,154,-169,-455,140,-181,-274,337,-184,-303,155,100,25,-106,-132,227,-249,39,-236,-635,-296
