,Fp1,Fp2,F7,F3,Fz,F4,F8,FC5,FC1,FC2,FC6,T7,C3,Cz,C4,T8,TP9,CP5,CP1,CP2,CP6,TP10,P7,P3,Pz,P4,P8,PO9,O1,Oz,O2,PO10
143854,244,332,204,-264,-85,202,140,312,-106,-19,220,46,327,-52,212,-54,-154,-136,3,136,-88,60,46,92,248,132,425,238,224,99,-142,81
143855,322,525,267,-333,-102,90,205,312,-115,-47,165,28,279,-60,173,-13,-102,-206,-6,117,-162,16,57,57,220,76,375,226,176,59,-191,-5
143856,415,562,371,-373,-109,205,152,253,-136,-24,172,1,270,-62,177,77,-119,-199,-28,107,-180,-58,95,51,199,46,344,7,89,-53,-333,-320
143857,417,531,429,-395,-109,319,91,174,-154,-13,159,-20,267,-50,193,130,-135,-187,-30,113,-113,-93,11,21,184,76,415,-43,59,-48,-268,-133
143858,442,502,434,-408,-117,248,72,141,-179,-46,145,-52,262,-53,189,152,-159,-190,-32,120,-111,-88,-33,36,194,66,419,33,107,19,-203,-53
143859,462,435,439,-346,-122,174,55,217,-157,-40,158,6,282,-40,169,126,-132,-123,-16,120,-139,-193,163,55,190,51,363,11,110,27,-173,-67
143860,429,454,447,-263,-107,144,66,264,-135,-38,161,45,291,-36,172,131,-107,-133,-21,125,-130,-190,124,64,182,76,363,7,122,37,-171,-76
143861,468,416,471,-238,-88,133,103,291,-152,-39,181,-57,303,-45,197,70,-125,-127,-9,129,-96,-159,60,76,202,61,392,-29,133,49,-172,-60
143862,467,372,524,-254,-84,259,121,281,-117,-21,242,-91,312,-30,196,-11,-110,-62,-3,129,-97,-108,165,122,223,72,445,-205,150,66,-130,-24
143863,276,361,467,-319,-97,223,102,186,-121,-26,245,-11,275,-56,192,-40,-159,-79,-24,115,-92,-100,136,115,210,92,543,-226,160,72,-85,32
143864,243,394,391,-406,-92,268,105,206,-133,-32,236,-169,242,-56,206,54,-247,-242,-53,126,-61,-104,-132,-8,184,97,544,133,118,77,-65,79
143865,311,333,323,-370,-106,295,125,253,-143,-22,215,-60,236,-60,178,115,-178,-234,-56,85,-110,-52,-27,23,171,71,430,10,185,89,-70,89
143866,326,240,293,-326,-106,268,30,181,-154,-22,201,39,236,-78,107,57,-126,-217,-74,54,-245,12,116,17,143,-6,284,-103,149,-3,-228,-109
143867,228,342,313,-287,-99,312,-10,149,-153,-27,200,35,229,-74,127,103,-109,-230,-84,51,-218,9,101,-34,131,5,302,120,91,-9,-215,-70
143868,120,351,263,-271,-123,482,-22,187,-156,-22,257,73,219,-68,173,90,-122,-235,-86,61,-122,-2,128,-20,156,60,462,64,117,32,-148,-9
143869,180,296,330,-285,-115,373,-60,231,-137,-11,286,16,241,-51,202,48,-83,-237,-68,93,-80,29,105,9,175,101,596,98,165,87,-89,13
143870,336,116,337,-334,-118,320,-39,236,-130,-11,238,-29,245,-62,189,22,-83,-203,-70,106,-72,19,148,32,193,111,583,-3,197,96,-64,57
143871,312,266,347,-346,-101,185,30,250,-125,-9,231,4,257,-67,187,26,-58,-144,-60,121,-60,6,262,54,194,122,509,81,206,111,-42,105
143872,135,459,377,-399,-95,129,92,192,-154,-16,215,38,249,-70,202,-9,-26,-102,-69,108,-66,64,351,71,192,120,449,74,196,92,-63,110
143873,217,459,344,-334,-101,324,184,187,-138,5,251,-4,249,-71,228,120,-83,-181,-78,125,-24,130,120,38,194,141,478,136,232,148,-39,164
143874,371,497,304,-273,-101,266,171,230,-110,-7,280,22,276,-63,276,131,-46,-143,-53,140,1,138,228,42,202,145,533,161,221,145,-8,173
143875,517,552,342,-250,-106,185,199,251,-111,-23,243,48,273,-53,279,112,-23,-117,-37,154,-5,179,235,70,227,155,564,138,237,143,-6,187
143876,500,581,298,-309,-96,210,231,235,-132,-4,245,17,260,-44,273,198,-28,-168,-18,180,12,225,74,87,236,175,634,178,256,173,27,251
143877,485,561,324,-408,-92,231,246,218,-133,-10,270,35,286,-28,283,285,34,-120,-13,189,41,236,189,101,242,181,666,195,276,195,55,281
143878,439,532,386,-385,-97,188,238,214,-124,7,256,58,307,-34,273,333,65,-72,7,184,40,188,253,118,240,200,694,197,265,197,59,292
143879,376,455,379,-365,-134,160,236,218,-119,-17,205,19,292,-48,249,345,8,-83,-14,153,41,191,200,87,216,183,768,200,216,153,53,321
143880,370,477,273,-322,-123,165,194,183,-120,-22,193,-56,284,-50,228,269,-38,-114,-22,126,12,155,97,68,185,138,702,84,216,114,-18,192
143881,434,512,186,-244,-109,163,178,217,-119,-1,216,28,287,-39,224,209,-23,-117,-21,140,-19,97,173,59,197,122,577,149,225,132,-4,185
143882,317,363,177,-276,-121,213,135,301,-102,-7,214,74,305,-45,213,-79,-95,-77,-35,137,-59,38,396,66,197,121,517,62,188,128,8,311
143883,127,157,242,-278,-143,98,42,313,-105,-44,194,-53,313,-49,187,-269,-143,-113,-28,122,-54,-35,272,56,194,148,592,-28,151,120,69,351
143884,45,85,255,-266,-134,243,-35,253,-99,-9,228,-205,299,-45,221,-193,-209,-153,-28,131,17,-176,65,34,198,174,648,-103,117,89,25,249
143885,-28,224,258,-227,-115,264,-91,215,-82,-22,228,-181,304,-45,181,-43,-166,-112,-25,109,-115,-72,152,60,176,63,482,-283,93,-3,-131,-26
143886,-74,323,266,-344,-129,231,-46,172,-117,-44,186,-188,275,-80,127,-92,-199,-135,-65,70,-204,-24,101,-5,146,19,434,-100,40,-54,-185,-78
143887,-7,229,244,-350,-137,263,-59,239,-136,-48,164,-176,275,-67,119,-163,-283,-166,-54,68,-202,-80,64,3,131,49,432,-178,23,-56,-171,22
143888,89,149,246,-294,-137,341,-103,248,-122,-14,149,-113,274,-56,145,-127,-277,-200,-43,69,-204,-91,-1,22,145,21,376,-236,41,-85,-241,-229
143889,110,60,260,-341,-158,353,-99,138,-136,-4,158,-99,215,-56,199,-90,-317,-322,-83,107,-97,-84,-200,-74,143,90,495,1,34,-27,-154,-49
143890,137,-12,225,-277,-138,356,-229,129,-133,0,155,4,214,-53,223,-153,-270,-288,-80,132,-65,23,-92,-52,154,105,498,-90,40,-23,-121,100
143891,331,201,253,-373,-133,268,-273,182,-149,-1,204,-21,260,-27,232,-45,-167,-240,-56,129,-98,14,7,-25,176,98,488,4,66,-35,-163,57
143892,313,340,299,-334,-144,350,-168,264,-138,-13,223,-87,292,-29,272,162,-180,-212,-37,168,-46,-19,-25,-7,206,136,543,86,104,11,-141,-41
143893,268,432,363,-340,-142,318,41,241,-147,-36,216,-22,300,-45,279,217,-152,-180,-4,180,-21,-45,-19,50,229,153,601,22,119,35,-108,-49
143894,380,487,459,-419,-128,270,170,256,-149,-6,270,24,321,-23,313,329,-102,-134,15,211,60,6,25,84,250,206,760,119,184,105,-10,68
143895,476,577,409,-341,-113,158,216,322,-149,-28,280,61,343,-10,299,362,-71,-89,27,191,46,38,90,116,250,214,685,141,215,111,-21,32
143896,494,535,352,-331,-136,148,184,354,-151,-54,217,103,338,-51,243,239,-74,-59,8,148,-25,-27,167,138,239,146,505,65,186,77,-72,-5
143897,442,516,342,-337,-124,184,194,358,-118,-52,211,119,336,-67,230,158,-50,-73,5,145,-56,-43,178,119,240,146,492,325,226,119,-31,164
143898,337,461,368,-339,-120,165,177,324,-126,-45,235,92,347,-41,248,142,-77,-42,41,176,19,-45,338,136,261,238,651,228,254,227,170,594
143899,278,429,379,-282,-122,100,154,273,-130,-35,247,38,353,-24,263,320,-146,-41,17,196,86,-4,290,128,276,286,768,-217,181,242,265,873
143900,313,399,358,-338,-114,152,176,232,-140,-56,259,-16,309,-55,223,282,-142,-62,-22,132,-1,18,232,96,222,195,627,-268,89,61,22,470
143901,377,411,412,-309,-102,176,211,278,-98,-62,217,-75,323,-50,195,136,-138,-87,-16,113,-91,17,97,82,187,102,472,-9,92,-55,-219,-81
143902,297,338,344,-245,-123,211,216,302,-70,-57,218,-48,321,-57,174,-36,-136,-105,-27,111,-117,-25,0,93,179,87,411,175,152,-12,-193,-276
143903,175,242,317,-148,-114,240,161,321,-88,-51,235,-25,323,-77,162,-176,-157,-84,-17,87,-174,-4,175,102,168,76,392,160,190,1,-214,-349
143904,75,193,317,-131,-123,277,66,353,-104,-68,192,43,367,-78,132,-196,-143,41,6,62,-212,-31,485,168,168,33,375,103,201,-33,-294,-388
143905,-93,101,286,-221,-120,273,-12,255,-118,-52,241,57,365,-64,163,-246,-98,87,1,80,-133,-38,507,178,180,81,528,-3,129,-73,-250,-382
143906,-80,81,299,-410,-127,315,-106,215,-164,-48,261,-29,272,-76,174,-340,-207,-63,-46,90,-99,-38,79,83,156,103,564,-219,80,-67,-175,-297
143907,206,136,336,-415,-135,148,-133,272,-157,-55,151,-55,290,-67,161,-338,-248,-97,-30,76,-139,0,-34,83,159,44,419,-441,36,-106,-261,-202
143908,301,1,308,-293,-124,61,-147,320,-137,-43,161,63,331,-58,161,-200,-183,-107,-17,70,-151,-36,144,60,146,13,374,-256,57,-135,-356,-271
143909,202,156,224,-301,-119,280,-123,294,-140,-30,186,184,303,-52,204,-17,-170,-147,-3,116,-91,-119,187,52,146,56,488,-125,80,-118,-312,-344
143910,253,433,229,-355,-129,359,-111,165,-169,-33,195,125,240,-71,222,293,-182,-230,-36,103,-70,-98,-5,20,165,96,476,-33,96,-72,-228,-253
143911,361,634,368,-296,-113,212,-33,246,-134,-38,203,11,289,-50,208,354,-146,-230,-31,125,-113,-22,-100,52,200,102,409,74,182,35,-135,-74
143912,380,582,365,-262,-113,178,12,273,-130,-50,155,49,291,-30,185,273,-84,-188,-27,119,-143,-44,-9,80,222,88,371,23,181,76,-120,-36
143913,276,376,320,-289,-140,198,10,236,-152,-68,165,-26,252,-57,174,61,-121,-171,-35,107,-176,-91,14,56,188,83,356,-96,127,15,-158,-56
143914,297,231,407,-358,-139,124,4,256,-129,-73,174,-61,279,-48,161,-34,-147,-159,-39,83,-176,-28,87,67,179,63,369,-80,126,-47,-226,-99
143915,403,233,404,-411,-124,87,78,210,-111,-42,177,41,316,-23,172,56,-52,-105,-11,128,-97,44,167,78,212,113,458,109,189,51,-133,-15
143916,300,361,387,-474,-133,137,69,185,-136,-46,183,31,259,-56,172,155,-72,-177,-53,123,-115,54,63,30,199,118,439,162,200,83,-107,-3
143917,160,450,397,-414,-120,243,11,246,-124,-41,190,11,247,-33,190,173,-70,-178,-46,125,-112,44,78,57,220,115,458,95,217,98,-97,4
143918,235,432,400,-408,-129,250,44,263,-124,-15,184,-13,251,-46,187,199,-67,-168,-39,147,-73,28,88,46,227,146,483,107,229,114,-53,33
143919,309,469,387,-428,-130,185,108,218,-163,-22,184,-70,237,-59,180,67,-96,-194,-73,132,-86,28,36,23,207,133,454,79,181,91,-75,45
143920,348,436,418,-401,-113,297,156,258,-157,-28,238,-73,257,-43,187,-13,-76,-180,-53,120,-135,47,61,40,203,115,463,56,199,116,-46,62
143921,317,377,413,-383,-138,252,165,245,-164,-21,198,-23,266,-56,168,51,-62,-123,-32,115,-121,30,211,108,210,128,474,-68,207,102,-30,71
143922,247,362,408,-357,-129,221,164,175,-167,-27,185,163,277,-75,166,75,-39,-49,-8,116,-105,16,447,174,232,128,497,-162,248,117,-50,52
143923,263,315,375,-407,-120,252,66,211,-144,0,195,159,290,-66,190,74,-8,-48,-9,120,-63,6,567,139,246,147,503,-4,245,136,-33,48
143924,314,301,322,-442,-98,276,46,247,-144,23,220,64,307,-53,215,107,21,-25,-15,137,-57,78,627,108,243,159,514,-18,185,83,-45,33
143925,297,212,186,-374,-93,347,94,162,-173,18,257,31,241,-44,221,-3,-88,-191,-42,134,-96,147,47,29,220,140,512,111,158,62,-67,29
143926,108,152,115,-386,-105,449,2,175,-174,16,286,10,208,-74,200,-215,-94,-269,-82,111,-125,58,-26,-2,204,95,481,67,140,39,-81,14
143927,-78,266,197,-353,-100,350,-14,168,-165,3,227,-12,209,-78,177,-281,-150,-232,-97,86,-158,-31,47,2,178,75,460,-46,132,2,-126,-21
143928,-50,251,227,-305,-101,268,6,200,-147,-29,180,-46,250,-67,175,-168,-140,-164,-59,96,-161,-100,168,62,191,86,473,-222,152,26,-140,-10
143929,190,270,287,-296,-98,174,-6,182,-143,-35,181,-8,268,-61,175,-153,-67,-109,-24,114,-109,-125,280,62,202,130,623,15,147,50,-84,25
143930,414,469,380,-366,-108,49,21,179,-134,-40,232,-57,263,-57,219,-67,-101,-155,-18,143,-11,-49,46,27,224,195,759,161,166,112,-26,5
143931,480,593,376,-399,-117,107,11,198,-134,-51,204,-40,262,-28,236,-64,-95,-154,12,199,51,1,-54,84,267,232,716,85,193,137,21,51
143932,421,548,359,-350,-113,281,28,280,-134,-33,251,-1,291,-28,251,12,-63,-133,45,189,40,14,63,141,278,199,635,-35,207,111,-1,162
143933,411,427,390,-391,-121,246,66,310,-128,-42,249,5,312,-32,231,174,-110,-105,45,164,0,-17,112,152,254,151,508,-62,173,55,-86,32
143934,463,340,402,-404,-118,228,22,302,-138,-33,213,68,299,-28,202,178,-134,-140,19,152,-91,-22,41,84,244,130,473,235,159,83,-103,-69
143935,526,331,408,-410,-121,181,-64,377,-142,-52,153,140,326,-43,167,78,-42,-101,32,139,-174,-21,225,87,242,122,427,160,200,119,-54,72
143936,536,322,444,-401,-108,139,-40,301,-130,-66,161,119,329,-42,176,77,4,-110,38,132,-147,-98,238,131,256,136,398,131,204,137,-27,153
143937,424,164,498,-368,-93,162,-16,234,-142,-58,193,30,311,-52,180,12,-44,-139,17,143,-124,-79,102,114,244,142,409,130,206,141,16,214
143938,374,359,493,-359,-91,140,36,237,-149,-54,195,-14,299,-75,172,4,-66,-160,17,154,-162,-13,49,102,238,135,407,106,210,164,32,220
143939,346,491,482,-345,-100,294,109,240,-140,-54,197,-18,282,-67,178,70,-73,-109,-7,121,-185,12,142,102,213,64,345,54,157,6,-210,-173
143940,226,333,397,-327,-107,359,75,246,-116,-57,214,-62,285,-46,193,69,-51,-51,5,112,-147,-48,283,127,209,90,395,-15,134,-57,-256,-149
143941,211,191,262,-312,-86,380,18,270,-109,-34,245,-47,277,-58,175,77,-115,-99,-7,107,-168,-38,217,89,191,93,457,27,174,8,-169,54
143942,306,147,158,-336,-86,389,31,245,-121,-36,224,142,275,-70,155,-9,-135,-106,-17,97,-174,-50,325,92,175,82,431,-21,177,9,-157,71
143943,177,137,115,-345,-109,332,-22,290,-136,-56,225,89,261,-88,149,-70,-84,-140,-49,72,-186,-180,360,60,138,32,389,-58,91,-49,-240,-80
143944,21,102,138,-394,-88,298,18,225,-130,-40,224,16,215,-72,158,-44,-145,-201,-82,99,-163,-102,58,5,146,43,389,30,94,-23,-215,-143
143945,42,179,216,-392,-50,292,15,228,-139,-20,145,-71,203,-71,160,-22,-187,-266,-91,87,-151,111,-95,-3,141,82,420,66,130,19,-123,100
143946,192,414,265,-392,-83,231,-41,156,-168,-31,191,-69,188,-95,178,-13,-214,-264,-113,70,-144,95,-74,-10,141,91,492,-26,121,42,-60,325
143947,285,522,345,-447,-82,306,-52,105,-179,-31,261,-19,209,-99,225,-9,-190,-197,-82,108,-48,-7,15,32,190,131,560,-29,152,83,-12,305
143948,349,637,409,-415,-65,277,112,148,-149,-32,298,15,239,-71,232,62,-148,-108,-63,114,-65,20,252,63,186,120,528,-31,154,35,-105,-85
143949,406,638,420,-403,-70,256,184,197,-139,-29,278,84,282,-68,177,61,-84,4,-47,105,-152,59,496,119,176,68,438,-233,133,-49,-251,-329
143950,368,563,372,-351,-102,224,136,218,-120,-43,234,13,284,-76,174,118,-179,-23,-40,101,-147,4,276,171,182,86,417,-498,184,-18,-203,-185
143951,386,571,400,-229,-85,254,146,242,-110,-27,269,-45,255,-42,227,203,-123,-180,-57,123,-71,-5,-63,37,170,112,487,120,148,79,-88,3
143952,425,630,416,-335,-77,233,177,239,-133,-21,289,-72,235,-62,227,153,-140,-226,-88,105,-51,24,-62,-12,159,110,542,189,138,50,-132,-8
143953,411,635,462,-438,-79,270,210,201,-130,-29,298,-8,254,-75,229,147,-152,-154,-75,109,-52,73,81,70,174,110,602,-101,148,-23,-183,-92
143954,474,585,479,-411,-83,244,203,158,-128,-22,295,68,256,-71,231,203,-88,-174,-56,134,-37,86,28,91,193,152,679,-81,151,15,-113,-100
143955,576,595,457,-311,-51,105,275,295,-102,-30,236,-34,298,-58,219,290,-139,-119,-32,123,-45,102,86,121,202,164,721,-138,136,26,-111,-17
143956,611,602,435,-237,-49,14,304,391,-98,-52,258,-52,306,-47,254,261,-161,-134,-32,142,-10,100,83,75,203,163,691,-12,179,138,18,233
143957,542,490,399,-286,-71,197,257,330,-130,-33,303,1,280,-57,255,190,-138,-203,-54,158,-5,79,62,16,218,180,621,155,210,254,169,563
143958,511,451,373,-317,-74,284,248,267,-128,-24,334,-1,266,-59,223,63,-140,-192,-55,142,-33,100,112,24,212,169,556,102,208,193,85,530
143959,468,475,389,-324,-90,300,334,258,-132,-30,274,11,254,-71,160,76,-132,-206,-75,72,-122,103,96,32,161,71,464,126,155,3,-192,74
143960,414,481,426,-323,-82,298,394,320,-139,-39,287,58,258,-69,149,77,-80,-147,-75,52,-175,103,180,65,138,24,405,81,167,-49,-319,-361
143961,401,404,438,-340,-74,322,261,367,-108,-53,290,43,293,-60,172,13,-131,-150,-65,59,-184,123,92,50,147,44,372,271,226,43,-240,-215
143962,191,338,399,-238,-82,319,148,270,-120,-56,271,23,252,-78,166,-47,-129,-161,-75,59,-176,72,146,43,146,31,354,108,153,12,-213,-95
143963,131,274,356,-231,-78,372,127,238,-144,-49,262,-30,215,-84,155,4,-173,-227,-97,54,-212,46,110,0,124,16,351,-170,49,-52,-215,-90
143964,260,192,361,-319,-64,401,86,228,-132,-34,236,-37,212,-65,157,36,-136,-220,-89,54,-211,-7,68,8,134,24,356,-143,54,-46,-227,-110
143965,342,188,375,-309,-62,405,31,192,-142,-12,219,-55,214,-59,173,61,-128,-206,-82,51,-195,-36,7,20,144,35,364,29,92,-35,-257,-175
143966,276,127,345,-279,-64,383,30,146,-150,-27,232,-42,226,-66,177,50,-191,-230,-95,63,-207,-48,-5,4,146,55,374,-10,90,-16,-187,-43
143967,303,263,325,-289,-74,362,31,148,-139,-28,260,-4,218,-69,172,-128,-197,-219,-75,86,-114,-52,15,9,164,84,449,-165,101,39,-79,213
143968,292,465,222,-292,-116,282,51,147,-147,-30,179,-7,219,-58,162,-298,-195,-170,-78,99,-127,22,168,47,193,126,536,-191,145,144,63,542
143969,181,486,134,-330,-109,388,91,137,-157,-20,206,19,224,-75,180,-147,-204,-182,-67,94,-166,33,37,49,190,88,491,-93,140,96,-37,330
143970,209,452,195,-387,-104,383,37,187,-171,-44,189,-47,241,-76,170,-67,-209,-187,-61,62,-209,-28,64,62,128,-10,350,-177,78,-123,-368,-409
143971,192,479,291,-349,-99,361,41,245,-126,-27,188,9,318,-39,200,83,-147,-89,-29,88,-167,2,275,111,164,34,415,-177,105,-122,-370,-462
143972,243,516,270,-328,-111,238,79,218,-110,-43,224,-55,272,-54,208,200,-191,-149,-36,103,-104,10,121,35,145,84,491,-36,56,-87,-276,-246
143973,402,561,243,-377,-113,168,134,166,-137,-52,213,-68,279,-52,221,291,-192,-135,-23,118,-77,52,101,78,166,93,475,-225,44,-95,-270,-241
143974,453,579,278,-383,-119,177,175,211,-147,-59,121,-74,276,-38,232,304,-186,-189,-16,136,-67,94,-32,46,175,111,477,-115,94,-27,-209,-130
143975,297,641,360,-340,-106,224,151,219,-141,-40,164,-100,281,-19,251,193,-181,-200,-15,159,-52,87,-35,52,197,119,473,-86,112,10,-176,-80
143976,253,604,453,-361,-131,83,104,216,-154,-58,148,-92,305,-28,207,65,-191,-142,-8,141,-108,14,148,92,200,98,446,-143,125,-2,-189,-95
143977,334,466,481,-351,-126,94,96,260,-131,-72,145,-46,331,-32,180,-49,-161,-87,-8,128,-137,-1,261,62,195,103,482,20,124,-9,-201,-86
143978,374,387,432,-369,-118,83,99,242,-144,-74,138,-84,293,-29,171,-151,-189,-158,1,119,-149,-118,64,68,196,132,530,96,160,40,-158,-148
143979,385,321,426,-423,-109,63,75,219,-137,-86,140,-158,280,-36,147,-124,-198,-208,-15,100,-175,-137,-80,72,178,110,550,123,154,35,-131,-308
143980,285,298,405,-487,-130,147,72,218,-150,-86,131,-153,278,-52,109,-74,-167,-143,-46,58,-235,-155,-7,47,139,32,428,110,108,-31,-253,-246
143981,186,352,350,-374,-122,172,6,277,-130,-70,175,-37,302,-34,117,28,-166,-99,-41,50,-241,-175,188,36,144,5,341,0,89,-84,-303,-90
143982,203,339,266,-276,-137,140,-29,343,-121,-79,131,86,301,-46,119,-21,-165,-131,-46,40,-224,-184,300,40,149,4,314,-236,37,-96,-265,-80
143983,234,179,255,-292,-142,99,-65,259,-124,-84,108,32,275,-67,122,-141,-185,-146,-44,42,-248,-158,179,50,142,14,339,-389,51,-56,-216,-2
143984,238,264,267,-255,-149,66,-71,257,-134,-83,89,-71,264,-58,117,-74,-209,-197,-61,65,-208,-133,-95,12,161,41,472,-118,77,45,-78,159
143985,331,276,300,-315,-109,278,-25,290,-128,-56,141,-1,279,-62,146,19,-138,-177,-59,91,-176,-182,-32,11,165,64,486,-20,78,38,-105,73
143986,387,262,344,-384,-106,207,-13,216,-160,-41,101,193,252,-61,147,88,-86,-142,-81,70,-164,-111,149,38,159,43,391,-141,40,-62,-262,-139
143987,165,187,342,-356,-85,218,-38,204,-138,-43,105,151,253,-42,182,96,-134,-174,-54,85,-123,-67,125,27,151,54,368,-96,23,-61,-222,21
143988,214,292,361,-333,-100,312,-53,181,-114,-52,93,-29,268,-43,150,21,-147,-196,-66,85,-180,-76,-1,3,139,32,331,-49,28,-61,-255,-45
143989,273,412,364,-322,-110,302,-92,152,-123,-65,85,-2,246,-59,136,-40,-121,-202,-88,66,-232,-126,-64,-6,123,7,273,-35,16,-117,-316,-273
143990,344,380,383,-263,-115,249,-102,204,-139,-68,80,-14,244,-44,137,-98,-160,-218,-108,70,-215,-129,-64,-10,119,8,310,-101,4,-131,-303,-179
143991,374,338,414,-306,-111,208,-127,244,-132,-53,115,-32,246,-40,164,-92,-199,-193,-99,82,-191,-128,47,9,113,24,338,-229,11,-120,-281,-91
143992,341,248,401,-339,-136,150,-160,257,-147,-75,104,30,272,-44,151,-238,-179,-122,-95,61,-216,-138,252,38,111,1,310,-343,14,-140,-304,-118
143993,368,116,391,-422,-143,148,-257,238,-160,-74,132,9,238,-61,160,-424,-161,-204,-98,58,-174,-80,77,-35,111,32,386,-17,12,-123,-276,-96
143994,356,225,419,-411,-146,239,-249,248,-136,-55,177,-14,283,-40,161,-270,-120,-148,-58,90,-198,-22,85,43,148,52,430,-103,57,-89,-271,-117
143995,232,400,451,-353,-118,370,-30,246,-108,-40,162,44,305,-34,168,-116,-99,-77,-22,107,-201,-71,156,92,197,49,405,-140,86,-56,-229,-196
143996,59,523,445,-357,-112,247,37,229,-148,-48,156,53,277,-46,181,123,-146,-120,-35,119,-126,-95,94,39,181,101,513,100,115,9,-131,-89
143997,102,581,480,-318,-119,127,51,236,-144,-94,126,99,299,-63,141,152,-139,-49,-21,112,-137,-13,362,112,192,112,552,-132,141,34,-113,-20
143998,280,579,458,-259,-117,193,148,249,-124,-93,145,173,315,-55,137,35,-91,-1,-14,101,-153,-12,469,155,198,107,446,-163,179,34,-141,-20
143999,408,548,513,-351,-101,256,174,207,-136,-63,164,187,278,-71,145,42,-49,-101,-31,95,-168,-16,117,74,177,78,415,231,165,7,-205,-97
144000,322,472,497,-394,-88,295,211,216,-149,-56,175,44,249,-76,138,-12,-69,-183,-63,94,-178,-51,-77,28,166,67,488,121,98,-27,-213,-127
144001,310,489,489,-331,-66,255,241,256,-123,-51,235,30,267,-60,156,58,-81,-175,-74,91,-143,-42,2,46,176,75,518,50,128,2,-189,-111
144002,385,416,453,-264,-60,210,218,241,-131,-61,219,39,255,-63,159,90,-82,-191,-79,84,-146,-64,35,37,170,74,448,29,119,30,-170,-93
144003,434,346,356,-341,-90,167,182,206,-135,-58,189,-52,254,-75,149,20,-69,-152,-75,77,-138,-26,97,65,172,81,408,-20,128,44,-128,-47
