,Fp1,Fp2,F7,F3,Fz,F4,F8,FC5,FC1,FC2,FC6,T7,C3,Cz,C4,T8,TP9,CP5,CP1,CP2,CP6,TP10,P7,P3,Pz,P4,P8,PO9,O1,Oz,O2,PO10
127996,515,680,113,-104,-181,330,1787,216,43,15,554,53,121,-132,234,2,-99,-1,-81,-40,22,205,459,135,174,281,362,-96,213,58,-47,-344
127997,543,649,126,-117,-150,341,1841,222,59,37,561,54,133,-112,244,1,-147,-35,-57,-28,4,244,287,122,168,255,284,-3,245,90,-58,-98
127998,299,709,98,-106,-156,320,1890,294,37,32,562,-61,142,-121,227,54,-147,-84,-71,-45,-59,248,128,109,164,214,199,-13,209,58,-74,-7
127999,236,773,-19,-79,-158,290,1876,343,70,31,589,-130,132,-120,216,130,-190,-133,-78,-57,-101,232,22,96,158,192,187,-167,102,-15,-109,-107
128000,392,771,-56,-82,-147,243,1940,202,80,39,615,-193,127,-103,240,255,-210,-127,-74,-47,-58,270,40,103,170,221,276,-280,152,29,-73,-68
128001,446,766,0,-51,-146,160,1964,151,62,29,604,-180,147,-93,238,195,-155,-124,-59,-46,-60,289,83,71,178,222,257,9,133,78,-7,52
128002,513,750,20,-85,-133,188,1939,111,58,32,621,-157,145,-93,206,22,-170,-101,-68,-59,-88,266,182,80,189,208,239,-89,118,68,10,244
128003,489,773,56,-106,-151,389,1930,135,25,43,709,-185,115,-126,213,-61,-249,-99,-104,-63,-82,249,274,53,145,198,394,-246,78,11,-59,322
128004,466,812,98,-86,-146,492,1933,129,36,65,745,-138,134,-128,208,-94,-252,-58,-89,-64,-91,150,301,38,135,190,313,-353,31,-49,-155,-6
128005,457,802,115,-65,-131,449,1882,166,60,61,627,-137,129,-99,177,-54,-241,-109,-82,-106,-160,187,22,29,118,121,80,-320,5,-68,-233,-363
128006,483,774,72,-119,-125,374,1909,169,43,37,574,-159,122,-117,136,-99,-239,-156,-72,-112,-211,242,-89,24,117,83,-4,-199,25,-50,-220,-265
128007,540,784,2,-101,-105,384,1868,186,74,53,603,-167,147,-115,144,-89,-185,-126,-56,-85,-187,358,-49,59,165,138,81,-188,96,20,-151,-131
128008,534,731,-2,-50,-100,365,1840,184,86,53,603,-182,137,-92,164,72,-221,-160,-58,-64,-175,377,-70,59,181,172,164,-158,141,67,-67,17
128009,497,567,23,-72,-133,335,1806,190,47,22,563,-187,140,-105,161,80,-268,-144,-51,-74,-162,255,-12,92,167,186,197,-280,179,92,-24,165
128010,502,560,108,-39,-131,324,1756,208,51,14,515,-176,151,-100,165,12,-239,-131,-51,-83,-164,92,28,103,179,178,136,-324,162,53,-84,67
128011,440,631,181,-32,-129,319,1723,189,64,17,514,-142,151,-102,165,-20,-246,-147,-66,-83,-189,71,-31,35,160,117,30,-247,56,-31,-235,-400
128012,406,555,174,-103,-138,361,1772,146,8,30,497,-139,128,-112,162,-32,-242,-156,-64,-65,-144,194,0,62,177,142,80,-288,100,20,-167,-350
128013,315,533,157,-146,-132,378,1788,141,17,32,553,-149,107,-90,189,-50,-200,-172,-45,-45,-110,226,-57,42,197,182,156,-15,148,102,-69,-89
128014,273,529,78,-200,-126,314,1765,131,54,24,570,-43,139,-76,202,-89,-198,-107,-42,-23,-102,209,77,71,220,213,201,-121,189,146,-23,30
128015,326,577,-32,-156,-137,262,1659,129,27,27,503,-24,133,-74,183,-98,-271,-107,-23,-25,-94,239,56,102,230,224,270,-234,190,196,89,198
128016,430,622,-43,-154,-158,236,1584,158,26,9,444,-25,136,-99,146,-176,-267,-130,-27,-52,-148,223,15,93,208,218,242,-255,172,182,87,191
128017,385,522,4,-131,-173,209,1617,216,46,-2,444,-13,178,-83,144,-93,-157,-64,-20,-82,-179,200,163,150,203,170,141,-310,174,99,-105,-106
128018,443,527,-40,-126,-176,199,1666,177,48,5,472,-70,159,-89,125,-172,-130,-3,-29,-92,-195,214,211,134,172,119,67,-126,218,12,-278,-385
128019,457,624,-94,-95,-183,220,1701,177,44,0,484,-166,148,-94,157,-479,-152,-29,-30,-75,-136,180,221,87,170,139,77,126,233,64,-162,-342
128020,388,619,-93,-56,-186,220,1698,218,60,-2,492,-137,166,-97,178,-190,-143,-51,-24,-68,-26,225,96,105,194,169,188,7,167,112,-71,-207
128021,375,616,-132,-14,-164,225,1751,300,70,11,510,-73,202,-71,162,197,-66,-65,-22,-72,-102,317,-14,102,198,175,222,-156,182,143,-4,-53
128022,357,525,-162,1,-161,195,1778,396,97,21,510,-65,242,-67,148,16,-64,-4,3,-53,-189,352,119,160,222,170,172,-255,216,187,-9,54
128023,367,586,-95,-24,-148,241,1755,336,109,24,531,-56,262,-60,181,-8,-79,69,39,-41,-116,381,310,224,251,218,267,-160,268,213,24,123
128024,458,722,43,-25,-145,164,1762,257,95,41,561,-22,273,-47,231,117,-26,77,54,-10,-42,353,323,225,247,265,344,108,328,279,146,400
128025,408,758,98,-71,-149,166,1833,261,83,42,589,-17,248,-84,220,200,-37,79,19,-13,-27,325,321,199,229,266,345,133,347,325,199,498
128026,339,637,134,-76,-154,348,1871,264,70,24,642,-33,215,-107,194,204,-102,22,-32,-81,-87,332,212,135,169,157,215,-114,172,93,-89,-140
128027,382,640,215,-20,-147,394,1854,273,113,28,698,29,252,-90,187,73,2,87,-17,-96,-106,372,244,155,148,104,142,-107,86,-77,-307,-642
128028,433,717,213,-28,-156,308,1863,261,112,25,647,24,260,-99,203,45,16,97,-11,-76,-85,340,238,172,171,140,218,47,215,34,-196,-409
128029,446,645,167,-26,-172,317,1845,266,81,33,607,13,227,-106,197,48,-40,67,-38,-88,-80,213,203,139,153,162,299,56,218,91,-130,-273
128030,474,582,196,-54,-151,379,1844,298,71,48,588,57,230,-101,211,16,62,70,-21,-48,-40,313,352,166,186,187,332,-33,221,121,-80,-170
128031,449,554,177,-61,-170,371,1809,260,85,52,574,85,201,-104,208,-170,-3,16,-7,-48,-84,314,185,137,174,181,209,-199,168,102,-71,-164
128032,470,545,174,-99,-170,342,1786,183,74,49,590,29,178,-76,230,-170,-67,-39,-2,-25,-40,263,105,131,184,223,217,-174,187,126,-12,-247
128033,266,473,189,-121,-173,320,1782,196,83,55,601,-37,189,-77,236,-217,-87,-23,8,-26,-68,183,201,163,212,226,220,-157,242,174,2,53
128034,180,489,208,-85,-189,331,1724,242,87,53,582,-17,217,-76,223,-153,-33,0,15,0,-62,227,224,183,231,263,327,-45,307,256,110,443
128035,314,627,158,-139,-176,358,1687,206,81,35,557,-5,214,-79,211,8,-39,-29,-7,-13,-56,224,141,154,219,253,311,23,272,208,85,269
128036,449,728,138,-152,-179,355,1711,239,94,30,535,-16,197,-60,195,33,-130,-45,-9,-39,-102,234,106,139,209,183,99,-80,218,126,-30,-149
128037,522,711,131,-60,-197,240,1698,276,110,15,505,-53,215,-67,193,114,-112,-14,17,-30,-64,262,128,183,256,240,162,-78,283,217,85,2
128038,556,714,128,-27,-192,217,1759,285,102,0,522,-66,218,-56,204,132,-120,-38,7,-3,-32,308,88,164,247,268,226,-57,281,200,82,78
128039,493,681,48,-73,-185,243,1802,274,94,-4,511,-84,218,-69,191,-96,-158,-58,-15,-35,-90,298,45,139,213,201,120,-229,198,74,-86,-225
128040,471,600,2,-109,-205,217,1740,233,77,-7,481,-90,188,-69,156,-159,-144,-90,0,-43,-111,262,-3,101,199,190,93,-150,138,38,-119,-313
128041,461,508,0,-85,-171,372,1768,228,61,39,526,-114,205,-42,197,-46,-149,-46,8,-20,-78,221,50,162,244,231,114,-221,206,105,-44,-192
128042,425,484,-35,-86,-185,439,1785,186,71,40,512,-160,199,-59,196,-32,-200,-4,16,-26,-82,177,88,195,248,233,122,-368,222,143,-2,-92
128043,382,631,-3,-191,-178,351,1820,154,56,30,537,-55,176,-74,177,37,-235,-10,-21,-36,-133,206,129,176,234,182,61,-306,194,89,-66,-238
128044,397,767,82,-171,-167,264,1838,173,63,13,547,84,191,-70,167,84,-221,-11,-42,-57,-146,220,139,106,192,173,60,-246,108,24,-159,-281
128045,478,744,101,-102,-170,364,1783,247,62,10,530,31,208,-90,158,-27,-298,14,-13,-64,-128,202,215,126,185,176,88,-466,81,-10,-184,-212
128046,482,679,106,-83,-170,315,1756,267,47,19,579,-101,231,-73,188,-160,-230,46,6,-50,-75,229,225,158,196,196,155,-451,116,46,-106,-124
128047,418,652,161,-83,-165,278,1786,269,55,28,575,-330,193,-90,187,-114,-273,-43,-26,-44,-70,299,-84,81,194,191,150,-265,77,17,-163,-193
128048,439,638,171,-107,-172,263,1824,245,49,14,556,-414,154,-106,179,-29,-345,-123,-66,-70,-90,335,-195,51,174,178,114,-288,67,-20,-180,-246
128049,452,650,189,-103,-157,267,1847,253,58,8,573,-267,173,-98,178,29,-314,-76,-33,-67,-96,324,24,98,173,196,152,-379,109,22,-118,24
128050,466,772,207,-62,-156,172,1827,214,55,12,562,-80,166,-101,158,37,-302,-109,-55,-79,-122,232,7,76,184,193,123,-211,155,104,-38,65
128051,343,807,234,-12,-151,296,1835,224,80,54,568,-21,187,-92,174,-151,-171,-90,-59,-68,-153,47,133,76,163,141,33,-191,82,9,-177,-353
128052,69,725,183,-19,-166,288,1781,208,74,8,553,-78,187,-111,153,-299,-174,-9,-41,-78,-145,2,445,111,162,157,93,-380,69,-17,-154,-158
128053,245,666,121,8,-175,191,1756,171,79,-3,561,-101,172,-120,156,-168,-289,-75,-62,-89,-85,141,212,82,155,179,187,-391,82,36,-114,7
128054,572,613,128,-45,-171,300,1797,181,73,31,591,-120,120,-109,185,72,-272,-243,-100,-75,-61,199,-283,14,121,131,202,-128,76,-31,-249,-405
128055,708,690,116,-143,-168,301,1765,173,21,31,585,-102,108,-127,159,36,-217,-206,-104,-105,-112,150,-191,10,100,116,119,-150,89,-44,-268,-470
128056,581,773,149,-102,-168,270,1737,157,33,6,559,-100,128,-121,150,-66,-200,-107,-80,-108,-185,131,-12,58,132,100,23,-208,126,-25,-285,-360
128057,505,798,169,-74,-158,288,1784,200,44,24,561,-167,117,-118,138,-14,-225,-142,-93,-112,-185,217,-70,31,131,96,7,-229,66,-66,-291,-331
128058,549,738,94,-88,-158,322,1788,203,28,27,635,-164,114,-116,156,-9,-260,-173,-91,-102,-142,210,-124,-15,126,128,99,-231,-7,-86,-259,-176
128059,598,706,4,-173,-172,375,1789,226,4,21,574,-82,130,-98,176,2,-250,-101,-51,-82,-103,175,-2,40,162,168,159,-374,36,-35,-155,-81
128060,567,688,-50,-96,-147,391,1784,320,67,49,565,-15,167,-92,188,25,-220,-51,-17,-66,-78,138,85,103,183,204,118,-342,69,16,-74,2
128061,480,633,-16,-81,-167,352,1708,322,89,45,532,-19,177,-97,159,-80,-233,-64,-44,-94,-129,165,84,54,139,154,24,-287,55,-45,-186,-149
128062,457,577,55,-79,-186,318,1654,243,56,15,528,-103,165,-117,142,-166,-230,-91,-67,-99,-142,192,28,44,116,90,17,-273,10,-113,-321,-387
128063,489,550,121,-113,-155,344,1646,130,31,41,543,-134,161,-113,162,-116,-195,-82,-33,-76,-92,195,40,81,141,124,98,-255,56,-15,-237,-358
128064,514,521,109,-117,-161,342,1638,115,28,57,512,-159,165,-97,161,-66,-196,-105,-35,-83,-83,213,40,69,154,159,121,-125,112,58,-129,-162
128065,392,418,87,-99,-191,329,1586,126,1,19,469,-167,157,-109,106,-172,-272,-70,-65,-94,-166,202,40,38,134,138,27,-90,124,44,-131,-99
128066,284,520,77,-132,-186,311,1553,145,7,1,436,-117,163,-117,97,-541,-237,-23,-62,-121,-171,127,192,84,125,113,17,-118,169,60,-161,-249
128067,295,693,75,-170,-161,249,1538,153,0,-7,412,-96,162,-102,121,-141,-238,-45,-31,-93,-101,98,170,108,160,144,66,-3,248,100,-152,-357
128068,205,597,34,-168,-188,352,1563,116,-14,1,476,-166,137,-102,130,192,-262,-101,-48,-93,-175,73,-5,72,150,124,27,-38,215,102,-106,-94
128069,159,493,6,-92,-191,321,1565,110,30,8,468,-221,128,-114,135,14,-223,-142,-65,-90,-189,137,-102,40,140,115,51,-242,84,-11,-167,-20
128070,172,498,5,-59,-162,263,1594,146,38,11,478,-186,162,-97,158,-139,-209,-128,-53,-84,-141,210,-69,49,137,118,67,-383,18,-64,-246,-346
128071,274,523,-31,-139,-176,132,1588,130,45,20,460,-160,158,-75,153,-178,-221,-110,-25,-68,-143,260,-20,68,159,133,50,-379,46,-29,-237,-453
128072,250,423,-85,-192,-225,205,1552,75,6,17,439,-218,164,-63,161,-136,-261,-96,-30,-55,-140,120,-48,85,181,160,60,-333,58,19,-160,-279
128073,85,288,-148,-205,-232,182,1497,59,6,28,426,-250,171,-47,191,-234,-249,-59,3,-20,-113,0,-44,113,210,195,51,-323,101,72,-114,-174
128074,21,325,-180,-180,-228,188,1495,55,36,32,455,-268,166,-53,197,-219,-307,-73,11,-1,-60,57,-15,114,240,232,112,-325,120,79,-77,-13
128075,160,371,-178,-102,-211,240,1618,109,39,32,513,-256,160,-68,195,-269,-374,-107,0,-30,-74,41,-47,102,212,209,102,-372,69,0,-104,-25
128076,310,549,-171,-74,-195,255,1669,156,1,31,510,-201,167,-82,191,-187,-427,-122,-10,-39,-63,43,-34,92,190,191,99,-494,38,-49,-160,-215
128077,473,761,-98,-108,-161,417,1787,143,19,52,543,-166,155,-102,186,-175,-417,-113,-44,-46,-102,110,-57,74,181,174,58,-360,22,-69,-300,-564
128078,423,811,-76,-169,-168,402,1847,96,-8,43,568,-160,144,-85,189,-185,-433,-140,-38,-52,-136,157,-107,56,188,157,57,-337,24,-77,-259,-593
128079,180,734,-241,-166,-183,244,1711,60,-5,29,532,-242,105,-94,167,-166,-481,-194,-53,-57,-168,101,-134,21,178,160,47,-443,-6,-60,-235,-444
128080,49,636,-366,-148,-192,219,1654,68,-13,26,557,-392,107,-90,170,-15,-484,-178,-54,-53,-140,72,-35,53,176,158,30,-579,-35,-85,-227,-387
128081,253,630,-310,-165,-177,371,1735,103,10,49,612,-461,100,-78,200,69,-471,-191,-48,-22,-99,70,-55,68,193,213,57,-555,44,-8,-167,-306
128082,401,630,-251,-228,-211,316,1726,75,-29,21,578,-427,57,-111,190,-7,-507,-217,-58,-54,-109,5,-92,36,161,180,52,-622,26,-34,-175,-344
128083,496,592,-116,-244,-170,373,1768,-9,-16,60,575,-255,56,-94,201,-137,-465,-179,-75,-68,-60,36,35,20,154,178,118,-478,-19,-63,-206,-378
128084,490,596,-78,-183,-158,396,1772,16,10,64,574,-306,62,-93,172,-152,-513,-186,-82,-73,-132,81,-103,-4,140,131,53,-456,-56,-133,-303,-440
128085,500,697,-33,-164,-172,388,1747,-1,-8,38,576,-402,20,-108,136,-93,-538,-281,-116,-95,-196,85,-288,-57,96,90,-21,-385,-54,-148,-323,-452
128086,534,872,30,-155,-189,349,1727,-11,-38,19,550,-358,8,-148,118,-129,-537,-303,-150,-129,-192,-4,-255,-64,90,86,-23,-381,-53,-108,-294,-388
128087,537,876,63,-125,-145,403,1795,44,11,19,552,-254,60,-105,160,-95,-443,-200,-104,-86,-131,10,-104,-1,139,126,46,-407,-13,-48,-188,-238
128088,504,684,43,-141,-143,422,1787,50,4,32,584,-261,61,-109,183,59,-382,-194,-97,-58,-58,32,-60,5,136,169,132,-395,5,5,-72,-31
128089,345,658,4,-177,-166,360,1775,32,-34,22,503,-293,60,-122,188,131,-407,-168,-92,-61,-19,44,-4,5,135,200,229,-440,9,48,-23,133
128090,248,777,23,-109,-147,372,1814,62,-1,48,511,-232,102,-107,173,-105,-351,-72,-80,-76,-54,94,169,45,118,169,250,-543,1,12,-120,-41
128091,172,815,36,-11,-138,371,1792,98,4,32,515,-235,100,-135,131,-199,-384,-97,-113,-128,-156,83,63,0,63,63,9,-553,-26,-128,-313,-376
128092,145,838,44,-83,-132,349,1804,131,-18,26,531,-158,89,-144,128,-194,-389,-145,-142,-153,-206,125,36,-55,38,26,-89,-387,-82,-165,-366,-461
128093,271,812,30,-106,-133,336,1816,137,0,35,576,-176,63,-145,103,-219,-378,-171,-156,-173,-238,128,53,-80,4,-2,-91,-442,-112,-178,-390,-466
128094,435,742,12,-57,-130,286,1797,162,6,39,536,-269,33,-156,92,-170,-384,-207,-177,-185,-253,114,-140,-131,-18,-5,-104,-278,-127,-198,-415,-494
128095,523,570,-5,-85,-137,461,1747,200,3,45,534,-315,29,-174,83,-146,-347,-241,-178,-209,-268,34,-168,-126,-33,-4,-128,-274,-118,-179,-388,-463
128096,489,626,-115,-76,-130,509,1734,214,0,45,584,-244,57,-189,93,-41,-305,-206,-177,-214,-225,19,-71,-120,-22,-8,-107,-325,-103,-151,-359,-377
128097,457,758,-88,-97,-112,415,1709,202,18,40,602,-198,81,-164,110,-114,-317,-206,-188,-206,-197,149,-187,-118,4,21,-38,-301,-90,-129,-320,-276
128098,486,803,3,-68,-103,395,1720,147,39,57,633,-209,92,-155,153,-312,-358,-226,-172,-172,-131,211,-181,-105,24,83,27,-395,-70,-96,-258,-86
128099,485,767,94,-137,-116,324,1750,166,12,68,570,-163,87,-165,156,-274,-358,-219,-172,-153,-82,222,-148,-98,50,142,177,-350,-23,-44,-132,219
128100,451,781,124,-80,-102,276,1831,250,8,50,617,-73,116,-161,178,-47,-303,-206,-127,-137,-58,269,-77,-59,104,196,276,-310,12,25,-48,187
128101,541,759,199,-88,-93,367,1925,268,39,50,610,-23,148,-115,181,76,-256,-178,-96,-114,-50,357,-21,-25,110,173,197,-251,34,27,-149,-78
128102,656,643,197,-87,-131,387,1890,309,34,54,575,23,146,-141,173,-277,-216,-139,-84,-129,-76,331,114,4,104,116,135,-298,31,18,-168,-139
128103,709,611,54,-95,-139,389,1822,335,12,56,545,-24,153,-120,204,-478,-347,-129,-56,-69,47,287,45,38,162,224,257,-386,97,136,18,187
128104,621,723,32,-65,-124,361,1784,326,19,75,595,-135,180,-83,238,92,-354,-88,-33,-45,94,355,60,61,174,257,295,-462,91,125,-3,146
128105,474,743,32,-45,-148,325,1749,215,25,45,613,-133,169,-113,189,141,-327,-64,-38,-84,-109,350,153,81,137,167,185,-601,43,-32,-185,-196
128106,340,462,89,-38,-155,391,1736,106,13,24,563,-261,135,-110,175,4,-253,-140,-79,-105,-127,359,-141,-8,112,121,173,-314,10,-138,-351,-582
128107,294,401,162,-61,-137,404,1778,117,21,65,609,-273,144,-92,211,26,-277,-140,-47,-64,-57,316,-161,26,141,156,215,-372,18,-134,-340,-718
128108,392,609,206,-94,-167,307,1791,127,15,59,612,-109,151,-94,224,68,-330,-126,-35,-36,-9,110,-60,54,165,215,229,-378,49,-39,-227,-501
128109,497,759,184,-47,-177,305,1761,216,40,43,589,-44,193,-67,225,109,-253,-123,1,-12,-4,87,-4,103,229,268,151,-272,139,69,-102,-245
128110,528,776,135,-75,-202,298,1791,217,61,36,635,-47,214,-32,258,133,-238,-108,44,40,47,182,42,136,273,339,187,-138,219,144,9,-96
128111,479,772,120,-94,-188,235,1856,216,63,49,664,-4,223,-29,295,136,-209,-82,80,84,88,288,38,150,314,379,243,-43,240,205,65,-37
128112,426,740,79,-100,-176,222,1821,190,49,29,603,26,208,-40,299,146,-224,-58,72,83,61,304,51,167,315,391,225,-207,222,217,101,-98
128113,307,712,-24,-127,-186,267,1814,201,48,48,607,38,208,-53,286,162,-262,-29,77,73,69,295,145,166,297,401,263,-275,183,183,113,-26
128114,196,675,-85,-188,-185,278,1770,190,30,43,648,-68,202,-50,274,185,-208,-11,41,53,52,279,191,161,289,353,246,-248,144,116,10,-10
128115,219,604,-87,-208,-172,315,1759,138,29,46,631,-268,171,-81,248,170,-209,-79,27,31,29,197,80,138,260,316,182,-188,114,55,-68,-18
128116,298,629,-87,-156,-185,354,1824,100,42,39,638,-289,142,-94,245,133,-257,-162,0,5,29,61,-89,99,236,307,218,-207,104,37,-60,-17
128117,397,623,-31,-187,-175,344,1837,105,20,33,575,-182,127,-99,237,22,-235,-187,-24,-12,17,111,-90,74,203,285,189,-292,67,0,-152,-292
128118,356,465,-25,-190,-184,303,1761,117,-9,26,576,-115,129,-113,220,-31,-203,-143,-42,-46,-58,147,54,67,162,186,-24,-266,63,-55,-289,-702
128119,344,454,-33,-202,-202,348,1733,109,-6,38,605,-58,161,-104,199,89,-155,-27,-28,-62,-64,165,376,146,182,193,20,-234,199,72,-127,-422
128120,311,573,20,-182,-200,380,1805,161,16,50,625,-55,174,-85,228,130,-209,-6,-13,-7,-26,183,333,147,222,244,167,-97,234,163,-29,-201
128121,352,653,55,-168,-203,388,1815,178,-9,58,617,-134,135,-84,202,8,-295,-107,-45,-25,-63,193,38,28,177,203,161,-172,33,-22,-144,-202
128122,367,574,-13,-131,-213,402,1746,184,-24,56,654,-187,111,-98,222,-210,-315,-179,-81,-63,-69,109,-154,-13,135,168,28,-467,-74,-105,-201,-155
128123,381,562,-70,-147,-194,436,1794,155,-3,59,613,-160,116,-83,220,-476,-264,-176,-81,-61,-88,139,-134,-10,135,156,-16,-550,-92,-57,-155,-184
128124,466,685,-55,-193,-153,418,1918,131,9,81,642,-131,140,-75,216,-345,-192,-168,-57,-35,-105,258,-42,37,155,170,35,-468,-29,-20,-155,-161
128125,486,832,7,-148,-144,267,1987,116,-4,49,658,-130,146,-89,222,-75,-208,-137,-59,-65,-82,266,67,77,143,144,62,-474,51,-60,-226,-206
128126,503,864,51,-132,-176,307,1985,153,-16,34,672,-100,138,-117,223,126,-196,-135,-72,-84,-80,224,137,54,126,134,53,-406,10,-104,-279,-354
128127,445,736,70,-69,-157,336,1884,273,23,45,674,-49,179,-101,242,166,-80,-99,-76,-52,-8,289,182,8,146,193,166,28,66,-2,-169,-242
128128,458,666,10,-52,-159,304,1877,361,37,38,677,-113,186,-89,256,195,-149,-78,-53,-28,42,352,60,56,177,248,280,49,161,108,-5,183
128129,525,822,62,-15,-169,313,1944,391,25,27,677,-156,185,-84,253,258,-170,-98,-42,-30,13,347,44,76,188,227,273,-6,216,166,26,268
128130,579,922,197,15,-139,342,1977,414,53,45,688,-77,216,-78,260,189,-98,-64,-47,-38,-26,310,212,72,142,184,171,-144,182,81,-88,-83
128131,623,956,264,26,-154,381,1941,360,63,55,714,-25,213,-82,267,201,-71,-21,-60,-49,-17,254,241,40,131,153,144,-57,167,39,-217,-493
128132,580,924,311,9,-139,345,1892,331,76,59,715,-10,216,-80,280,268,-18,3,-57,-41,14,324,243,61,141,188,272,-71,168,86,-114,-308
128133,416,875,359,-42,-133,324,1923,308,57,46,706,-7,178,-107,265,249,-90,-51,-91,-71,7,401,100,33,130,180,289,-201,111,44,-72,-117
128134,284,799,377,-39,-140,342,1972,295,60,51,681,-41,173,-121,234,156,-119,-75,-97,-85,-31,406,79,36,106,149,208,-309,106,47,-77,-109
128135,343,793,260,-33,-138,315,1994,260,49,25,653,-39,181,-125,205,45,-132,-53,-102,-119,-84,442,107,11,87,117,141,-226,114,33,-111,-51
128136,452,791,170,-61,-147,377,1968,211,45,15,661,26,167,-124,198,-180,-148,-16,-109,-141,-89,413,271,1,65,98,121,-219,105,51,-85,5
128137,581,796,142,-55,-142,417,1936,269,63,47,618,58,213,-106,218,-439,-198,8,-91,-138,-51,333,296,7,69,105,121,-314,94,39,-91,57
128138,473,640,141,-37,-145,346,1868,266,51,49,590,27,179,-128,179,49,-225,-103,-113,-166,-103,348,81,-28,40,53,74,-304,45,-41,-182,-36
128139,460,627,149,-55,-159,412,1827,205,32,23,650,-104,112,-154,152,244,-247,-255,-164,-181,-216,344,-192,-122,2,14,79,-174,29,-45,-160,11
128140,581,698,115,-47,-172,407,1824,204,21,32,603,-162,109,-141,164,42,-246,-247,-149,-164,-157,259,-149,-120,0,1,67,-195,24,-64,-227,-138
128141,608,785,121,-121,-165,402,1826,176,13,54,598,-95,122,-113,188,8,-206,-158,-120,-152,-116,224,11,-66,37,43,103,-251,49,-63,-218,-241
128142,572,801,110,-144,-199,350,1797,144,-4,26,627,-85,105,-112,178,49,-274,-170,-150,-155,-149,300,-4,-89,50,61,183,-321,34,-39,-144,-35
128143,566,718,105,-170,-192,322,1798,140,-19,27,637,-73,97,-123,201,80,-375,-191,-117,-144,-120,354,-67,-71,76,110,220,-433,26,-18,-110,130
128144,551,613,115,-159,-192,328,1761,179,2,32,591,-66,108,-109,204,139,-357,-180,-101,-106,-104,348,-102,-29,104,126,233,-574,24,-92,-188,-89
128145,477,567,98,-165,-192,384,1731,142,-32,50,584,-97,75,-125,190,159,-341,-235,-144,-104,-101,311,-212,-124,73,110,222,-313,-43,-159,-292,-537
