,Fp1,Fp2,F7,F3,Fz,F4,F8,FC5,FC1,FC2,FC6,T7,C3,Cz,C4,T8,TP9,CP5,CP1,CP2,CP6,TP10,P7,P3,Pz,P4,P8,PO9,O1,Oz,O2,PO10
55008,81,612,435,244,402,707,515,317,-9,-145,317,306,460,-11,448,-57,832,138,-11,816,177,-992,359,-40,224,335,277,265,-181,-143,135,234
55009,85,635,404,293,435,726,549,344,-18,-136,314,509,472,0,475,14,844,182,-24,831,180,-1085,420,22,223,335,288,340,-190,-213,70,142
55010,94,652,413,320,469,776,534,329,10,-108,335,516,458,-1,496,62,810,187,-37,845,212,-1063,403,11,244,366,345,272,-160,-171,165,188
55011,51,593,396,305,441,776,531,349,-12,-128,332,466,459,-24,457,44,718,181,-48,819,200,-965,391,-28,227,341,345,183,-214,-183,160,242
55012,23,589,308,294,441,797,574,419,-5,-135,313,448,501,-6,449,4,714,209,-27,826,222,-946,457,-6,221,337,340,235,-207,-173,156,322
55013,-80,518,221,283,434,850,513,448,6,-122,267,446,503,-1,455,-22,741,178,-27,814,223,-1022,456,-6,208,341,336,280,-185,-148,172,329
55014,-157,412,249,282,430,910,451,439,-9,-140,218,385,466,-25,463,-113,693,146,-55,791,207,-1168,341,-54,185,326,369,125,-199,-130,154,311
55015,-65,491,339,335,470,941,463,407,9,-118,225,414,469,-31,481,-108,699,181,-41,799,251,-1150,444,-22,214,359,446,187,-178,-121,176,279
55016,34,495,400,305,476,998,500,409,22,-96,295,493,494,-26,505,-133,713,215,-11,838,272,-1112,521,23,241,394,496,180,-167,-79,268,385
55017,34,455,391,239,463,974,460,346,-9,-100,344,460,471,-30,504,-45,707,199,-35,827,289,-1047,554,24,231,430,547,79,-206,-36,392,683
55018,50,486,345,190,439,867,447,312,-21,-139,294,439,469,-45,473,-6,733,184,-31,799,221,-942,615,27,233,421,470,163,-143,17,428,809
55019,54,503,380,267,443,840,469,337,-15,-138,283,443,481,-49,452,-65,760,268,-43,765,107,-940,524,33,190,298,237,232,-150,-126,122,258
55020,91,560,357,311,491,781,484,395,0,-146,327,439,491,-50,438,9,746,246,-48,739,63,-937,345,-3,169,250,81,91,-248,-238,-63,81
55021,84,536,269,277,463,730,505,456,1,-161,234,420,497,-51,413,242,656,149,-32,764,96,-943,291,20,216,322,209,259,-133,-63,239,539
55022,33,538,255,264,459,705,495,473,7,-136,238,466,507,-32,400,349,531,178,-40,809,173,-1029,334,28,210,364,362,317,-85,-55,282,470
55023,72,580,244,217,445,724,510,416,15,-137,266,455,511,-20,440,334,555,213,-59,822,197,-1113,320,40,216,404,414,295,-67,-48,281,328
55024,86,623,408,208,444,749,502,417,19,-125,257,486,532,-2,457,300,604,269,-36,799,180,-1049,444,45,218,357,316,422,-110,-185,61,109
55025,52,600,505,172,441,755,505,316,0,-120,281,606,530,-20,491,96,690,329,-12,779,193,-1031,554,50,219,342,304,442,-83,-169,74,199
55026,69,589,462,173,453,725,568,209,-2,-113,336,835,484,-18,519,25,837,347,-10,807,222,-1020,525,78,238,379,280,228,-97,-122,177,339
55027,83,631,437,218,472,649,569,295,-3,-125,296,647,504,-25,498,25,897,110,-48,796,193,-1005,431,21,212,371,215,51,-238,-204,135,337
55028,132,623,482,262,454,691,480,408,-20,-158,254,497,498,-47,469,-37,835,91,-61,800,183,-1020,333,4,187,328,198,102,-230,-175,117,299
55029,188,565,532,240,484,836,528,443,-15,-96,365,545,461,-31,517,-37,872,136,-49,821,186,-976,369,33,190,345,189,129,-220,-164,159,342
55030,154,403,528,216,503,809,576,433,-35,-103,382,570,393,-54,507,-50,842,142,-77,797,173,-978,403,30,212,357,211,199,-181,-112,186,397
55031,201,401,512,229,487,775,592,392,-31,-111,362,432,428,-62,481,-50,804,170,-59,781,159,-954,420,56,222,382,281,342,-76,-18,294,539
55032,142,529,462,239,507,740,606,365,-21,-119,374,306,460,-32,474,-58,768,205,-47,780,192,-921,481,67,226,416,372,403,-30,53,415,723
55033,111,628,485,305,514,768,608,428,10,-108,359,329,494,-29,498,29,770,244,-33,791,226,-1025,529,73,231,386,320,345,-97,-54,251,421
55034,129,678,510,305,468,748,591,400,-42,-129,330,395,460,-72,483,40,757,199,-89,758,174,-1229,435,14,134,316,217,164,-234,-202,35,13
55035,147,722,481,249,467,735,566,372,-26,-113,350,399,445,-67,487,106,696,181,-84,787,238,-1235,452,18,155,354,309,148,-293,-209,72,109
55036,110,703,443,215,459,752,541,364,-21,-112,358,342,439,-43,537,101,498,176,-55,841,319,-1063,505,24,196,438,458,69,-251,-123,209,246
55037,34,648,391,215,470,772,528,386,-35,-128,313,291,437,-62,544,88,557,179,-64,819,318,-1052,399,0,182,417,391,97,-248,-107,204,269
55038,-25,608,408,216,462,766,525,356,-40,-130,308,379,406,-80,498,9,703,145,-98,776,201,-1073,356,-16,120,295,173,204,-308,-280,-66,57
55039,-106,629,370,236,463,808,566,395,-17,-120,331,416,403,-69,481,-10,690,158,-90,770,194,-1059,438,-19,134,331,174,120,-304,-236,56,239
55040,-76,639,355,280,453,868,563,394,-14,-120,229,446,438,-61,449,-20,632,202,-87,761,182,-1013,536,-38,129,310,213,-72,-381,-263,22,307
55041,-20,645,327,290,462,829,570,391,-20,-142,248,479,463,-70,476,-13,656,203,-93,766,142,-988,539,5,153,291,242,-22,-345,-247,13,232
55042,72,633,278,227,459,896,598,350,7,-110,351,506,478,-32,534,26,739,223,-46,807,155,-987,443,24,161,273,259,255,-235,-230,-11,186
55043,74,575,341,220,468,938,569,389,5,-107,326,431,497,-25,530,-166,850,282,-21,829,149,-1031,420,62,193,320,222,538,-107,-104,84,332
55044,6,476,370,217,458,875,542,379,-18,-124,283,366,463,-38,482,-318,739,215,-44,800,151,-1025,393,31,195,322,234,469,-85,-83,181,490
55045,16,426,410,238,464,786,562,409,-8,-120,229,325,455,-47,479,-184,740,142,-59,815,204,-941,332,-3,200,368,330,331,-119,-72,178,406
55046,24,450,452,187,468,787,579,388,-26,-118,253,281,446,-40,475,-139,807,139,-81,803,201,-887,269,-36,183,360,366,206,-198,-130,116,248
55047,-15,459,501,174,484,794,529,346,-47,-126,286,280,385,-65,486,-47,700,82,-131,784,223,-908,203,-120,145,337,388,-20,-354,-245,106,331
55048,13,489,546,221,503,876,523,360,-39,-106,331,349,365,-73,482,51,566,114,-129,772,214,-1028,165,-134,100,309,367,-157,-420,-340,-68,-18
55049,20,603,521,252,515,872,562,300,-44,-119,344,510,378,-64,490,159,623,249,-101,797,218,-1032,172,-100,108,328,366,-86,-413,-315,-35,79
55050,-34,574,453,244,478,822,603,319,-45,-121,323,459,379,-82,472,103,687,95,-124,773,192,-1022,310,-85,102,329,315,66,-326,-247,63,215
55051,-4,579,381,218,477,766,593,343,-29,-119,327,410,413,-86,454,48,741,62,-105,767,197,-973,373,-38,140,349,280,230,-200,-150,117,303
55052,52,610,373,214,487,748,603,324,-17,-119,318,395,431,-61,488,114,926,114,-73,802,175,-952,436,3,169,393,352,499,-87,-50,257,560
55053,95,599,479,195,503,745,625,324,-25,-128,310,363,408,-52,478,38,826,79,-69,767,141,-1035,334,-42,145,338,249,219,-180,-119,207,498
55054,66,611,484,165,493,782,591,300,-31,-112,304,325,395,-45,468,39,816,72,-76,760,190,-1018,337,-76,148,352,227,167,-213,-163,109,246
55055,-7,619,472,201,477,768,579,317,-41,-122,366,366,373,-36,470,60,749,71,-111,759,218,-958,308,-81,137,384,306,88,-278,-231,61,189
55056,0,603,398,182,477,808,481,334,-34,-133,333,387,394,-47,470,34,576,90,-104,735,178,-882,266,-82,141,373,338,-12,-311,-215,134,381
55057,-20,597,427,182,468,797,377,291,-30,-131,267,426,433,-73,454,45,734,152,-89,747,114,-849,429,-50,115,312,240,145,-248,-173,129,379
55058,-20,601,494,186,474,761,480,335,-37,-162,236,376,459,-86,449,33,897,214,-111,699,68,-1008,494,-59,81,241,52,229,-256,-265,-29,218
55059,70,649,480,163,487,783,560,354,-30,-137,289,250,486,-77,487,10,702,230,-111,727,101,-967,446,-65,95,270,126,220,-239,-241,2,273
55060,98,627,489,218,494,842,576,316,-31,-134,285,342,473,-83,481,23,716,236,-97,749,153,-866,447,-28,127,313,266,313,-186,-136,92,329
55061,106,569,411,190,497,803,572,298,-44,-149,202,535,435,-91,457,33,827,194,-103,754,168,-883,499,-43,133,305,243,285,-145,-85,138,328
55062,127,587,380,206,497,779,605,346,-3,-138,265,580,479,-59,484,87,784,210,-74,769,184,-905,577,-23,156,323,347,249,-123,-71,169,419
55063,46,578,443,238,510,810,606,401,6,-124,328,508,490,-57,475,71,811,183,-81,784,218,-955,547,-53,135,313,397,98,-206,-192,77,456
55064,-50,546,455,207,500,749,595,425,-7,-142,319,455,460,-79,460,56,708,131,-112,761,226,-963,483,-50,140,335,431,-39,-254,-196,109,430
55065,-58,588,509,254,512,750,621,420,2,-155,329,482,473,-71,472,34,506,170,-104,762,173,-844,416,-22,150,327,352,-34,-230,-189,109,296
55066,-33,671,510,264,515,812,623,395,-10,-143,314,470,509,-35,466,-4,796,233,-74,771,125,-849,538,12,153,286,218,146,-147,-170,73,242
55067,-29,690,494,240,507,766,570,312,-19,-168,214,435,513,-62,431,132,843,236,-84,754,165,-959,509,12,168,304,240,334,-81,-65,199,436
55068,-100,654,461,213,507,790,538,338,-16,-159,191,443,499,-75,407,234,820,174,-78,773,159,-849,474,-47,151,307,251,342,-98,-68,118,319
55069,-132,634,423,239,504,830,610,372,-33,-141,242,438,435,-68,446,216,780,78,-136,742,168,-968,344,-152,75,260,203,21,-279,-241,4,103
55070,-67,551,436,260,508,795,587,365,-39,-137,239,429,364,-68,443,196,727,91,-158,737,199,-929,254,-163,69,274,336,53,-283,-232,122,280
55071,-2,518,407,216,487,774,557,327,-48,-151,267,417,407,-70,475,-118,661,82,-156,751,203,-804,245,-127,84,300,430,144,-243,-168,167,455
55072,50,552,441,225,478,791,540,374,-36,-147,297,468,414,-70,478,-426,618,82,-172,746,188,-788,254,-141,67,273,379,104,-297,-222,87,289
55073,62,590,523,269,503,829,556,337,-21,-133,319,478,420,-55,470,-395,646,111,-187,763,138,-845,226,-170,50,244,267,-3,-391,-310,17,228
55074,-6,528,549,221,472,734,492,285,-44,-154,318,441,412,-76,468,-358,506,115,-178,776,136,-867,253,-149,73,292,280,25,-332,-217,146,418
55075,-46,521,544,217,463,720,493,305,-38,-148,336,465,399,-79,481,-205,678,119,-161,749,153,-928,301,-154,63,323,313,28,-363,-275,116,415
55076,-41,599,535,245,490,695,569,376,-21,-145,376,453,435,-54,509,-18,775,126,-138,767,227,-934,330,-103,95,370,498,102,-298,-195,165,532
55077,9,617,503,250,480,718,575,439,-12,-148,354,483,461,-54,506,75,718,185,-145,754,256,-934,400,-76,105,346,555,206,-242,-207,57,292
55078,27,535,431,278,480,763,490,396,-26,-163,352,554,424,-85,458,95,770,181,-151,699,151,-939,426,-90,54,274,376,210,-295,-322,-163,-154
55079,-4,541,448,246,510,836,445,342,-21,-135,326,719,413,-65,452,90,812,183,-117,728,177,-983,389,-85,103,300,290,171,-256,-258,-33,89
55080,-34,552,465,209,513,830,499,331,-16,-135,320,783,421,-55,478,88,696,203,-109,751,196,-1043,347,-82,100,302,251,182,-222,-165,109,377
55081,33,585,510,174,493,784,511,366,-17,-183,292,584,456,-90,439,3,776,241,-116,718,129,-912,379,-63,71,241,160,234,-206,-138,164,507
55082,58,638,493,168,489,751,547,367,-7,-169,328,480,498,-45,454,-55,783,341,-91,735,111,-923,521,6,110,253,120,436,-143,-82,203,484
55083,47,651,482,146,502,695,583,355,-10,-160,296,432,496,-30,463,-60,707,212,-73,781,149,-888,676,66,172,329,298,492,-16,30,301,578
55084,-12,599,481,207,488,724,581,348,-14,-162,287,385,493,-52,438,-91,703,245,-95,778,172,-897,552,43,164,334,350,310,-86,-60,139,428
55085,-94,531,473,284,495,760,554,373,-1,-169,316,386,506,-54,437,-71,679,244,-117,735,134,-983,361,-4,110,285,234,150,-154,-188,-44,53
55086,-95,564,454,293,501,725,538,405,0,-179,288,476,477,-43,452,-82,720,211,-122,732,91,-931,330,-11,110,252,158,195,-158,-177,-2,31
55087,3,587,405,250,515,734,479,402,-22,-161,249,557,444,-66,449,-98,779,193,-140,711,100,-800,337,-49,95,231,185,84,-241,-205,79,269
55088,56,561,455,205,503,774,521,413,-30,-179,244,490,444,-77,415,-108,759,177,-135,712,95,-801,351,-76,78,248,252,-90,-308,-228,110,368
55089,69,577,560,190,537,861,547,407,1,-152,205,499,472,-55,454,-79,793,201,-123,735,142,-741,431,-28,109,293,261,70,-233,-209,91,338
55090,66,584,608,233,559,889,574,394,-1,-136,225,616,477,-50,451,-103,789,205,-124,733,97,-739,434,-20,98,273,145,197,-225,-269,-64,104
55091,49,512,583,245,536,915,577,375,-6,-149,262,587,471,-78,448,-167,720,206,-122,719,74,-802,354,-13,91,289,132,228,-170,-152,29,172
55092,53,500,565,288,551,909,595,395,-10,-120,268,537,477,-88,445,-122,710,265,-123,700,87,-868,368,-17,73,242,127,320,-153,-167,20,208
55093,12,513,608,319,540,861,621,398,3,-111,295,507,471,-50,469,-45,756,223,-128,743,142,-844,375,-13,102,291,243,212,-202,-206,61,246
55094,-145,487,541,274,514,835,611,368,-18,-137,308,457,433,-56,485,-40,688,139,-178,747,188,-831,310,-54,77,306,424,-5,-337,-257,67,387
55095,-199,562,470,270,509,795,643,343,-14,-140,311,535,439,-83,482,-57,524,150,-190,760,223,-821,262,-72,68,335,601,-248,-389,-255,86,470
55096,-179,576,443,331,495,778,605,338,-16,-144,276,647,461,-92,463,-69,619,173,-166,733,184,-880,466,-32,56,312,449,-148,-294,-208,130,408
55097,-146,528,463,281,490,807,574,342,-42,-166,236,616,430,-130,441,-161,698,129,-203,691,110,-992,473,-53,21,211,186,34,-269,-278,-27,75
55098,-118,531,498,257,492,783,554,344,-56,-168,241,514,422,-114,485,-278,649,138,-196,729,158,-943,368,-72,64,305,319,189,-197,-170,160,429
55099,-13,615,436,229,512,750,600,306,-17,-155,216,489,428,-90,498,-111,640,163,-125,770,225,-889,393,-38,128,388,412,190,-170,-65,302,682
55100,56,625,453,193,524,753,630,316,-39,-141,229,438,460,-87,482,-19,783,171,-140,731,183,-1053,379,-28,89,305,171,241,-228,-232,-31,60
55101,64,585,511,183,502,766,633,276,-33,-155,273,397,512,-107,489,-117,812,166,-136,710,156,-981,332,-53,66,254,87,78,-279,-309,-127,-54
55102,83,572,566,197,502,783,647,294,-14,-133,329,403,522,-71,516,-104,686,203,-101,772,231,-863,324,-34,123,330,239,73,-227,-173,60,312
55103,12,583,540,213,508,772,624,343,-39,-109,338,451,474,-43,513,-44,616,209,-119,817,197,-724,340,-37,156,350,263,141,-168,-99,191,469
55104,-33,597,450,230,502,745,614,391,-38,-142,333,504,460,-49,460,-130,654,318,-112,798,152,-774,314,-54,114,328,184,157,-181,-177,90,248
55105,35,605,449,233,498,802,575,385,-18,-142,305,579,464,-66,447,-227,735,277,-92,787,116,-821,367,-14,108,296,171,238,-206,-228,-26,109
55106,107,644,508,268,509,740,563,378,-15,-126,271,607,469,-40,473,-73,844,160,-107,812,182,-833,546,36,165,337,257,408,-129,-123,113,327
55107,92,600,552,263,503,736,553,358,-11,-132,212,626,471,-38,471,-47,647,238,-86,791,169,-884,611,30,177,322,225,454,-91,-57,125,271
55108,-48,539,498,219,482,706,498,289,-41,-139,161,549,429,-42,432,-106,512,196,-100,755,138,-922,445,-46,141,306,238,189,-160,-131,30,274
55109,-133,547,444,232,479,722,508,267,-21,-146,156,465,432,-41,446,-26,671,134,-104,782,156,-800,302,-83,145,332,353,-143,-290,-191,48,400
55110,-58,514,433,199,496,742,507,288,-33,-147,140,481,438,-29,456,36,642,116,-126,774,167,-753,271,-101,125,353,388,-277,-447,-299,7,308
55111,-34,485,402,175,473,733,485,303,-39,-145,141,484,435,-37,411,-11,595,124,-134,745,109,-868,280,-91,102,292,215,-225,-457,-424,-221,-69
55112,-17,511,403,174,469,809,529,295,-41,-137,170,453,441,-39,425,-33,630,124,-136,748,99,-869,252,-69,101,293,160,-181,-401,-354,-148,-91
55113,-43,582,464,190,505,853,575,271,-47,-111,211,436,459,-48,449,-40,677,115,-147,730,141,-803,223,-84,86,299,243,-176,-373,-320,-66,50
55114,-35,545,430,211,520,771,596,292,-34,-152,134,434,453,-77,385,119,661,133,-144,705,104,-819,183,-104,73,276,228,-43,-337,-285,-4,188
55115,-11,599,425,226,547,729,589,333,-40,-148,105,429,460,-77,378,159,734,113,-139,718,85,-825,256,-77,73,268,255,81,-314,-264,2,203
55116,-12,607,467,261,551,758,570,320,-13,-134,197,455,466,-68,442,124,689,86,-170,736,116,-935,311,-51,79,287,284,62,-324,-286,-55,127
55117,-98,588,486,249,507,795,590,324,-35,-146,196,486,441,-87,421,86,592,95,-194,711,124,-931,276,-60,62,272,236,14,-319,-274,-31,112
55118,-122,579,498,246,515,790,575,353,-42,-151,192,464,471,-98,421,-113,645,142,-181,704,92,-834,289,-67,70,265,155,32,-252,-241,17,204
55119,-69,567,510,251,516,786,544,379,-17,-138,236,375,508,-63,441,-267,724,191,-146,716,74,-858,359,-13,96,299,143,215,-183,-170,75,322
55120,-20,576,487,207,514,786,581,343,-18,-148,247,324,492,-71,475,-206,688,187,-169,728,105,-936,402,-10,79,303,177,218,-208,-199,64,242
55121,42,592,458,172,496,747,573,308,-43,-176,174,324,470,-101,457,-108,648,173,-168,716,149,-935,344,-39,75,331,245,107,-278,-262,32,199
55122,69,668,463,147,504,706,579,326,-35,-158,181,322,459,-90,455,-120,620,174,-170,715,151,-810,312,-39,78,325,230,117,-272,-213,80,301
55123,47,682,497,176,509,746,624,372,-45,-153,281,362,443,-88,492,-169,490,134,-186,710,146,-713,273,-76,83,317,270,14,-318,-217,102,368
55124,2,612,529,265,527,745,596,426,-6,-161,277,455,465,-83,464,-154,402,157,-153,711,109,-668,308,-70,69,303,292,-4,-347,-286,21,365
55125,-78,544,462,233,535,703,507,356,-42,-175,224,645,425,-86,419,-159,637,174,-140,711,104,-683,429,-16,85,298,319,85,-268,-219,78,386
55126,-100,453,462,217,520,715,447,306,-45,-169,198,753,392,-70,414,-225,839,146,-156,726,114,-722,524,-43,95,329,321,221,-220,-145,168,449
55127,-50,381,446,263,524,818,520,346,-33,-137,225,612,429,-65,445,-288,788,98,-181,743,112,-762,412,-79,96,344,246,129,-251,-122,173,532
55128,15,367,342,228,523,786,556,352,-29,-157,163,511,461,-81,427,-354,755,223,-163,720,108,-903,476,-41,102,322,169,402,-229,-187,30,328
55129,-39,297,204,221,482,823,557,292,-33,-164,135,514,443,-84,418,-291,777,257,-163,716,104,-904,586,-49,93,311,139,563,-192,-225,-19,170
55130,-98,304,177,223,477,784,561,273,-48,-158,117,408,446,-78,442,-140,715,181,-183,760,151,-818,464,-92,111,364,188,132,-179,-137,169,267
55131,-51,447,304,189,477,759,561,268,-46,-151,112,313,425,-58,487,-84,728,117,-174,780,188,-795,280,-94,130,409,288,-68,-265,-111,287,480
55132,-15,510,354,148,488,763,527,275,-22,-133,138,302,451,-15,471,-18,805,106,-133,806,190,-722,214,-42,181,448,389,-20,-215,2,430,658
55133,28,475,413,119,484,712,551,283,-30,-129,173,320,454,-13,476,-83,848,92,-105,794,183,-730,211,-33,170,456,427,149,-207,-9,348,632
55134,22,502,481,183,507,716,534,306,-39,-148,170,405,446,-46,426,-162,754,75,-161,739,82,-865,209,-136,76,298,216,78,-459,-481,-378,-206
55135,-64,506,423,203,502,717,508,306,-44,-158,138,442,465,-40,419,-155,509,217,-171,716,61,-945,154,-160,55,285,188,-110,-475,-478,-345,-180
55136,-76,559,359,242,517,713,499,315,-41,-151,141,402,457,-47,450,-114,633,101,-159,727,71,-995,218,-138,66,297,156,-128,-423,-390,-176,-9
55137,-163,586,308,256,527,673,519,295,-43,-151,150,381,428,-44,464,-116,679,-3,-144,732,96,-938,257,-135,61,308,161,-161,-452,-376,-140,77
55138,-194,611,274,261,526,703,475,299,-20,-171,117,325,446,-61,439,-211,541,67,-166,704,72,-1008,144,-179,28,305,185,-187,-461,-373,-94,206
55139,-115,594,409,234,531,847,440,364,-22,-136,167,358,472,-56,431,-299,525,82,-191,715,47,-1043,136,-190,30,273,122,-146,-445,-363,-107,227
55140,-70,544,462,161,510,861,485,308,-42,-155,182,386,449,-74,427,-433,682,41,-199,692,28,-1062,223,-175,17,241,114,-9,-422,-386,-210,-146
55141,-54,521,477,126,476,790,476,270,-56,-181,120,339,453,-69,426,-457,565,23,-206,682,33,-973,210,-209,18,260,201,-49,-421,-384,-208,-148
55142,-24,545,411,126,458,757,518,268,-59,-157,158,337,451,-35,452,-280,503,9,-205,728,105,-891,219,-189,42,314,292,-156,-444,-352,-117,33
55143,-20,620,350,131,476,724,533,266,-41,-145,200,327,453,-29,454,-138,568,8,-185,751,134,-897,202,-187,61,360,297,-177,-428,-334,-53,80
55144,-1,559,376,114,464,705,524,266,-40,-159,137,362,461,-65,435,-44,665,53,-156,750,120,-962,216,-149,77,307,167,59,-329,-239,-25,117
55145,17,538,417,128,479,734,552,311,-37,-145,141,430,468,-46,443,-111,792,96,-131,727,83,-874,285,-133,70,257,-14,111,-354,-274,-68,102
55146,-8,567,429,171,485,726,543,297,-25,-145,147,378,471,-43,448,-154,737,80,-136,709,63,-844,257,-165,54,256,-32,12,-445,-350,-122,92
55147,-46,561,362,164,467,709,494,327,-50,-172,116,282,460,-48,419,-201,594,67,-171,693,52,-753,180,-164,47,269,37,-24,-458,-353,-94,200
55148,-78,608,253,205,484,692,571,333,-44,-166,203,208,470,-60,419,-248,554,45,-149,722,52,-708,160,-165,61,292,66,-147,-454,-300,-21,365
55149,-88,589,127,251,501,692,527,342,-31,-168,201,222,498,-36,435,-260,579,80,-87,770,72,-714,287,-99,116,325,170,37,-342,-164,131,628
55150,-70,500,162,231,496,780,473,396,-14,-160,171,212,540,-29,437,-297,659,91,-70,749,91,-716,318,-84,139,328,193,66,-312,-139,122,550
55151,-33,461,200,230,470,821,484,416,-18,-161,174,163,465,-54,431,-314,683,86,-95,757,87,-781,271,-90,110,322,150,43,-328,-194,23,266
55152,-61,478,189,203,449,821,519,385,-39,-146,181,191,406,-35,441,-331,655,63,-106,782,103,-856,315,-62,112,325,146,147,-272,-223,-35,20
55153,-176,433,315,205,463,803,557,296,-31,-140,234,203,472,-26,465,-405,525,110,-92,801,107,-834,354,-9,144,324,122,275,-208,-206,22,67
55154,-204,392,299,204,462,743,441,276,-20,-149,225,239,482,-20,446,-305,591,122,-100,783,119,-806,457,-29,164,337,185,139,-247,-195,56,189
55155,-110,441,363,203,469,711,521,269,-16,-149,171,289,495,-10,468,-205,770,133,-72,812,143,-782,590,39,165,354,258,209,-165,-144,101,211
55156,-28,412,430,156,478,718,599,255,-1,-134,168,487,493,3,494,-176,673,175,-72,840,180,-772,600,60,209,382,265,222,-118,-114,152,268
55157,0,267,402,128,478,728,592,215,-21,-133,154,546,458,-10,492,-122,666,141,-63,846,202,-772,432,6,197,376,242,47,-171,-139,151,331
