,Fp1,Fp2,F7,F3,Fz,F4,F8,FC5,FC1,FC2,FC6,T7,C3,Cz,C4,T8,TP9,CP5,CP1,CP2,CP6,TP10,P7,P3,Pz,P4,P8,PO9,O1,Oz,O2,PO10
103406,-93,166,274,265,460,543,146,328,19,96,253,37,324,-31,174,222,-283,-132,-78,124,-33,175,196,267,291,51,261,-118,126,54,-114,-82
103407,-93,185,291,278,470,555,170,332,30,104,272,59,354,1,192,234,-232,-98,-58,151,15,179,232,293,318,72,252,-243,96,80,-94,-4
103408,-87,168,292,301,461,566,162,339,52,113,287,48,376,-2,184,353,-171,-69,-42,139,42,179,286,304,323,101,251,-140,152,108,-66,15
103409,-100,173,257,299,455,571,161,347,42,96,273,54,368,-9,183,416,-199,-74,-40,124,7,176,293,315,303,84,227,-135,98,43,-137,-93
103410,-106,138,231,283,451,533,134,346,26,81,236,55,366,1,156,382,-206,-58,-66,110,-50,113,303,313,273,66,189,-87,111,40,-154,-153
103411,-96,99,242,272,438,505,92,363,41,77,224,51,398,18,169,349,-214,-43,-42,119,-46,98,286,328,294,98,213,65,223,123,-100,-116
103412,-89,119,269,288,438,501,78,371,61,74,212,40,384,23,167,340,-177,-47,-20,131,-45,157,271,319,290,112,270,37,184,130,-76,-31
103413,-71,106,285,287,427,488,77,378,41,63,202,28,373,17,132,220,-226,-62,-37,117,-45,157,285,313,293,102,272,-29,162,95,-75,-52
103414,-70,124,297,316,436,487,77,440,45,56,211,85,408,25,148,-140,-187,-30,-33,124,-46,168,324,352,313,108,276,-101,151,119,-39,-35
103415,-67,142,304,342,451,502,83,451,51,77,221,94,398,28,150,-26,-184,-14,-13,138,-39,144,317,364,330,119,294,-97,201,165,6,-24
103416,-49,127,327,324,449,508,83,405,52,67,212,92,409,2,151,231,-244,-10,-24,145,-11,112,372,392,329,130,345,143,334,227,41,-81
103417,-68,108,324,320,456,513,78,405,44,67,211,95,428,10,166,188,-187,36,12,154,15,142,490,444,363,160,409,415,461,304,86,-53
103418,-87,98,296,314,432,516,75,421,54,87,211,99,437,-3,165,147,-66,43,28,143,16,125,506,469,370,147,378,450,430,271,74,-20
103419,-84,118,292,323,448,515,95,437,61,94,231,99,449,36,195,225,-122,39,25,171,57,122,448,462,380,162,375,224,340,233,64,-31
103420,-77,107,321,330,453,520,96,442,67,96,239,77,453,30,199,120,-189,40,34,179,54,130,374,441,378,175,349,38,324,235,47,-55
103421,-91,121,343,324,445,508,84,438,53,84,227,49,443,12,196,154,-197,26,14,170,61,101,349,410,378,149,305,-150,274,189,0,-80
103422,-83,119,359,324,444,504,79,436,56,93,234,54,443,29,185,352,-225,57,15,176,56,106,443,432,384,160,337,-119,312,186,45,-8
103423,-72,128,333,321,441,504,87,438,69,85,225,85,421,8,195,476,-189,13,-4,172,35,131,434,412,353,143,321,-138,260,163,-13,36
103424,-54,174,323,341,448,533,114,445,62,112,242,75,412,25,206,414,-125,-43,-13,181,26,128,307,379,347,126,288,-196,166,132,-40,28
103425,-81,146,296,303,435,525,87,418,47,83,210,18,404,1,182,225,-188,-24,-8,160,10,116,342,402,360,127,288,-110,224,167,3,21
103426,-85,140,303,299,431,516,67,404,37,77,200,19,402,-21,149,182,-260,-14,-19,145,-11,109,371,396,354,129,347,-62,247,201,20,18
103427,-79,146,289,317,449,552,96,404,39,86,233,-45,397,-1,172,230,-279,-27,-19,156,48,82,348,404,355,130,407,-27,268,198,12,8
103428,-81,166,293,317,445,553,84,409,51,100,231,-174,430,6,186,261,-291,-8,-9,147,89,-46,366,409,367,145,406,25,288,186,-15,-76
103429,-86,157,294,313,447,553,63,391,57,102,244,-130,408,1,189,270,-313,-34,-11,147,123,-147,319,389,345,138,346,2,262,173,-44,-75
103430,-88,155,293,302,419,542,75,362,41,79,225,-48,369,-3,197,297,-207,-87,-37,135,112,-96,241,359,338,116,205,20,247,143,-46,-88
103431,-92,141,297,307,423,525,60,366,31,45,228,31,378,-9,165,310,-157,-83,-39,116,50,66,276,370,341,97,125,69,264,163,-12,-7
103432,-68,168,334,317,450,521,80,411,46,56,238,71,404,-13,127,322,-134,-19,-15,113,-43,128,367,424,348,75,167,118,286,177,-1,43
103433,-42,214,356,331,436,553,114,428,47,63,235,65,421,-16,124,307,-176,1,-10,101,-73,179,442,447,350,77,252,207,340,208,17,36
103434,-32,227,368,326,434,562,96,430,41,61,235,63,413,-26,136,288,-158,-21,-13,90,-61,187,437,413,330,74,303,99,323,213,2,-9
103435,-60,221,358,326,452,554,111,426,57,60,249,36,412,-7,147,320,-111,-19,-23,124,-37,194,358,398,337,101,358,-60,264,215,13,55
103436,-100,218,345,337,456,550,89,428,47,72,223,80,404,-12,129,317,-102,-21,-32,96,-41,179,283,385,338,76,347,-24,227,178,4,51
103437,-118,173,323,302,430,501,64,397,28,44,200,31,386,-47,101,285,-199,-60,-65,75,-91,132,295,384,313,50,281,83,292,211,18,24
103438,-82,187,342,329,454,518,94,420,48,53,231,20,394,-31,135,17,-177,-48,-55,110,-87,116,333,404,334,70,286,135,358,245,53,43
103439,-74,215,322,335,449,514,109,434,44,68,246,23,398,-22,134,-97,-118,-42,-29,113,-48,159,387,409,348,107,301,204,424,289,99,98
103440,-53,238,358,341,461,546,103,426,52,74,256,54,413,-6,163,270,-128,-34,-28,144,-1,193,404,423,374,148,381,192,413,323,129,131
103441,-38,216,355,335,468,534,124,431,49,72,258,118,409,-26,174,322,-92,-52,-54,126,1,177,309,385,359,141,420,27,263,220,60,75
103442,-73,208,330,317,446,545,127,426,47,61,256,135,402,-29,189,202,-57,-24,-26,141,36,199,358,390,380,145,443,69,284,216,80,39
103443,-83,222,344,303,449,544,149,416,32,76,272,121,387,-19,187,170,-57,-6,-29,154,50,225,425,420,386,166,491,271,417,306,131,113
103444,-47,247,348,306,476,565,153,443,44,85,294,93,406,3,201,234,-143,-25,-32,161,72,181,432,460,400,182,470,393,491,354,152,111
103445,-61,232,318,303,466,550,111,423,49,86,246,-11,388,-8,173,375,-220,-27,-22,156,78,78,432,464,422,186,424,489,539,390,183,83
103446,-75,217,295,302,455,529,97,431,19,52,218,-2,372,-48,143,364,-218,-65,-51,138,9,152,378,414,381,152,333,225,386,287,93,48
103447,-43,242,304,320,483,569,122,441,16,78,239,44,381,-36,159,300,-195,-42,-39,146,5,145,373,404,367,157,351,-24,303,252,88,75
103448,-58,228,336,323,496,565,121,420,41,100,250,56,375,-26,189,335,-240,-46,-34,152,21,15,342,405,381,154,377,-75,265,218,74,76
103449,-68,195,349,319,487,579,101,404,36,99,243,60,372,-31,181,386,-194,-59,-57,143,0,162,352,398,366,143,399,-107,229,193,44,90
103450,-75,181,309,318,489,583,93,423,37,96,218,48,373,-36,159,374,-94,-43,-46,153,-27,304,358,383,354,140,385,-98,233,214,44,107
103451,-83,185,295,324,459,559,70,393,39,86,221,35,376,-41,169,225,-42,-68,-66,161,2,240,342,378,360,143,392,8,286,220,40,90
103452,-109,169,284,314,453,540,57,368,12,85,201,15,338,-59,144,33,-71,-79,-81,142,-5,153,343,386,347,143,375,134,307,241,29,25
103453,-94,173,281,289,457,529,64,375,16,63,196,3,330,-71,148,48,-127,-57,-71,122,-14,162,375,388,346,150,356,242,375,264,57,14
103454,-113,198,289,285,460,546,77,367,1,74,214,5,322,-62,154,227,-113,-63,-68,141,-7,197,383,391,351,137,374,270,380,253,28,4
103455,-95,196,308,301,464,555,33,391,25,89,203,55,345,-47,145,366,-80,-59,-64,146,-6,142,356,375,353,141,379,124,274,217,19,7
103456,-109,192,265,297,468,557,41,370,36,80,192,16,339,-54,137,327,-147,-69,-87,141,1,134,316,353,349,150,403,53,222,207,10,71
103457,-103,190,242,277,471,555,67,353,17,86,200,-41,314,-57,150,281,-240,-94,-91,138,33,141,264,328,315,152,440,-28,193,176,-23,-24
103458,-82,200,276,295,487,550,92,362,24,108,201,-46,331,-31,167,250,-230,-98,-78,151,64,97,260,320,339,146,484,-34,202,163,-30,-168
103459,-119,177,254,269,478,546,74,348,12,87,174,-15,322,-42,167,213,-203,-115,-95,142,83,36,251,333,331,146,440,-17,197,159,-40,-72
103460,-108,199,242,270,458,530,73,343,16,84,189,17,328,-31,142,220,-155,-111,-64,147,49,22,257,314,321,122,377,-59,172,141,-64,-18
103461,-121,215,283,285,471,541,68,375,33,93,194,-42,347,-9,134,249,-210,-93,-58,160,28,55,262,329,336,123,328,-93,153,115,-73,-79
103462,-129,192,269,283,469,529,46,368,28,73,196,-194,337,-29,128,238,-211,-80,-58,132,-38,62,236,324,320,79,172,-165,124,106,-80,-84
103463,-118,183,285,300,476,519,58,392,16,83,180,-133,342,-38,124,202,-346,-91,-82,124,-42,132,208,319,320,61,85,-147,124,73,-114,-95
103464,-113,194,287,294,471,517,61,363,25,79,177,-31,329,-33,124,156,-347,-85,-88,116,-43,119,241,313,312,69,152,-105,141,62,-122,-115
103465,-141,159,263,270,457,506,38,348,24,52,147,38,326,-44,98,147,-234,-80,-105,98,-66,115,321,322,296,37,172,47,202,107,-132,-86
103466,-148,145,264,264,454,483,33,341,14,47,141,66,325,-58,113,123,-227,-81,-100,103,-69,102,367,344,275,31,168,58,236,102,-151,-68
103467,-131,136,256,266,472,499,53,366,24,58,168,46,318,-46,122,150,-267,-89,-86,115,-84,48,267,334,287,32,177,33,241,127,-152,-46
103468,-114,140,293,287,461,484,42,371,35,64,157,57,325,-30,129,163,-237,-95,-86,112,-89,-43,251,320,288,19,192,-48,213,104,-165,-63
103469,-99,153,326,297,466,479,59,381,35,51,169,57,318,-35,119,-124,-247,-94,-108,98,-106,-12,245,310,273,3,167,-189,133,41,-185,-71
103470,-80,157,302,282,470,485,77,389,17,73,195,12,301,-48,124,-205,-290,-127,-135,104,-91,123,184,289,275,18,155,-237,119,68,-157,-51
103471,-85,158,304,309,475,497,65,427,29,49,190,32,322,-52,139,145,-228,-114,-124,112,-50,141,232,315,272,31,198,-90,209,132,-105,-41
103472,-96,139,310,311,471,473,29,424,24,48,160,52,327,-64,115,357,-170,-97,-124,100,-62,91,271,339,274,45,230,47,264,154,-108,-40
103473,-101,132,338,317,470,485,26,426,40,44,165,85,336,-63,127,265,-202,-79,-109,98,-50,78,267,340,281,45,245,165,250,109,-116,-60
103474,-126,159,330,337,490,500,51,447,52,52,199,109,350,-50,123,110,-351,-71,-118,107,-37,120,240,343,289,66,301,161,234,101,-88,-40
103475,-109,193,320,345,491,496,45,449,47,48,176,101,332,-65,128,137,-333,-92,-132,89,-32,109,229,321,275,58,318,10,237,112,-101,-58
103476,-127,187,290,321,475,494,28,435,31,41,161,75,339,-65,121,190,-218,-76,-121,104,-19,62,245,333,275,73,320,-41,287,147,-77,-63
103477,-128,193,286,300,482,512,49,441,28,51,184,72,333,-57,99,200,-96,-68,-119,112,-16,40,288,340,282,87,310,-10,307,164,-42,-31
103478,-107,184,298,303,485,498,47,467,32,68,186,75,321,-57,121,222,-113,-101,-127,93,0,80,282,321,287,92,365,-14,210,113,-55,-2
103479,-105,182,342,291,469,480,51,429,25,53,192,53,323,-81,111,328,-135,-108,-132,93,24,110,279,317,274,106,435,43,217,119,-38,47
103480,-86,182,340,300,462,489,28,424,22,41,195,41,323,-71,123,415,-135,-88,-125,102,48,74,311,341,290,132,456,133,314,178,-14,-23
103481,-38,219,396,330,483,511,89,455,30,61,235,61,344,-54,136,411,-132,-83,-113,115,82,75,312,333,297,140,425,-54,229,133,-20,-35
103482,-64,188,381,313,478,493,59,453,19,51,203,61,323,-66,132,322,-162,-86,-124,98,59,85,307,329,279,123,387,-136,190,117,-11,59
103483,-63,201,388,311,482,485,36,470,25,39,194,90,344,-68,127,253,-103,-51,-108,93,30,190,360,355,281,129,389,-74,238,168,26,114
103484,-37,241,388,316,483,499,85,497,20,41,206,123,359,-56,116,276,-81,-28,-93,100,-1,237,389,390,294,123,425,41,313,196,57,165
103485,-25,247,408,328,482,533,103,490,34,33,234,155,362,-57,116,326,-26,-12,-94,96,-29,157,405,401,310,141,434,52,294,208,43,183
103486,-15,243,416,318,475,522,105,482,29,39,239,148,373,-70,127,319,-3,-5,-82,106,-12,118,400,413,322,133,427,73,299,212,53,154
103487,-8,253,404,343,488,523,116,490,22,53,255,148,374,-57,138,137,-150,8,-73,110,-6,139,439,421,330,118,385,141,349,224,57,84
103488,-29,265,433,360,494,533,136,519,26,66,258,148,382,-60,134,16,-183,2,-95,92,-10,148,480,409,309,108,347,81,308,181,8,99
103489,-39,255,425,326,464,527,122,512,42,47,274,141,376,-59,148,-42,-81,12,-120,87,-26,93,530,400,291,72,323,89,302,186,-20,93
103490,5,296,446,359,506,572,191,545,66,68,310,155,410,-57,167,127,37,46,-88,105,26,151,511,416,294,68,357,167,322,199,1,111
103491,38,317,484,403,515,590,200,590,78,90,321,157,424,-42,181,349,-6,56,-57,124,55,274,450,433,302,82,331,187,321,198,1,69
103492,50,328,473,420,515,593,216,593,57,82,331,174,414,-66,171,177,-37,51,-77,98,23,324,411,408,295,60,296,136,296,178,-29,84
103493,37,321,486,414,480,541,184,586,36,60,294,216,396,-86,130,12,-38,21,-93,75,-31,319,456,393,274,31,289,129,298,169,-43,75
103494,37,340,507,411,493,551,181,586,60,60,302,219,398,-54,123,272,-62,3,-91,67,-30,275,428,393,253,36,324,161,324,171,-27,69
103495,46,312,481,404,494,550,174,573,49,38,284,195,404,-67,101,490,-24,1,-98,62,-16,241,401,390,259,34,356,221,342,198,-30,64
103496,51,306,466,394,488,541,165,556,46,32,265,189,386,-77,111,488,72,3,-102,51,-10,247,463,414,265,45,426,281,382,223,0,18
103497,63,322,489,397,487,555,151,556,40,34,284,161,398,-76,92,426,109,38,-77,38,-32,196,531,436,266,32,479,356,424,248,15,116
103498,104,326,509,417,519,583,157,584,58,65,287,116,448,-55,106,427,154,103,-42,65,-25,136,574,460,297,48,438,382,458,287,20,68
103499,72,314,465,405,491,564,151,577,56,68,275,121,423,-46,102,373,96,78,-58,50,-18,246,554,459,298,37,376,416,446,256,9,78
103500,58,305,455,383,491,557,115,545,33,76,273,156,404,-54,116,110,61,35,-52,58,-36,249,502,408,286,23,382,255,351,194,-4,76
103501,92,328,466,387,499,568,127,534,38,83,285,175,431,-39,115,-214,44,60,-47,76,-28,155,541,439,302,56,410,340,417,249,26,0
103502,68,319,459,367,487,566,152,513,41,91,300,213,409,-42,138,-48,33,51,-47,84,0,177,566,442,318,72,331,376,433,261,31,21
103503,39,297,427,350,467,544,120,502,23,65,276,259,408,-49,121,282,51,75,-54,90,-15,193,555,438,322,51,273,367,442,271,26,109
103504,11,276,402,343,471,548,145,497,39,57,261,245,415,-37,121,427,45,89,-41,103,16,210,595,457,340,70,363,297,441,281,46,55
103505,38,295,408,345,491,554,183,471,40,76,280,198,418,-30,131,485,55,52,-39,107,57,187,500,445,344,94,419,79,329,218,17,54
103506,40,286,431,344,472,552,165,472,53,53,264,178,389,-45,133,482,8,27,-45,108,48,190,446,425,338,103,361,127,340,240,52,115
103507,46,283,445,363,483,565,159,507,60,66,274,203,404,-32,147,352,-59,49,-45,113,1,245,474,417,320,90,274,186,362,243,32,108
103508,41,300,447,374,485,564,167,507,57,53,262,227,431,-30,135,132,-71,48,-31,109,-31,109,452,421,324,75,233,236,374,235,-11,68
103509,41,265,429,348,490,524,119,490,62,46,225,179,433,-35,110,155,-21,44,-41,118,-35,41,507,446,346,83,243,476,478,276,-2,56
103510,-2,229,417,357,495,505,83,512,61,62,196,171,447,-9,137,276,30,75,-5,133,-52,139,583,480,370,112,278,618,541,301,18,43
103511,-8,251,447,380,485,501,68,510,71,56,176,192,437,13,120,275,-7,85,-9,131,-44,162,567,465,373,110,304,413,449,255,0,28
103512,36,259,476,390,488,498,79,507,73,55,210,208,422,-3,106,305,-85,71,-29,128,-27,103,488,421,358,105,325,50,286,193,-41,-6
103513,60,249,474,375,494,516,90,517,56,51,209,184,401,-23,111,331,-103,22,-47,125,12,102,404,374,325,107,352,-211,189,144,-66,-12
103514,49,245,429,369,490,518,74,516,57,64,188,138,409,-2,128,278,-77,10,-35,148,7,192,443,405,355,122,361,-13,282,215,-21,-2
103515,11,235,393,355,465,502,45,466,58,56,160,99,371,8,111,206,-46,-28,-58,126,-25,166,374,365,317,82,314,0,176,130,-61,10
103516,-3,216,411,353,471,490,29,479,46,49,158,101,374,-7,104,192,-19,-10,-38,141,-12,102,420,375,332,83,316,77,193,119,-82,-41
103517,19,210,429,362,469,470,26,499,48,55,181,142,416,2,129,167,-88,30,-20,161,-8,69,557,423,348,111,281,224,306,190,-56,-89
103518,26,207,425,375,497,471,19,489,57,61,162,137,445,15,116,194,-114,52,3,171,-13,93,565,450,367,138,256,375,403,236,-5,-30
103519,21,231,423,373,507,480,25,509,80,53,161,149,434,34,140,194,-31,42,0,197,34,105,464,434,384,168,279,192,300,190,-6,-1
103520,23,215,398,364,486,481,46,540,65,71,162,154,433,29,162,-118,18,0,-7,216,22,152,358,401,383,163,350,-192,144,126,-21,18
103521,14,217,388,353,465,480,24,540,58,70,159,158,422,13,160,-218,-11,-15,-6,215,32,118,358,406,390,177,404,-171,189,169,-13,23
103522,9,201,363,357,473,469,4,505,47,60,140,133,420,21,174,-43,-132,18,-3,214,48,74,426,428,401,192,380,1,319,234,39,10
103523,36,184,370,353,485,470,-12,487,32,51,124,62,442,11,169,-244,-182,74,19,208,25,90,481,463,402,196,357,138,364,251,45,0
103524,29,207,371,368,490,470,11,501,67,62,142,-87,460,15,169,-204,-179,79,27,217,61,97,428,446,387,181,427,90,298,178,-40,-54
103525,43,186,367,369,476,450,-6,495,86,61,136,-139,445,29,189,194,-127,-4,-7,228,115,1,338,410,388,193,514,100,291,170,-32,-84
103526,34,204,372,372,475,452,-48,500,77,48,94,36,428,11,164,270,-19,-40,-32,189,73,-10,305,374,348,175,507,-178,140,98,-73,-174
103527,11,209,391,368,471,449,-19,502,63,62,98,141,417,-3,127,195,-37,-38,-38,163,16,-29,297,361,324,157,334,-297,127,81,-79,-66
103528,22,211,368,365,471,473,-15,483,52,41,134,139,417,-10,136,302,-109,-52,-41,176,31,25,318,383,337,160,245,-134,192,122,-41,-12
103529,45,210,359,374,474,489,6,472,45,55,146,120,409,3,135,408,-126,-45,-44,169,19,36,326,393,346,185,291,-46,231,167,3,30
103530,23,224,358,364,485,486,-5,485,57,75,120,115,396,0,125,401,-102,-61,-38,162,-45,-4,341,383,342,163,310,-43,257,184,-5,93
103531,-1,211,347,352,469,479,-46,471,58,39,91,138,394,-13,93,289,-108,-52,-48,146,-72,-60,356,380,322,127,261,-42,268,167,-13,57
103532,-3,208,357,354,459,496,-37,488,57,45,106,121,409,4,87,237,-164,-67,-67,145,-79,12,320,368,312,137,279,-90,197,115,-31,16
103533,-29,160,325,337,449,474,-47,432,39,59,113,67,390,12,75,229,-364,-89,-64,130,-80,87,265,351,310,134,291,-36,225,141,-6,9
103534,-53,195,356,334,460,471,-31,451,59,64,109,26,379,26,96,217,-369,-91,-46,151,-67,66,245,333,328,139,312,-36,247,152,10,6
103535,-56,176,343,335,464,459,-53,445,73,66,124,28,392,35,91,201,-190,-63,-39,160,-56,57,326,345,350,146,348,39,281,180,37,-14
103536,-85,150,301,319,432,458,-80,441,47,62,110,36,408,42,111,183,-177,-53,-30,153,-65,3,380,368,347,160,357,54,292,190,28,-64
103537,-98,144,282,303,429,454,-74,410,49,58,114,22,407,43,119,119,-265,-76,-44,171,-65,-98,326,357,330,166,361,73,299,172,18,-63
103538,-92,166,299,295,446,497,-60,413,65,84,157,5,393,53,159,-90,-185,-74,-23,194,-21,-14,326,352,363,179,393,37,303,199,45,-27
103539,-106,136,251,261,434,451,-85,402,42,62,121,-18,375,51,140,-138,-153,-98,-52,166,-30,144,345,325,341,166,375,30,309,203,32,-16
103540,-86,130,256,266,449,461,-62,417,53,77,140,-4,391,39,134,71,-121,-89,-41,163,-28,99,313,330,331,131,352,83,325,192,11,-49
103541,-101,134,259,279,424,446,-46,412,51,65,135,-6,399,37,121,170,-120,-97,-41,143,-64,-77,302,310,309,81,286,41,287,135,-64,-107
103542,-96,131,257,280,414,441,-48,405,49,66,122,24,403,45,134,245,-175,-74,-45,144,-53,-58,318,301,298,69,278,37,250,102,-81,-53
103543,-95,129,260,285,430,451,-29,423,46,82,143,41,416,46,134,275,-216,-73,-44,153,-30,100,372,296,297,37,305,-64,174,43,-108,-11
103544,-92,147,278,273,431,426,-39,449,61,77,160,55,419,25,107,226,-232,-62,-43,129,-32,134,389,289,293,32,251,-107,143,26,-169,-97
103545,-72,168,275,295,446,456,-19,454,61,83,174,102,436,48,128,95,-128,-30,-49,130,-19,78,394,299,290,28,211,-27,172,41,-152,-117
103546,-68,193,297,299,435,465,1,447,57,90,205,107,416,37,143,-174,-73,-27,-45,134,-10,16,366,314,288,46,181,68,221,59,-146,-93
103547,-52,168,294,294,445,465,12,433,41,93,217,100,395,21,164,-352,-90,-38,-49,131,-20,7,352,312,279,56,169,156,231,51,-153,-120
103548,-58,158,265,280,439,463,0,445,31,107,206,79,395,25,171,-245,-111,-7,-58,129,-23,67,390,330,278,47,214,228,288,49,-163,-152
103549,-89,160,243,270,426,473,-38,430,34,77,201,70,389,23,156,73,-147,-7,-49,126,-41,-9,448,362,302,41,274,326,339,93,-132,-146
103550,-95,133,247,270,438,479,-31,407,27,87,194,76,380,23,159,286,-229,-18,-66,110,-71,-56,467,322,288,28,265,247,295,73,-139,-79
103551,-95,128,259,272,441,493,-19,413,39,104,193,77,377,30,170,179,-215,-42,-63,127,-35,3,379,311,272,57,350,192,225,36,-145,-40
103552,-100,147,226,273,448,492,8,431,30,110,218,-25,377,16,166,186,-209,-89,-75,131,-29,116,277,278,279,48,348,-70,84,-25,-160,-16
103553,-122,173,203,259,430,491,24,425,34,101,260,-145,373,25,170,325,-112,-49,-64,133,-28,131,368,298,296,33,323,46,153,20,-125,-93
103554,-121,168,209,254,435,481,12,386,15,89,229,-112,354,12,148,367,-104,-39,-82,117,-82,102,366,299,267,55,290,78,177,25,-129,-83
103555,-106,168,246,248,434,505,-14,365,15,83,203,-10,343,2,137,352,-126,-43,-81,108,-108,104,348,292,246,35,246,139,209,64,-92,-75
