,Fp1,Fp2,F7,F3,Fz,F4,F8,FC5,FC1,FC2,FC6,T7,C3,Cz,C4,T8,TP9,CP5,CP1,CP2,CP6,TP10,P7,P3,Pz,P4,P8,PO9,O1,Oz,O2,PO10
158492,225,617,275,-411,-67,154,-393,142,-121,-160,-26,-39,-38,-180,-412,-153,-76,-419,683,-253,-529,-254,-19,-112,-322,-302,45,-368,-124,-429,-721,-396
158493,173,598,233,-421,-82,148,-404,123,-129,-154,-60,-42,-47,-163,-421,-271,-119,-419,696,-259,-524,-225,-15,-122,-305,-278,104,-332,-82,-374,-649,-297
158494,212,623,227,-448,-67,144,-365,113,-108,-139,-44,-57,-37,-155,-401,-428,-117,-421,725,-231,-513,-265,-16,-115,-296,-254,126,-336,-52,-337,-625,-265
158495,242,627,220,-469,-59,160,-438,89,-113,-133,-28,-71,-62,-167,-409,-342,-138,-431,704,-251,-547,-314,-17,-121,-327,-284,89,-361,-93,-372,-673,-325
158496,196,642,179,-447,-65,145,-465,105,-126,-141,-3,-98,-79,-184,-412,-198,-176,-444,688,-277,-554,-331,-53,-148,-352,-322,40,-401,-136,-448,-735,-468
158497,172,631,181,-451,-82,109,-462,94,-136,-143,-52,-128,-78,-186,-414,-158,-190,-437,692,-280,-573,-329,-72,-121,-346,-331,34,-396,-125,-446,-703,-437
158498,202,613,199,-447,-78,116,-485,100,-107,-143,-77,-128,-55,-172,-435,-96,-158,-411,723,-273,-576,-298,-34,-104,-315,-308,33,-349,-89,-410,-691,-422
158499,167,559,160,-497,-105,64,-473,53,-144,-193,-112,-157,-106,-201,-487,-118,-223,-439,686,-308,-611,-362,-69,-146,-351,-318,4,-379,-113,-429,-727,-419
158500,145,577,134,-472,-102,100,-418,79,-145,-180,-71,-201,-97,-183,-449,-79,-245,-457,686,-282,-607,-533,-103,-158,-356,-325,15,-393,-125,-418,-703,-392
158501,172,609,157,-455,-85,135,-383,124,-140,-156,-61,-230,-83,-185,-415,-103,-220,-460,695,-289,-570,-258,-102,-154,-365,-301,75,-405,-139,-414,-695,-387
158502,204,631,205,-458,-77,134,-348,100,-128,-145,-81,-203,-74,-183,-424,-117,-240,-472,679,-284,-561,-123,-127,-181,-387,-320,65,-423,-184,-454,-710,-410
158503,225,666,251,-422,-60,164,-341,126,-112,-141,-82,-193,-52,-176,-427,-118,-245,-458,709,-261,-555,-287,-138,-164,-380,-300,45,-393,-128,-433,-677,-404
158504,254,672,300,-419,-50,159,-358,145,-111,-131,-79,-138,-76,-178,-431,-105,-206,-458,704,-275,-552,-269,-92,-148,-351,-284,57,-378,-109,-424,-693,-377
158505,232,614,274,-450,-74,156,-353,101,-126,-143,-80,-90,-95,-190,-437,-96,-173,-458,688,-264,-551,-242,-53,-123,-342,-284,66,-350,-96,-393,-694,-362
158506,223,644,283,-437,-74,165,-330,121,-133,-119,-77,-45,-84,-182,-408,-55,-110,-418,700,-253,-531,-227,-9,-101,-333,-272,97,-284,-63,-343,-655,-297
158507,228,659,304,-411,-72,162,-353,139,-124,-105,-57,-16,-80,-174,-403,-69,-138,-416,701,-234,-500,-228,-22,-124,-316,-270,140,-325,-74,-330,-616,-268
158508,244,664,294,-393,-41,207,-360,104,-100,-102,-35,-39,-77,-151,-387,-117,-159,-427,697,-224,-519,-248,-26,-130,-316,-248,107,-345,-82,-363,-621,-314
158509,242,662,293,-399,-42,200,-358,145,-104,-107,-31,-94,-75,-173,-397,-159,-212,-443,707,-237,-536,-248,-32,-143,-322,-268,78,-323,-86,-370,-639,-299
158510,209,654,278,-403,-67,176,-363,161,-130,-146,-42,-116,-76,-192,-413,-300,-205,-472,699,-267,-527,-253,-75,-164,-362,-292,25,-390,-158,-434,-672,-347
158511,267,657,291,-388,-53,177,-344,173,-118,-156,-49,-96,-69,-190,-402,-585,-152,-451,702,-254,-538,-276,-83,-162,-360,-295,-14,-423,-164,-455,-698,-400
158512,279,690,286,-359,-53,160,-310,156,-95,-141,-60,-71,-48,-173,-391,-700,-191,-437,711,-240,-521,-297,-75,-117,-322,-279,-41,-402,-143,-427,-693,-424
158513,245,665,246,-399,-62,169,-310,130,-119,-139,-50,-78,-66,-175,-394,-596,-185,-447,710,-222,-526,-338,-69,-129,-319,-277,-22,-389,-138,-415,-690,-385
158514,213,636,234,-418,-73,163,-328,102,-121,-142,-34,-94,-89,-175,-386,-311,-211,-461,725,-217,-533,-365,-92,-137,-330,-258,26,-404,-134,-419,-688,-404
158515,244,662,263,-432,-54,172,-318,121,-118,-118,-16,-108,-61,-143,-371,-126,-204,-441,749,-193,-554,-351,-55,-125,-318,-265,43,-349,-122,-418,-696,-377
158516,248,661,264,-428,-59,156,-369,184,-109,-124,-4,-122,-43,-139,-393,-70,-186,-423,769,-223,-582,-332,-36,-104,-325,-277,44,-314,-101,-401,-689,-349
158517,215,601,247,-406,-80,125,-459,230,-98,-152,-86,-105,-59,-160,-428,-74,-242,-468,741,-257,-609,-360,-116,-154,-369,-331,25,-448,-173,-460,-736,-392
158518,172,567,216,-444,-71,129,-490,113,-107,-158,-107,-94,-79,-152,-440,-107,-259,-482,719,-270,-615,-406,-140,-173,-373,-327,13,-499,-196,-480,-732,-382
158519,144,557,131,-484,-98,130,-489,35,-139,-168,-99,-112,-98,-165,-444,-126,-243,-498,701,-273,-597,-351,-127,-188,-363,-308,48,-413,-165,-449,-721,-354
158520,156,562,134,-481,-111,146,-480,72,-153,-160,-115,-145,-100,-189,-462,-153,-320,-519,683,-290,-595,-361,-167,-218,-396,-334,43,-453,-214,-487,-748,-419
158521,213,581,198,-457,-83,164,-462,88,-136,-142,-74,-119,-76,-159,-437,-141,-310,-512,691,-268,-599,-355,-143,-213,-387,-324,38,-477,-210,-494,-750,-444
158522,193,546,198,-453,-100,164,-452,96,-127,-152,-54,-128,-95,-167,-431,-180,-238,-508,689,-280,-620,-386,-158,-230,-367,-340,0,-482,-203,-494,-736,-451
158523,186,568,235,-443,-91,146,-439,92,-125,-141,-88,-174,-94,-161,-477,-293,-311,-530,677,-302,-630,-372,-199,-250,-391,-362,8,-497,-245,-509,-756,-483
158524,199,582,247,-434,-94,164,-426,113,-111,-123,-81,-175,-81,-161,-450,-405,-269,-527,692,-297,-632,-377,-170,-221,-392,-333,5,-481,-217,-489,-729,-437
158525,226,614,274,-407,-78,165,-351,150,-80,-116,-70,-177,-61,-146,-436,-316,-262,-475,722,-268,-623,-360,-144,-199,-347,-318,-16,-478,-175,-457,-706,-445
158526,224,621,292,-392,-72,140,-458,164,-94,-159,-77,-179,-93,-153,-442,-247,-263,-472,711,-276,-594,-354,-155,-220,-369,-323,-40,-484,-202,-435,-697,-443
158527,190,631,300,-432,-86,136,-498,148,-116,-159,-86,-130,-82,-160,-412,-174,-236,-498,725,-258,-542,-318,-132,-209,-355,-290,20,-472,-179,-405,-625,-365
158528,213,602,311,-412,-97,119,-463,159,-111,-163,-78,-115,-81,-140,-426,-109,-202,-485,721,-240,-539,-284,-111,-190,-352,-258,69,-443,-143,-380,-606,-320
158529,207,581,312,-417,-100,92,-413,147,-103,-144,-81,-131,-78,-154,-434,-141,-172,-475,716,-258,-568,-336,-103,-179,-353,-296,53,-420,-142,-433,-693,-413
158530,210,591,282,-421,-95,94,-356,128,-102,-153,-62,-128,-59,-144,-405,-122,-212,-443,748,-249,-541,-334,-92,-151,-351,-285,68,-421,-147,-433,-714,-394
158531,224,618,257,-417,-95,103,-341,145,-87,-134,-72,-102,-55,-124,-395,-137,-189,-435,766,-226,-527,-327,-82,-129,-325,-271,43,-409,-126,-415,-679,-410
158532,273,654,304,-400,-102,105,-308,164,-79,-144,-68,-90,-17,-130,-406,-146,-178,-395,776,-209,-545,-331,-52,-97,-300,-273,22,-349,-103,-422,-720,-492
158533,271,658,316,-399,-98,127,-310,161,-84,-145,-68,-153,-20,-122,-379,-135,-223,-420,774,-197,-522,-267,-75,-97,-301,-247,93,-423,-119,-390,-677,-407
158534,229,656,316,-371,-76,116,-319,165,-72,-114,-43,-197,-14,-98,-360,-168,-198,-431,752,-194,-470,-229,-94,-79,-293,-233,118,-395,-107,-383,-633,-293
158535,220,608,266,-400,-69,111,-377,153,-66,-113,-33,-182,-11,-85,-346,-198,-224,-423,766,-171,-465,-238,-83,-55,-249,-214,121,-354,-84,-364,-647,-287
158536,182,585,238,-419,-82,88,-444,158,-88,-134,-55,-229,-17,-95,-358,-204,-289,-434,776,-179,-468,-289,-108,-104,-262,-227,80,-415,-103,-390,-668,-345
158537,187,590,222,-427,-93,97,-426,130,-97,-168,-62,-241,-65,-137,-404,-179,-320,-488,742,-185,-511,-267,-148,-143,-304,-266,15,-454,-130,-415,-680,-397
158538,216,591,226,-418,-88,115,-392,101,-80,-156,-61,-202,-95,-131,-415,-155,-277,-512,727,-188,-512,-258,-131,-146,-301,-268,31,-466,-151,-413,-679,-406
158539,183,561,235,-457,-126,94,-387,80,-121,-168,-43,-197,-115,-152,-428,-184,-296,-514,712,-205,-558,-367,-132,-166,-320,-306,26,-464,-160,-416,-677,-403
158540,183,590,264,-435,-108,116,-386,103,-129,-147,-66,-109,-109,-134,-415,-219,-239,-485,714,-211,-538,-345,-106,-161,-310,-274,52,-436,-117,-364,-639,-354
158541,198,578,243,-444,-94,111,-385,106,-109,-139,-72,-110,-106,-114,-418,-456,-251,-499,738,-212,-525,-295,-124,-156,-311,-287,39,-416,-136,-384,-642,-357
158542,207,611,243,-438,-104,122,-342,113,-110,-142,-47,-100,-102,-125,-408,-585,-265,-524,706,-224,-546,-364,-140,-193,-343,-330,-12,-483,-208,-497,-762,-426
158543,166,594,228,-447,-129,105,-388,70,-125,-176,-90,-121,-134,-130,-422,-497,-298,-532,671,-251,-539,-425,-168,-219,-366,-325,-44,-482,-240,-543,-843,-485
158544,125,560,205,-467,-119,140,-434,33,-112,-156,-48,-176,-143,-123,-388,-240,-379,-527,682,-218,-490,-586,-188,-215,-367,-279,-22,-501,-234,-515,-772,-454
158545,156,544,243,-469,-126,135,-462,53,-114,-144,-53,-172,-123,-118,-400,-124,-316,-527,665,-212,-533,-497,-179,-223,-351,-299,6,-504,-239,-542,-755,-502
158546,156,534,233,-464,-117,117,-479,59,-123,-159,-88,-188,-113,-146,-422,-91,-326,-537,683,-223,-523,-173,-188,-196,-334,-304,102,-468,-223,-498,-731,-408
158547,159,577,200,-452,-102,120,-502,79,-94,-155,-95,-207,-84,-119,-407,-8,-278,-510,691,-219,-501,-309,-179,-192,-334,-259,112,-467,-202,-451,-715,-395
158548,170,565,183,-444,-110,107,-519,84,-102,-149,-73,-179,-108,-123,-397,-69,-282,-513,710,-234,-497,-297,-174,-189,-327,-278,90,-465,-201,-463,-720,-384
158549,159,556,194,-449,-118,93,-495,98,-140,-153,-73,-148,-123,-153,-397,-263,-301,-512,683,-232,-524,-280,-183,-204,-358,-285,89,-465,-213,-468,-739,-370
158550,146,582,219,-453,-121,94,-429,125,-122,-159,-85,-176,-123,-143,-409,-294,-294,-521,667,-245,-541,-270,-205,-231,-365,-287,64,-495,-204,-470,-720,-375
158551,173,597,249,-462,-121,111,-363,58,-121,-155,-52,-169,-121,-124,-400,-169,-275,-520,655,-250,-550,-273,-191,-238,-362,-305,43,-490,-216,-489,-735,-418
158552,153,567,246,-472,-130,110,-361,61,-118,-158,-69,-171,-112,-122,-398,-136,-289,-533,670,-236,-571,-356,-163,-222,-369,-320,29,-499,-240,-503,-760,-433
158553,136,552,219,-478,-135,109,-395,122,-135,-176,-101,-193,-117,-156,-418,-187,-284,-533,683,-275,-579,-408,-191,-229,-390,-342,-3,-500,-244,-513,-788,-474
158554,185,595,262,-454,-90,131,-350,145,-114,-142,-62,-158,-110,-126,-397,-139,-262,-512,683,-252,-553,-374,-146,-191,-372,-315,18,-455,-205,-479,-735,-435
158555,212,616,263,-486,-92,138,-356,87,-131,-118,-49,-151,-104,-118,-381,-166,-245,-505,688,-249,-533,-340,-113,-163,-346,-304,27,-385,-157,-420,-682,-378
158556,210,616,258,-495,-106,137,-358,94,-132,-118,-43,-184,-120,-116,-385,-202,-263,-512,688,-246,-521,-261,-147,-176,-332,-285,46,-391,-159,-431,-674,-327
158557,238,597,275,-479,-105,131,-424,125,-116,-142,-40,-184,-131,-129,-387,-239,-247,-531,671,-238,-523,-311,-191,-202,-342,-301,12,-464,-192,-459,-698,-373
158558,213,617,252,-494,-128,117,-446,87,-123,-132,-57,-178,-124,-131,-398,-229,-258,-531,686,-237,-524,-345,-208,-212,-354,-328,-13,-516,-209,-497,-749,-466
158559,174,572,298,-458,-136,100,-479,85,-114,-120,-40,-163,-118,-134,-425,-201,-273,-519,689,-252,-552,-352,-187,-205,-352,-324,-23,-490,-211,-487,-757,-489
158560,187,529,299,-436,-127,118,-476,88,-114,-132,3,-141,-131,-137,-421,-233,-289,-505,674,-246,-566,-386,-172,-212,-354,-315,-15,-478,-216,-466,-745,-468
158561,205,538,266,-437,-123,106,-426,104,-102,-130,-51,-141,-116,-136,-422,-194,-250,-515,679,-237,-569,-390,-178,-199,-323,-308,-1,-507,-215,-477,-746,-451
158562,191,522,260,-442,-126,94,-399,99,-106,-143,-81,-172,-118,-133,-436,-204,-245,-516,685,-252,-585,-383,-174,-183,-314,-307,15,-478,-176,-464,-744,-420
158563,184,530,268,-427,-143,82,-442,93,-105,-165,-119,-203,-125,-149,-433,-229,-299,-532,668,-258,-586,-369,-185,-176,-326,-299,16,-466,-170,-441,-711,-407
158564,218,539,288,-426,-141,89,-548,112,-117,-163,-142,-178,-108,-136,-423,-221,-280,-522,663,-226,-553,-341,-156,-171,-298,-289,40,-454,-149,-399,-684,-341
158565,255,613,319,-411,-109,126,-599,133,-100,-133,-67,-168,-89,-114,-423,-198,-270,-479,703,-199,-528,-292,-145,-144,-279,-278,15,-424,-125,-394,-679,-377
158566,258,616,319,-397,-123,104,-614,128,-103,-144,-37,-174,-87,-129,-401,-377,-290,-495,697,-227,-522,-302,-151,-145,-307,-270,-16,-434,-153,-438,-713,-433
158567,241,613,307,-426,-132,85,-538,125,-114,-157,-29,-194,-89,-135,-405,-422,-285,-496,690,-221,-527,-354,-155,-174,-312,-286,-4,-446,-160,-453,-705,-449
158568,236,613,300,-433,-121,106,-414,144,-100,-156,-32,-245,-71,-129,-398,-349,-271,-476,706,-219,-511,-345,-144,-176,-314,-291,-8,-442,-163,-455,-713,-445
158569,229,595,297,-442,-133,71,-335,123,-113,-173,-73,-242,-81,-136,-413,-309,-243,-482,666,-233,-519,-340,-161,-221,-338,-282,-74,-434,-176,-477,-740,-466
158570,235,581,307,-439,-147,57,-366,154,-123,-199,-118,-200,-96,-138,-444,-268,-224,-476,689,-250,-543,-321,-162,-199,-339,-301,-43,-401,-179,-451,-719,-407
158571,242,598,260,-454,-146,65,-375,166,-88,-194,-104,-138,-101,-137,-427,-213,-229,-497,704,-240,-539,-293,-150,-190,-331,-282,24,-424,-151,-405,-657,-323
158572,221,587,213,-446,-135,48,-381,131,-91,-194,-92,-158,-129,-129,-418,-204,-240,-523,674,-254,-545,-294,-175,-216,-348,-288,25,-434,-176,-428,-670,-350
158573,214,599,171,-440,-141,51,-416,113,-115,-191,-104,-184,-147,-155,-458,-343,-289,-565,629,-271,-610,-337,-212,-250,-398,-351,-61,-481,-258,-541,-791,-550
158574,201,623,154,-424,-112,78,-346,108,-112,-157,-82,-179,-150,-146,-425,-315,-340,-587,665,-275,-579,-298,-232,-265,-417,-342,-94,-506,-274,-560,-853,-515
158575,227,642,217,-416,-96,101,-339,100,-121,-150,-53,-200,-160,-148,-411,-164,-387,-598,645,-263,-555,-292,-255,-267,-390,-329,-72,-543,-291,-560,-816,-446
158576,235,582,240,-439,-122,101,-393,84,-123,-165,-53,-212,-188,-157,-423,-160,-346,-597,651,-281,-569,-337,-267,-288,-401,-342,-95,-548,-314,-561,-824,-496
158577,229,576,266,-421,-107,97,-401,83,-122,-154,-73,-178,-162,-150,-413,-157,-238,-568,659,-257,-575,-325,-237,-258,-378,-353,-57,-487,-268,-511,-781,-424
158578,227,568,301,-431,-113,94,-395,50,-128,-174,-80,-203,-163,-166,-443,-146,-253,-578,624,-277,-609,-357,-243,-286,-413,-382,-77,-507,-292,-532,-797,-460
158579,206,565,277,-444,-125,78,-394,26,-122,-192,-104,-195,-189,-162,-469,-161,-287,-604,626,-297,-637,-378,-261,-303,-430,-390,-97,-507,-295,-556,-822,-479
158580,204,563,267,-446,-120,94,-410,31,-135,-180,-91,-185,-195,-167,-474,-158,-304,-612,615,-301,-638,-358,-283,-330,-453,-386,-80,-484,-300,-554,-827,-465
158581,259,577,288,-426,-113,114,-398,37,-147,-174,-66,-190,-194,-182,-476,-176,-340,-643,613,-324,-635,-357,-274,-346,-482,-425,-128,-524,-324,-613,-880,-567
158582,229,599,267,-416,-116,114,-401,43,-132,-165,-19,-190,-178,-165,-475,-216,-358,-617,620,-328,-636,-320,-267,-324,-460,-412,-117,-509,-295,-574,-864,-505
158583,165,549,213,-450,-138,80,-482,36,-150,-188,-110,-218,-176,-160,-491,-276,-370,-613,627,-329,-643,-351,-273,-321,-465,-416,-151,-505,-302,-563,-868,-521
158584,149,516,200,-444,-127,79,-570,69,-116,-181,-144,-236,-151,-159,-498,-299,-293,-587,649,-324,-634,-423,-242,-291,-439,-398,-141,-488,-262,-543,-822,-479
158585,191,524,245,-428,-121,84,-632,64,-124,-164,-141,-224,-166,-165,-482,-269,-255,-565,660,-303,-649,-566,-216,-252,-420,-385,-152,-470,-250,-521,-833,-475
158586,212,533,239,-436,-121,76,-632,50,-126,-182,-137,-207,-148,-158,-448,-259,-267,-573,679,-299,-625,-320,-209,-231,-419,-369,-109,-445,-225,-511,-806,-488
158587,219,581,256,-447,-116,70,-578,53,-131,-170,-115,-218,-134,-149,-443,-219,-255,-544,700,-305,-604,-256,-198,-248,-390,-358,-46,-419,-194,-455,-747,-431
158588,249,604,290,-418,-116,70,-568,80,-116,-163,-84,-188,-125,-144,-448,-161,-247,-553,717,-291,-586,-349,-180,-229,-371,-335,-29,-407,-174,-419,-704,-411
158589,213,536,242,-452,-144,36,-568,73,-100,-176,-116,-198,-143,-163,-478,-174,-273,-560,678,-290,-592,-330,-189,-244,-382,-351,-13,-465,-218,-487,-749,-475
158590,195,543,269,-444,-153,22,-525,83,-91,-166,-135,-196,-119,-139,-449,-183,-256,-540,674,-270,-583,-350,-172,-236,-356,-353,-6,-412,-206,-489,-749,-425
158591,203,570,276,-443,-150,20,-484,74,-93,-166,-144,-208,-113,-143,-461,-209,-267,-549,710,-250,-580,-392,-169,-226,-352,-338,-20,-418,-198,-463,-764,-424
158592,213,562,276,-450,-171,35,-470,52,-104,-184,-170,-219,-131,-151,-493,-266,-323,-557,697,-267,-611,-371,-211,-252,-380,-362,-78,-519,-248,-515,-816,-506
158593,187,540,259,-450,-165,26,-502,63,-116,-188,-169,-211,-131,-159,-489,-307,-323,-571,658,-309,-639,-349,-246,-279,-398,-383,-105,-537,-269,-526,-792,-453
158594,171,518,247,-445,-148,48,-483,72,-121,-176,-154,-202,-131,-146,-483,-357,-309,-590,675,-296,-655,-412,-255,-269,-409,-398,-114,-517,-272,-509,-801,-436
158595,166,538,225,-447,-130,63,-493,51,-120,-161,-155,-226,-140,-143,-500,-371,-359,-585,676,-305,-674,-529,-280,-273,-436,-411,-151,-503,-279,-542,-831,-522
158596,190,570,223,-426,-106,89,-486,62,-101,-156,-130,-242,-142,-145,-471,-318,-387,-605,680,-312,-653,-477,-288,-286,-409,-410,-167,-520,-290,-561,-850,-572
158597,209,582,241,-415,-135,90,-487,74,-120,-143,-111,-260,-143,-155,-458,-431,-393,-608,670,-302,-653,-426,-278,-297,-413,-417,-154,-545,-280,-555,-856,-543
158598,227,610,265,-425,-127,87,-463,85,-106,-133,-106,-222,-150,-157,-467,-714,-288,-610,668,-308,-676,-419,-259,-273,-406,-423,-166,-530,-294,-560,-859,-588
158599,214,598,225,-442,-129,87,-403,98,-111,-162,-105,-175,-155,-150,-468,-916,-320,-588,640,-332,-661,-433,-230,-262,-423,-419,-187,-507,-269,-542,-819,-553
158600,189,585,224,-458,-118,104,-387,61,-132,-157,-97,-146,-171,-160,-448,-773,-377,-600,641,-311,-641,-446,-241,-269,-415,-416,-179,-555,-271,-551,-836,-535
158601,182,573,239,-452,-121,91,-448,97,-137,-170,-107,-176,-144,-162,-463,-527,-297,-612,631,-299,-645,-465,-266,-279,-411,-428,-189,-579,-295,-575,-874,-557
158602,160,566,222,-480,-137,68,-478,41,-153,-191,-107,-197,-158,-163,-466,-272,-318,-631,645,-299,-628,-470,-279,-290,-401,-405,-197,-560,-299,-564,-844,-539
158603,182,566,241,-478,-141,83,-465,7,-160,-211,-113,-222,-173,-186,-495,-96,-343,-636,633,-330,-630,-405,-286,-303,-421,-417,-167,-560,-317,-568,-857,-558
158604,230,616,271,-435,-105,108,-439,61,-130,-201,-124,-225,-153,-171,-504,-9,-326,-613,623,-347,-635,-363,-277,-284,-423,-429,-113,-561,-321,-590,-868,-556
158605,232,610,254,-432,-98,112,-440,49,-148,-178,-118,-230,-160,-186,-500,-102,-321,-612,625,-334,-661,-393,-281,-284,-435,-424,-149,-547,-283,-565,-848,-542
158606,227,588,250,-435,-111,114,-565,58,-127,-186,-101,-232,-140,-178,-495,-129,-287,-594,650,-317,-637,-348,-253,-262,-422,-406,-123,-512,-262,-518,-844,-456
158607,213,570,216,-443,-104,122,-561,109,-110,-187,-65,-253,-122,-173,-496,-203,-270,-564,679,-317,-653,-386,-233,-252,-427,-420,-134,-494,-262,-525,-856,-497
158608,167,564,167,-460,-121,112,-538,68,-119,-174,-85,-263,-113,-176,-499,-187,-317,-576,662,-338,-671,-398,-247,-256,-442,-421,-161,-496,-266,-562,-848,-562
158609,105,556,139,-483,-160,66,-520,36,-143,-210,-121,-318,-127,-179,-521,-151,-359,-574,651,-346,-660,-415,-262,-253,-412,-405,-125,-526,-254,-527,-817,-539
158610,103,557,158,-468,-143,100,-515,67,-136,-195,-108,-251,-142,-174,-489,-135,-334,-564,667,-312,-628,-402,-199,-217,-379,-379,-77,-439,-183,-451,-760,-488
158611,151,541,180,-490,-139,99,-490,0,-135,-184,-101,-188,-140,-177,-474,-170,-317,-563,682,-286,-618,-383,-171,-202,-383,-374,-62,-399,-169,-423,-708,-476
158612,107,516,156,-506,-164,73,-472,-13,-151,-183,-103,-186,-161,-177,-473,-196,-287,-582,657,-300,-615,-342,-188,-230,-403,-359,-44,-440,-195,-450,-715,-423
158613,83,507,128,-514,-163,55,-450,16,-152,-173,-97,-142,-148,-153,-457,-187,-267,-571,672,-299,-601,-286,-183,-239,-381,-351,-20,-420,-206,-496,-791,-412
158614,99,521,165,-483,-143,73,-456,57,-144,-185,-123,-121,-124,-159,-448,-180,-265,-554,699,-293,-579,-308,-184,-236,-385,-338,-36,-477,-221,-495,-825,-529
158615,110,549,188,-474,-142,74,-466,62,-133,-153,-109,-134,-109,-143,-429,-165,-306,-552,703,-256,-545,-295,-189,-208,-354,-319,-7,-464,-205,-448,-756,-445
158616,133,576,195,-456,-141,79,-496,71,-115,-162,-96,-120,-93,-144,-410,-127,-274,-515,701,-249,-539,-272,-170,-209,-336,-305,19,-449,-178,-439,-742,-396
158617,127,569,184,-470,-129,86,-515,81,-108,-159,-101,-152,-98,-133,-436,-122,-229,-519,705,-251,-545,-272,-174,-208,-342,-311,40,-453,-196,-450,-768,-434
158618,127,570,235,-464,-135,96,-514,58,-118,-154,-90,-163,-96,-134,-439,-112,-256,-542,700,-267,-552,-271,-195,-222,-374,-323,22,-484,-218,-485,-779,-455
158619,90,534,211,-457,-147,77,-489,44,-113,-158,-100,-176,-116,-153,-438,-118,-305,-542,676,-281,-549,-313,-194,-229,-378,-331,5,-496,-239,-483,-780,-468
158620,81,490,152,-500,-193,37,-511,20,-151,-183,-142,-217,-155,-172,-477,-168,-381,-583,639,-310,-578,-361,-256,-286,-443,-373,-84,-551,-292,-531,-832,-482
158621,108,505,181,-466,-182,48,-543,65,-134,-167,-116,-176,-133,-138,-456,-87,-237,-558,667,-286,-563,-413,-247,-267,-402,-354,-93,-523,-299,-528,-813,-493
158622,131,540,176,-433,-152,91,-486,107,-120,-172,-53,-144,-114,-138,-441,-114,-238,-553,687,-270,-569,-553,-203,-242,-396,-346,-111,-465,-273,-541,-847,-511
158623,143,542,198,-454,-155,93,-464,99,-120,-175,-61,-128,-115,-142,-458,-294,-256,-537,670,-286,-575,-222,-183,-234,-411,-372,-93,-424,-271,-561,-890,-456
158624,127,532,201,-460,-162,101,-510,78,-150,-162,-81,-120,-110,-146,-445,-347,-259,-530,677,-284,-571,-239,-198,-247,-418,-360,-76,-501,-285,-546,-817,-455
158625,121,506,197,-474,-130,96,-470,96,-113,-141,-76,-90,-94,-125,-429,-325,-268,-520,713,-259,-557,-306,-207,-228,-388,-318,-53,-493,-247,-502,-749,-390
158626,83,496,187,-500,-142,86,-491,80,-115,-150,-35,-130,-91,-130,-430,-320,-245,-524,711,-262,-552,-289,-181,-225,-392,-339,-67,-477,-245,-505,-802,-392
158627,86,504,202,-493,-156,85,-497,65,-143,-175,-37,-186,-116,-155,-431,-376,-269,-537,675,-304,-560,-271,-166,-257,-452,-383,-105,-499,-293,-572,-865,-478
158628,132,501,240,-479,-151,74,-500,87,-129,-173,-75,-169,-121,-154,-430,-396,-348,-541,676,-293,-543,-287,-187,-283,-461,-385,-123,-517,-333,-601,-876,-496
158629,140,493,238,-482,-164,69,-520,84,-124,-178,-104,-172,-116,-155,-435,-365,-223,-538,697,-307,-577,-308,-197,-278,-458,-376,-114,-484,-276,-538,-812,-429
158630,110,535,233,-458,-161,88,-486,64,-132,-176,-124,-188,-119,-170,-434,-286,-224,-547,699,-311,-574,-342,-202,-293,-461,-382,-126,-531,-300,-570,-849,-521
158631,130,551,231,-465,-162,69,-491,53,-155,-167,-84,-190,-130,-167,-439,-326,-284,-574,678,-314,-597,-402,-234,-304,-481,-400,-156,-572,-352,-633,-917,-590
158632,120,533,247,-477,-187,42,-530,60,-159,-176,-91,-189,-124,-176,-477,-446,-283,-581,643,-347,-667,-425,-252,-330,-520,-415,-203,-585,-381,-700,-971,-654
158633,122,513,251,-464,-168,55,-494,74,-119,-179,-105,-183,-111,-166,-471,-356,-282,-571,663,-321,-634,-389,-236,-333,-507,-427,-160,-566,-396,-675,-954,-625
158634,133,511,269,-489,-160,42,-479,93,-138,-177,-125,-174,-116,-158,-463,-274,-286,-565,658,-325,-634,-414,-251,-342,-503,-438,-143,-605,-395,-647,-920,-596
158635,121,497,279,-476,-166,30,-481,103,-117,-177,-124,-171,-101,-144,-444,-213,-252,-553,668,-305,-616,-451,-234,-318,-479,-390,-121,-580,-378,-611,-868,-550
158636,127,498,238,-453,-149,44,-484,82,-102,-166,-119,-160,-84,-128,-444,-198,-290,-536,688,-286,-589,-420,-207,-287,-444,-383,-89,-537,-328,-567,-853,-480
158637,133,511,209,-467,-155,23,-502,91,-125,-175,-145,-157,-94,-136,-455,-198,-320,-531,685,-292,-594,-401,-227,-305,-443,-390,-108,-509,-311,-586,-858,-512
158638,141,522,213,-474,-167,22,-517,96,-129,-209,-153,-157,-115,-152,-458,-198,-377,-537,697,-316,-617,-388,-239,-301,-464,-414,-103,-555,-353,-647,-912,-605
158639,113,484,168,-459,-176,7,-532,78,-123,-213,-167,-145,-120,-163,-486,-217,-375,-524,675,-325,-640,-430,-241,-324,-478,-425,-119,-565,-351,-639,-883,-579
158640,95,459,181,-470,-190,11,-498,62,-115,-212,-146,-172,-119,-167,-480,-188,-331,-549,653,-338,-625,-444,-264,-346,-481,-420,-134,-602,-367,-617,-851,-538
158641,98,492,183,-458,-162,40,-472,70,-135,-208,-131,-203,-122,-171,-458,-186,-328,-562,667,-330,-626,-425,-263,-326,-480,-417,-123,-580,-350,-616,-847,-504
