,Fp1,Fp2,F7,F3,Fz,F4,F8,FC5,FC1,FC2,FC6,T7,C3,Cz,C4,T8,TP9,CP5,CP1,CP2,CP6,TP10,P7,P3,Pz,P4,P8,PO9,O1,Oz,O2,PO10
91338,-38,112,-287,-78,256,513,-66,-173,40,-94,-371,-271,-166,44,189,88,-344,-180,269,222,-367,7,337,486,140,235,257,-456,-461,-376,103,-186
91339,-25,104,-276,-53,251,450,-120,-126,42,-102,-404,-393,-150,20,176,91,-375,-137,252,185,-373,21,363,482,135,227,194,-531,-476,-399,96,-234
91340,-24,74,-189,-34,248,387,-114,-137,42,-109,-407,-488,-149,25,162,-3,-314,-180,254,180,-411,9,349,479,121,244,202,-455,-428,-386,91,-241
91341,-8,85,-162,-9,257,405,-98,-112,55,-91,-319,-476,-150,43,183,-81,-299,-232,299,211,-392,73,287,501,143,250,227,-159,-320,-288,210,11
91342,-38,18,-235,-21,248,379,-91,-111,45,-100,-364,-441,-165,26,132,-29,-426,-249,308,199,-423,120,182,459,141,241,193,-247,-313,-260,320,297
91343,14,5,-307,-52,244,354,-173,-102,56,-141,-474,-485,-138,25,60,56,-543,-217,277,151,-518,8,115,437,118,172,8,-442,-390,-346,176,25
91344,74,13,-295,-75,261,323,-219,-179,75,-147,-482,-607,-98,28,57,-15,-333,-172,257,148,-589,-56,143,435,87,103,-67,-485,-484,-430,-14,-388
91345,29,-131,-343,-117,232,388,-344,-215,42,-142,-468,-646,-92,3,89,-29,-328,-217,246,158,-533,-67,127,428,99,162,33,-603,-446,-381,81,-289
91346,-28,-132,-289,-125,222,473,-322,-314,11,-134,-406,-165,-171,15,125,-121,-301,-217,228,186,-479,-76,169,456,122,207,34,-381,-347,-299,185,-218
91347,-67,-53,-263,-107,227,449,-232,-197,13,-123,-431,-119,-207,34,116,-370,-265,-223,215,195,-545,-8,185,461,128,167,-72,-248,-358,-306,106,-344
91348,-62,-4,-125,-91,241,477,-195,-37,48,-104,-477,-273,-142,48,145,-481,-219,-231,259,206,-539,45,213,498,148,166,-70,-191,-318,-320,66,-366
91349,-25,60,-46,-90,222,394,-217,-102,48,-124,-501,-371,-32,50,132,-582,-160,-154,299,212,-522,23,227,524,169,183,-21,-2,-215,-269,115,-317
91350,39,81,-201,-77,255,295,-238,-84,93,-134,-407,-615,65,50,122,-422,-309,28,332,198,-522,-11,93,495,179,182,18,-210,-277,-302,128,-202
91351,104,72,-311,-24,255,296,-172,-102,75,-128,-326,-785,-19,47,144,-229,-389,-100,313,195,-477,5,112,462,159,197,36,-455,-363,-336,113,-179
91352,37,72,-222,-22,250,342,-135,41,45,-121,-338,-1049,-115,30,157,-151,-488,-156,276,194,-449,27,216,492,174,220,84,-459,-334,-287,201,-74
91353,-34,102,-258,-89,250,338,-132,-10,65,-125,-362,-1146,-61,20,153,-86,-479,-109,291,212,-439,-4,246,515,196,234,110,-423,-289,-218,279,30
91354,-14,101,-259,-152,258,388,-112,-83,68,-103,-344,-754,-46,33,181,-21,-305,-111,326,222,-406,-23,287,560,209,271,100,-368,-263,-166,356,32
91355,8,51,-227,-148,261,361,-136,-114,28,-124,-374,-663,-111,24,204,22,-273,-219,315,244,-350,52,294,541,218,312,280,-240,-227,-115,444,206
91356,36,39,-249,-99,235,352,-165,-128,11,-119,-412,-822,-112,11,211,6,-293,-227,287,234,-348,-52,315,497,180,267,313,-240,-324,-322,145,2
91357,44,72,-161,-63,265,392,-154,-138,29,-98,-425,-685,-96,37,185,32,-314,-146,262,208,-385,39,267,501,171,208,236,-204,-375,-399,28,-147
91358,57,89,-173,-38,257,404,-114,-132,52,-105,-405,-331,-73,34,156,60,-362,-121,240,183,-421,106,255,489,153,172,86,-280,-350,-381,13,-382
91359,93,92,-153,-43,262,415,-112,-108,49,-102,-401,-207,-65,30,152,39,-302,-135,251,177,-465,133,310,523,156,145,18,-133,-317,-356,75,-420
91360,82,85,-177,0,267,399,-145,-57,58,-126,-442,-359,-79,19,148,4,-359,-156,260,175,-478,163,285,526,145,160,58,-183,-313,-307,166,-205
91361,106,88,-176,30,260,383,-124,-95,77,-116,-430,-444,-66,15,154,-24,-377,-138,252,176,-473,157,291,487,139,169,67,-278,-316,-332,136,-208
91362,70,54,-396,11,218,386,-136,-91,44,-153,-423,-489,-65,1,131,-74,-341,-120,252,182,-459,176,338,499,139,205,153,-121,-232,-261,228,-73
91363,19,112,-380,-8,243,353,-149,-63,77,-137,-400,-490,35,15,152,-77,-321,-103,289,194,-455,191,382,531,165,255,154,-12,-191,-224,255,-61
91364,-45,151,-345,-64,235,320,-219,-72,74,-139,-372,-381,128,25,133,-126,-383,-4,306,193,-451,167,443,546,174,233,169,-30,-221,-243,274,-28
91365,-87,143,-277,-48,224,462,-346,-33,64,-128,-340,-328,11,19,163,-251,-340,-51,272,196,-449,149,328,511,164,214,243,-396,-307,-314,285,59
91366,-79,130,-193,-65,228,504,-290,-74,17,-108,-269,-185,-240,-1,207,-343,-157,-220,217,183,-423,136,270,471,153,232,304,-324,-302,-266,306,33
91367,16,145,-121,-49,248,521,-160,-64,16,-88,-185,-266,-183,3,201,-306,-156,-215,231,194,-400,127,210,432,130,225,282,-383,-385,-391,169,-108
91368,71,120,-104,-68,260,470,-91,-11,35,-96,-189,-385,-101,4,190,-271,-219,-209,222,179,-449,85,187,414,103,161,127,-428,-419,-469,73,-236
91369,37,16,-138,-27,243,450,-108,-84,36,-82,-201,-409,-80,13,197,-247,-269,-198,255,184,-429,40,258,439,125,211,172,-353,-397,-400,146,-153
91370,-19,-20,-180,-65,223,463,-109,-114,24,-103,-196,-365,-97,1,187,-187,-373,-173,271,187,-432,116,223,466,133,211,146,-380,-379,-400,164,-150
91371,-56,3,-263,-71,228,463,-142,-68,54,-109,-238,-410,-27,20,156,-83,-358,-148,299,182,-454,121,231,487,143,181,122,-279,-299,-279,261,17
91372,-30,-60,-229,-16,240,483,-203,-57,69,-112,-302,-410,16,3,172,-104,-430,-140,319,195,-481,7,226,497,144,194,161,-240,-246,-205,374,139
91373,-4,-29,-113,-31,259,565,-188,-34,53,-125,-325,-607,-21,-21,158,-38,-530,-157,277,168,-523,-78,130,446,122,142,80,-383,-335,-310,222,-159
91374,90,-12,-30,-15,285,576,-201,-43,46,-101,-255,-768,-102,-3,164,13,-229,-129,253,170,-438,-39,202,479,141,149,17,-165,-237,-300,142,-296
91375,160,56,-65,-10,243,466,-246,-45,23,-103,-251,-762,-119,12,134,-41,-162,-151,267,167,-465,-24,180,495,147,134,-26,-140,-222,-301,83,-366
91376,183,59,-68,-9,235,353,-271,-25,45,-142,-407,-600,-43,12,87,-22,-274,-104,282,189,-490,102,249,524,167,161,37,-44,-173,-239,148,-195
91377,84,23,-121,-43,227,323,-257,7,60,-143,-434,-318,29,34,114,43,-322,-9,348,215,-470,128,413,567,215,172,-17,68,-100,-183,178,-229
91378,-27,15,-170,-103,223,374,-240,3,68,-126,-386,-391,17,62,153,30,-527,-44,333,222,-444,87,367,544,223,200,16,-260,-161,-191,243,-136
91379,-11,30,-117,-79,217,414,-209,-4,74,-117,-376,-1035,-2,50,178,33,-622,-59,271,205,-446,53,296,462,184,163,4,-517,-331,-294,132,-167
91380,7,171,-144,-27,224,428,-108,-63,53,-117,-311,-1246,-49,33,214,-158,-584,-169,235,206,-435,91,72,370,137,158,19,-747,-525,-422,92,-204
91381,38,313,-175,-56,238,493,-34,-191,35,-90,-234,-683,-174,36,237,-252,-366,-243,230,213,-450,133,90,383,139,199,33,-529,-477,-377,156,-175
91382,69,341,-161,-74,250,505,-49,-193,23,-91,-296,-240,-198,33,204,-229,-369,-310,226,216,-452,133,93,396,152,212,31,-313,-367,-303,171,-88
91383,62,299,-181,-104,251,457,-77,-117,29,-108,-363,-216,-162,7,188,-260,-516,-320,222,201,-449,108,10,347,137,161,71,-432,-454,-400,102,-53
91384,7,216,-267,-151,222,437,-109,-100,37,-112,-362,-578,-128,13,184,-240,-523,-250,263,205,-442,63,109,407,160,185,67,-305,-414,-369,138,-229
91385,3,181,-335,-121,220,423,-140,-163,30,-108,-370,-872,-134,31,166,-170,-444,-211,267,220,-436,-58,190,455,167,224,70,-132,-307,-288,194,-198
91386,-82,127,-400,-133,201,435,-189,-215,-2,-142,-370,-847,-177,11,135,-44,-625,-337,220,186,-426,-218,29,370,121,209,93,-465,-347,-271,243,31
91387,-140,112,-335,-179,211,405,-178,-253,15,-126,-350,-583,-161,8,134,-155,-578,-336,235,210,-413,-67,114,384,147,251,159,-376,-348,-238,316,144
91388,-85,166,-228,-78,242,407,-106,-237,45,-96,-347,-518,-133,23,126,-308,-541,-327,233,189,-487,-24,105,350,115,193,72,-497,-490,-426,8,-385
91389,-19,201,-248,-40,238,396,-101,-202,30,-115,-374,-561,-154,-4,102,-311,-617,-320,217,147,-557,-42,92,302,49,84,-68,-511,-537,-587,-244,-816
91390,-33,120,-276,-128,225,443,-122,-251,26,-123,-383,-534,-190,-7,93,-146,-633,-302,211,158,-530,101,122,339,109,115,13,-501,-486,-475,24,-376
91391,8,91,-216,-170,215,461,-150,-149,32,-120,-364,-615,-112,-6,97,-120,-770,-246,210,163,-502,121,36,324,93,133,30,-600,-585,-495,112,-71
91392,26,121,-158,-172,238,462,-176,-201,26,-120,-366,-637,-132,-23,93,-148,-638,-319,172,161,-516,133,-25,278,67,150,13,-732,-622,-541,31,-110
91393,42,86,-133,-152,252,457,-156,-290,-12,-110,-334,-622,-304,-20,120,-120,-426,-398,167,190,-456,126,68,309,98,207,98,-493,-499,-465,101,-62
91394,-8,78,-150,-116,231,463,-198,-252,-13,-93,-272,-622,-295,2,142,-158,-422,-352,185,192,-459,64,113,340,103,181,102,-437,-439,-423,91,-223
91395,-89,60,-355,-110,219,470,-240,-199,15,-110,-279,-614,-209,2,122,-284,-484,-348,188,179,-497,51,128,329,110,162,4,-499,-450,-443,31,-426
91396,-79,90,-291,-146,210,456,-216,-202,0,-127,-318,-627,-179,-21,133,-325,-448,-369,171,179,-484,40,66,321,89,160,-29,-506,-499,-464,37,-380
91397,-40,107,-260,-179,190,476,-147,-172,26,-113,-273,-519,-122,-21,172,-208,-482,-346,183,188,-447,19,-72,313,82,183,80,-653,-530,-480,17,-387
91398,-17,83,-326,-128,210,437,-162,-125,55,-127,-284,-581,-72,-13,141,-157,-533,-303,194,173,-474,-73,-50,322,92,180,109,-518,-550,-491,78,-320
91399,-32,72,-366,-81,198,445,-193,-15,50,-126,-281,-750,-170,-16,130,-95,-590,-267,183,158,-473,-142,45,334,70,155,27,-552,-532,-458,74,-286
91400,-96,38,-504,-83,179,483,-274,-25,46,-116,-311,-828,-125,-4,169,-116,-520,-195,220,185,-467,-26,214,386,97,170,30,-566,-441,-390,162,-173
91401,15,150,-472,-103,200,457,-249,-5,42,-123,-342,-753,-168,0,156,-296,-434,-187,232,207,-488,176,335,430,127,202,99,-302,-376,-347,148,-187
91402,73,228,-301,-109,207,392,-164,-57,32,-133,-334,-673,-269,-2,143,-308,-462,-256,227,195,-454,172,334,415,140,182,34,-85,-308,-343,112,-225
91403,87,252,-198,-107,234,387,-147,-239,22,-107,-376,-538,-247,4,155,-110,-570,-306,250,196,-472,138,233,401,128,178,-16,-369,-298,-256,165,-144
91404,37,216,-216,-196,202,434,-109,-288,13,-104,-330,-330,-191,20,160,19,-461,-241,285,203,-443,218,283,462,169,208,28,-240,-230,-180,262,-43
91405,-59,115,-233,-227,205,451,-105,-251,-1,-120,-383,-349,-201,11,189,47,-415,-157,280,219,-415,183,218,454,169,218,67,-222,-278,-222,312,-15
91406,-78,78,-164,-178,199,411,-137,-276,-3,-126,-456,-616,-193,11,173,75,-391,-143,287,219,-428,146,114,432,165,216,89,-297,-305,-231,325,21
91407,-65,58,-265,-177,212,501,-108,-237,2,-90,-374,-1044,-186,35,202,70,-292,-358,276,230,-429,176,85,386,146,166,48,-411,-401,-401,91,-95
91408,-25,99,-361,-135,247,504,-92,-101,36,-87,-349,-1043,-133,41,180,-77,-330,-313,265,212,-471,186,-23,341,117,115,-39,-554,-528,-592,-155,-385
91409,5,61,-386,-124,220,419,-79,-48,48,-84,-366,-773,-112,43,170,-215,-376,-285,259,222,-492,163,-51,363,121,165,13,-495,-440,-464,28,-299
91410,13,8,-360,-146,208,410,-100,-144,35,-87,-332,-681,-164,33,206,-263,-418,-343,249,220,-479,148,-34,349,131,199,73,-486,-423,-415,108,-176
91411,32,-50,-280,-179,231,482,-115,-192,38,-78,-290,-824,-176,41,202,-270,-397,-309,285,231,-442,150,30,379,166,228,121,-458,-374,-390,147,-131
91412,-17,-130,-299,-203,196,484,-133,-202,1,-88,-314,-946,-195,20,187,-276,-389,-343,262,221,-421,79,47,377,156,223,243,-475,-390,-335,227,-6
91413,-38,-36,-286,-194,177,507,-161,-241,9,-95,-315,-865,-213,13,194,-284,-370,-356,280,222,-389,122,72,386,174,265,351,-404,-331,-234,391,289
91414,-39,101,-286,-214,177,531,-206,-256,12,-108,-306,-771,-235,17,157,-252,-405,-353,275,208,-429,130,64,385,166,238,264,-396,-340,-264,319,242
91415,-16,206,-233,-189,185,456,-178,-257,4,-106,-313,-639,-239,17,159,-158,-403,-331,275,212,-472,81,99,394,164,184,102,-358,-352,-342,171,-160
91416,5,222,-219,-153,180,463,-195,-302,4,-86,-326,-427,-238,26,165,-98,-301,-245,287,227,-475,94,183,407,191,198,62,-247,-287,-303,154,-446
91417,11,156,-327,-190,181,529,-191,-327,8,-77,-307,-294,-223,41,191,-24,-256,-210,301,275,-414,121,263,428,216,248,151,-247,-237,-233,241,-380
91418,14,128,-345,-166,196,502,-190,-255,28,-90,-272,-522,-186,37,183,-43,-313,-243,304,265,-393,135,220,427,216,274,237,-310,-275,-228,269,-256
91419,-40,167,-328,-174,188,450,-199,-201,43,-85,-282,-545,-174,45,185,-82,-358,-209,318,273,-370,122,219,435,219,290,302,-284,-264,-231,292,-174
91420,-49,225,-261,-132,195,448,-217,-195,28,-91,-284,-506,-209,56,214,-101,-378,-270,321,272,-353,31,253,452,239,301,305,-214,-199,-174,356,-120
91421,-29,193,-366,-127,207,486,-239,-131,34,-86,-289,-520,-207,42,184,-43,-408,-288,331,257,-372,-30,298,473,235,254,208,-134,-148,-129,375,-109
91422,-31,201,-439,-119,204,423,-232,-106,51,-100,-297,-524,-152,26,197,0,-372,-207,334,267,-355,-115,315,499,244,246,118,-69,-117,-136,308,-217
91423,5,208,-352,-148,198,386,-281,-113,45,-110,-264,-632,-118,23,194,-41,-434,-241,286,232,-378,-139,294,474,232,221,83,-278,-196,-189,281,-182
91424,-44,204,-353,-212,202,418,-346,-133,51,-90,-228,-689,-59,59,183,-73,-404,-208,330,248,-400,-80,330,512,238,195,48,-240,-167,-224,194,-324
91425,-108,177,-402,-209,219,428,-251,-215,45,-88,-206,-576,-86,58,201,-156,-310,-197,349,267,-375,10,346,549,259,259,149,-163,-168,-236,203,-291
91426,-103,170,-340,-122,221,454,-163,-130,21,-73,-166,-564,-214,49,228,-251,-335,-233,334,282,-375,142,343,529,260,290,226,-172,-194,-233,216,-214
91427,-102,155,-274,-44,218,447,-137,-68,62,-75,-154,-554,-127,70,226,-294,-456,-196,367,286,-368,155,350,559,308,300,205,-105,-100,-124,291,-151
91428,-73,101,-246,-17,196,399,-179,-84,94,-101,-227,-456,-54,48,183,-127,-408,-181,354,246,-403,121,368,568,294,267,177,77,-63,-94,340,-21
91429,-114,70,-348,-60,190,394,-169,-99,103,-93,-264,-481,-41,78,206,-32,-301,-182,340,258,-382,28,250,545,284,281,250,-199,-105,-129,338,-16
91430,-179,141,-401,-49,210,390,-130,-52,87,-98,-241,-648,-55,99,226,-6,-447,-132,355,271,-319,101,176,514,300,317,353,-345,-164,-143,365,1
91431,-176,168,-279,-51,212,424,-211,0,93,-89,-344,-1018,-82,104,183,189,-470,-82,371,275,-338,157,314,557,308,310,375,-99,-110,-117,383,-50
91432,-175,182,-334,-94,181,443,-311,-65,71,-103,-346,-1385,-83,87,147,196,-538,-172,342,270,-357,16,208,525,269,286,344,-551,-172,-132,417,72
91433,-76,194,-342,-125,201,406,-280,-113,53,-97,-318,-1198,-98,79,166,130,-489,-243,336,266,-361,-33,192,499,261,279,269,-615,-250,-158,443,208
91434,-11,216,-304,-152,207,437,-238,-137,70,-75,-314,-1004,-114,65,189,15,-498,-283,318,267,-376,48,188,429,234,240,172,-720,-402,-323,219,33
91435,22,183,-321,-192,194,445,-253,-210,48,-77,-365,-974,-127,52,155,-153,-455,-286,299,222,-415,27,164,390,176,166,40,-698,-491,-514,-77,-355
91436,54,119,-405,-187,199,410,-223,-218,24,-92,-329,-786,-176,50,171,-227,-310,-271,285,208,-417,65,187,432,191,210,132,-577,-397,-402,69,-234
91437,-73,110,-499,-174,201,403,-190,-188,64,-92,-282,-496,-111,59,187,-147,-292,-172,342,265,-373,85,343,522,236,284,343,-384,-279,-271,231,-19
91438,-151,97,-551,-195,191,445,-237,-255,64,-80,-284,-368,-73,51,214,-254,-205,-206,356,270,-350,-22,359,550,257,313,429,-339,-245,-248,253,39
91439,-27,115,-494,-235,214,541,-183,-214,33,-79,-217,-369,-265,32,199,-375,-254,-313,289,243,-351,-50,175,456,215,259,298,-590,-291,-273,213,-123
91440,53,54,-341,-210,222,584,-190,-210,61,-76,-228,-447,-232,47,219,-316,-254,-339,301,228,-329,-8,102,444,211,222,238,-477,-322,-271,204,-189
91441,39,46,-353,-164,226,561,-244,-260,34,-84,-210,-445,-205,21,229,-132,-284,-354,309,230,-308,1,66,433,187,244,293,-374,-289,-258,219,-126
91442,57,102,-315,-160,251,562,-253,-285,26,-44,-195,-379,-204,18,188,-51,-370,-349,300,218,-338,65,21,389,172,234,277,-505,-283,-275,211,-166
91443,26,135,-319,-133,265,484,-315,-166,64,-75,-256,-484,-157,46,151,31,-461,-262,307,191,-401,20,38,410,159,165,158,-536,-350,-384,65,-251
91444,-2,107,-375,-128,217,384,-395,-83,73,-102,-323,-845,-137,25,132,-21,-412,-234,297,181,-436,-33,145,417,168,140,64,-517,-339,-362,114,-71
91445,-6,55,-326,-89,212,414,-408,-142,59,-99,-317,-1007,-127,3,158,-164,-312,-217,305,180,-443,-15,174,424,183,170,122,-476,-332,-314,257,186
91446,-16,134,-258,-140,223,414,-352,-216,42,-111,-305,-901,-150,2,132,-152,-293,-212,328,187,-462,-2,153,454,186,177,103,-535,-359,-317,228,-1
91447,8,198,-183,-73,224,379,-300,-135,89,-109,-355,-741,-110,39,123,-119,-235,-260,339,205,-431,63,243,460,203,198,132,-458,-321,-338,139,-322
91448,-10,176,-353,-108,207,406,-300,-152,70,-118,-394,-804,-156,35,139,-121,-382,-304,319,230,-407,66,158,447,199,227,262,-393,-309,-282,283,-18
91449,-35,155,-438,-149,187,380,-279,-177,73,-120,-418,-584,-184,43,126,-151,-522,-285,321,227,-423,-41,126,455,194,224,255,-473,-293,-219,346,68
91450,-26,150,-406,-104,192,336,-347,-24,111,-131,-442,-426,-125,31,80,-195,-523,-268,318,201,-464,-76,93,443,187,178,158,-549,-297,-268,277,-75
91451,-93,119,-425,-136,205,326,-331,-2,117,-124,-378,-534,-104,29,61,-209,-349,-271,313,163,-516,-139,86,417,146,112,46,-345,-347,-407,64,-382
91452,-87,52,-464,-227,182,345,-292,-231,78,-120,-391,-676,-125,45,68,-252,-128,-175,324,190,-511,-43,173,443,165,122,89,-145,-301,-357,96,-210
91453,-33,-55,-424,-203,167,403,-309,-302,49,-118,-411,-764,-153,41,87,-277,-250,-253,320,215,-532,63,164,435,183,128,93,-171,-266,-262,224,8
91454,-31,-101,-396,-179,189,451,-288,-277,51,-111,-383,-802,-149,47,95,-321,-226,-383,293,195,-542,34,168,410,145,101,55,-332,-319,-344,141,-179
91455,-41,3,-335,-139,187,353,-246,-230,38,-128,-425,-783,-166,27,77,-334,-218,-357,263,188,-554,0,100,401,115,78,59,-406,-407,-392,125,-215
91456,-38,28,-321,-157,187,252,-261,-138,26,-138,-473,-819,-251,35,76,-218,-189,-360,279,191,-502,-18,126,409,140,88,160,-328,-403,-358,202,-17
91457,-27,70,-314,-135,182,274,-270,-133,27,-140,-477,-890,-228,34,85,-112,-130,-334,300,209,-477,-65,208,420,150,127,191,-134,-325,-329,204,2
91458,-70,111,-299,-154,182,324,-298,-167,38,-132,-497,-860,-194,31,81,-78,-204,-334,277,185,-495,-73,106,404,112,117,125,-247,-382,-340,174,-143
91459,-127,95,-289,-150,188,364,-342,-150,64,-108,-429,-784,-181,29,80,-164,-171,-255,285,165,-526,-71,123,389,111,60,-49,-252,-417,-420,37,-477
91460,-147,139,-316,-196,180,390,-326,-134,53,-99,-367,-739,-170,28,125,-258,-213,-249,306,172,-505,-43,123,383,117,98,111,-407,-428,-380,162,-214
91461,-60,182,-242,-163,191,406,-258,-148,60,-106,-334,-936,-155,55,125,-284,-249,-222,315,180,-506,-62,221,418,111,108,140,-305,-398,-406,104,-245
91462,-10,160,-374,-112,176,355,-286,-105,65,-122,-346,-1111,-85,54,84,-303,-291,-242,325,170,-508,-113,275,409,110,76,39,-138,-399,-464,-4,-345
91463,-57,114,-461,-174,171,406,-333,-174,44,-125,-381,-853,-101,36,106,-221,-297,-330,276,164,-502,-60,265,364,96,66,86,-324,-466,-467,17,-287
91464,-3,212,-335,-162,196,504,-298,-233,33,-91,-382,-494,-250,28,144,-72,-127,-339,275,196,-441,-53,301,388,126,111,184,-363,-446,-430,53,-197
91465,0,286,-320,-186,183,391,-242,-215,8,-92,-347,-342,-316,39,173,-36,-85,-325,297,222,-408,29,259,402,151,155,189,-350,-395,-381,145,-121
91466,-20,230,-299,-210,176,408,-249,-228,24,-94,-299,-376,-248,46,197,-200,-100,-316,294,207,-384,95,236,395,161,165,214,-324,-387,-353,217,-21
91467,-11,139,-244,-197,196,437,-281,-188,35,-92,-299,-398,-238,64,195,-291,-113,-242,310,228,-363,62,258,409,173,182,266,-302,-369,-313,225,18
91468,-4,70,-259,-206,186,506,-266,-200,54,-84,-309,-445,-203,67,194,-218,-176,-236,319,251,-364,-4,228,412,178,196,288,-322,-362,-349,136,-194
91469,-24,29,-344,-188,175,490,-230,-191,66,-75,-298,-522,-160,75,218,-290,-265,-240,321,245,-365,-26,219,419,194,209,286,-406,-380,-394,53,-372
91470,-25,17,-376,-144,161,386,-309,-177,62,-103,-356,-507,-136,78,172,-369,-240,-193,331,239,-382,99,388,444,196,202,219,-249,-394,-383,96,-278
91471,0,138,-372,-82,177,350,-270,-102,52,-124,-441,-712,-160,74,120,-3,-217,-153,322,216,-400,151,441,472,191,176,148,-199,-345,-307,150,-189
91472,-7,231,-374,-149,191,341,-322,-70,61,-126,-436,-830,-157,66,126,153,-372,-148,329,228,-428,102,330,460,197,165,105,-212,-294,-268,212,-159
91473,-14,195,-431,-114,207,344,-456,-86,78,-119,-418,-663,-154,68,142,154,-625,-237,316,245,-444,60,191,421,203,225,189,-250,-252,-204,281,-111
91474,-26,203,-512,-97,181,335,-346,-265,64,-121,-469,-405,-220,71,139,114,-320,-322,304,226,-418,51,159,375,159,204,194,-298,-321,-278,173,-206
91475,-8,197,-492,-68,197,327,-270,-230,80,-126,-479,-363,-132,53,122,25,-322,-250,312,222,-437,-23,136,356,138,135,100,-400,-397,-367,99,-193
91476,-99,185,-495,-88,184,262,-318,-157,95,-131,-448,-696,-11,53,131,-47,-459,-218,308,213,-471,-129,72,360,124,115,46,-471,-455,-379,159,-122
91477,-201,232,-527,-131,183,274,-297,-150,69,-112,-365,-680,-151,75,176,-4,-261,-260,261,238,-427,-48,20,357,148,180,123,-504,-450,-363,244,-30
91478,-149,133,-519,-242,160,355,-292,-223,33,-107,-396,-727,-275,36,159,-41,-147,-347,237,223,-451,-51,43,348,153,172,142,-406,-384,-316,261,-35
91479,-58,16,-484,-250,170,384,-326,-259,58,-97,-438,-1026,-169,47,157,-92,-210,-367,278,229,-459,25,73,349,155,169,161,-516,-443,-353,182,-68
91480,-38,-56,-437,-190,190,417,-361,-220,50,-83,-426,-1060,-142,56,172,-111,-218,-345,306,244,-415,3,126,367,166,219,240,-582,-442,-350,189,42
91481,-45,11,-411,-148,196,431,-350,-166,29,-84,-388,-807,-208,66,218,-57,-228,-327,321,266,-325,-14,164,432,218,266,377,-493,-330,-256,345,233
91482,-27,140,-323,-104,190,377,-320,-58,55,-77,-437,-482,-242,87,205,-67,-184,-292,310,268,-371,15,172,448,206,212,248,-258,-328,-261,262,-150
91483,-55,105,-383,-95,167,381,-408,-12,53,-93,-483,-646,-203,52,200,-150,-298,-298,278,245,-419,54,43,421,195,197,237,-336,-276,-193,325,-194
91484,-91,144,-458,-127,173,422,-434,-28,51,-114,-461,-1030,-199,42,188,-193,-330,-289,267,202,-471,0,14,370,148,126,92,-519,-393,-335,172,-272
91485,-41,189,-413,-121,202,409,-388,-27,66,-97,-447,-1299,-171,48,180,-217,-332,-295,284,202,-536,-16,35,367,130,69,-12,-497,-437,-422,83,-278
91486,-104,131,-265,-148,192,368,-399,-70,49,-118,-473,-1372,-176,47,148,-346,-403,-356,235,191,-526,-17,-58,309,126,99,59,-501,-427,-377,143,-202
91487,-132,68,-247,-120,213,380,-381,-138,60,-88,-401,-1040,-190,61,181,-424,-365,-326,253,208,-511,-5,-55,336,146,101,21,-472,-413,-412,60,-351
