,Fp1,Fp2,F7,F3,Fz,F4,F8,FC5,FC1,FC2,FC6,T7,C3,Cz,C4,T8,TP9,CP5,CP1,CP2,CP6,TP10,P7,P3,Pz,P4,P8,PO9,O1,Oz,O2,PO10
15685,160,-24,111,66,14,445,29,382,74,-120,228,-119,228,-50,45,48,370,182,-30,-72,-76,12,348,7,-124,-106,46,20,82,-94,-202,-33
15686,172,-12,107,65,21,454,56,380,84,-115,233,-124,226,-30,65,81,339,210,-18,-79,-78,50,384,7,-122,-103,110,-20,76,-110,-202,26
15687,206,23,148,63,9,468,65,360,63,-117,235,-89,215,-61,59,90,409,196,-35,-91,-84,60,310,-36,-128,-139,87,-68,-8,-191,-267,-57
15688,216,58,159,71,16,476,98,383,49,-130,252,-115,211,-78,49,73,395,201,-51,-109,-86,82,312,-29,-122,-168,-5,-104,-72,-248,-284,-46
15689,181,46,102,42,13,468,114,400,50,-125,251,-170,212,-63,45,72,383,159,-62,-97,-67,105,321,-23,-144,-150,11,-166,-68,-234,-272,7
15690,166,13,85,18,11,466,66,395,48,-120,227,-163,199,-43,48,24,408,140,-58,-85,-72,57,335,-7,-118,-130,33,-110,19,-136,-217,8
15691,162,11,66,28,-3,488,45,358,55,-118,217,-138,194,-35,41,-103,353,169,-20,-86,-93,20,344,8,-114,-134,53,-46,36,-125,-230,-31
15692,181,10,59,30,1,460,38,337,36,-145,188,-150,202,-56,18,14,316,188,-40,-109,-129,45,400,-8,-157,-193,36,-62,22,-201,-353,-118
15693,226,41,71,54,20,470,60,341,36,-139,205,-142,209,-55,13,59,381,216,-44,-108,-126,61,377,5,-155,-205,-30,-20,54,-212,-362,-100
15694,268,78,115,72,43,491,85,361,37,-128,232,-88,238,-21,40,87,445,244,-30,-86,-85,65,380,26,-138,-170,25,22,62,-195,-324,-57
15695,246,48,117,70,30,466,60,365,44,-130,230,-63,254,-26,34,125,415,243,-33,-85,-58,78,419,32,-137,-161,62,8,56,-177,-304,-48
15696,297,89,190,112,57,491,82,383,68,-123,235,-32,284,-31,36,132,451,282,-5,-78,-56,102,449,63,-119,-127,88,35,109,-103,-266,-13
15697,318,123,218,109,58,501,88,426,56,-118,250,-23,302,-29,49,143,490,298,14,-64,-31,174,494,91,-70,-83,172,80,150,-65,-208,67
15698,340,154,213,102,53,505,121,436,74,-124,268,-25,309,-27,51,153,464,293,32,-35,0,219,492,115,-51,-61,201,124,174,-5,-148,123
15699,349,155,240,85,55,501,141,438,92,-134,232,9,305,-38,63,84,456,315,25,-61,2,176,439,96,-68,-68,145,52,86,-76,-184,56
15700,350,151,222,103,51,517,158,461,78,-125,273,9,316,-28,84,63,481,313,38,-54,3,191,470,98,-44,-47,175,34,91,-83,-211,16
15701,353,158,245,127,54,517,157,495,77,-129,279,0,329,-13,78,125,518,322,58,-23,-4,221,522,126,-45,-37,160,90,142,-58,-183,52
15702,352,162,237,120,49,508,144,475,93,-119,269,5,321,-29,55,186,494,339,58,-19,-4,217,491,119,-51,-42,164,73,150,-72,-187,51
15703,339,146,221,131,54,525,128,455,87,-130,263,-8,317,-36,43,168,465,338,36,-43,-49,185,463,99,-82,-71,157,51,135,-82,-190,46
15704,357,138,209,122,45,497,108,424,74,-149,232,0,304,-33,10,168,457,320,40,-58,-63,149,462,77,-86,-86,147,25,96,-97,-189,5
15705,348,131,211,141,57,499,138,432,92,-141,227,-10,329,-20,39,174,438,329,58,-39,-44,160,455,109,-57,-50,159,112,156,-41,-152,39
15706,324,126,219,129,34,496,111,431,113,-144,222,27,345,-10,25,201,420,330,72,-20,-53,187,451,98,-21,-30,189,46,146,-42,-182,29
15707,315,125,234,122,40,479,87,428,110,-135,227,58,336,0,50,168,454,327,82,-12,-21,173,446,123,6,-4,188,23,158,-37,-182,17
15708,282,93,221,103,4,444,78,438,87,-141,202,-14,321,-13,35,86,462,299,84,-25,-39,104,394,111,-20,-30,121,9,110,-84,-207,-12
15709,275,111,223,93,3,427,62,441,96,-149,190,-11,329,-4,10,48,441,302,87,-34,-62,101,426,113,-20,-45,94,-31,79,-92,-195,21
15710,254,103,187,72,3,440,62,435,105,-138,212,-21,318,10,24,38,498,284,90,-30,-43,107,417,109,-3,-43,95,-46,66,-85,-204,8
15711,257,69,163,74,-7,448,48,432,95,-129,192,-47,315,27,18,46,457,279,93,-9,-52,63,416,125,-2,-33,86,-39,67,-63,-216,1
15712,227,20,138,49,-28,401,5,403,89,-155,156,-64,299,37,2,64,420,279,75,-27,-82,41,407,100,-19,-67,70,-21,101,-61,-215,-21
15713,205,17,125,64,-7,408,3,410,100,-150,153,-25,311,30,30,85,375,303,91,-14,-84,46,478,126,-14,-49,84,-19,120,-43,-191,-11
15714,238,22,166,74,-7,438,20,418,88,-137,169,-74,288,12,61,94,389,249,75,-14,-89,20,409,113,-20,-33,110,11,138,-37,-186,-32
15715,240,25,142,67,1,435,30,433,97,-123,179,-96,302,9,55,122,394,242,55,-16,-87,23,361,102,-9,-23,106,66,187,3,-141,-23
15716,238,20,155,73,7,430,-1,459,75,-135,192,-90,299,4,67,12,408,271,76,0,-66,53,430,119,17,3,91,102,243,60,-75,39
15717,225,21,173,72,-3,424,-5,438,66,-139,165,-97,290,-19,61,-50,438,261,46,-6,-67,51,424,110,0,0,104,52,192,30,-94,33
15718,182,-15,154,61,-17,428,-18,428,91,-125,163,-121,300,-25,51,17,375,252,30,-16,-58,-6,396,84,-43,-23,89,-106,73,-87,-191,-71
15719,171,-26,113,43,-6,417,-17,418,105,-116,189,-129,304,7,75,30,304,243,65,20,-15,55,389,101,-18,19,165,-41,126,-40,-155,-30
15720,168,-17,99,55,-5,431,-13,424,98,-128,195,-106,293,12,66,73,308,230,76,4,-40,87,403,87,-9,0,101,-21,136,-39,-175,-36
15721,195,-14,152,69,3,452,28,433,100,-109,205,-59,308,40,105,127,375,266,95,19,-3,103,427,117,11,45,125,-35,163,-23,-151,-3
15722,159,-57,97,25,-23,408,-27,391,94,-135,156,-85,292,22,55,70,351,245,80,4,-6,59,359,103,-13,10,152,0,152,-28,-141,-34
15723,136,-88,69,24,-19,397,-81,348,77,-130,136,-79,277,31,49,7,362,245,79,13,-26,13,367,83,1,-8,80,3,145,-18,-162,-35
15724,132,-99,77,9,-18,392,-85,316,76,-129,132,-116,252,30,36,-17,300,235,66,-3,-46,-10,377,68,-7,-21,58,-1,150,-49,-180,-60
15725,138,-105,57,-1,-41,378,-80,315,65,-147,126,-119,236,11,21,-38,292,207,32,-14,-56,-24,398,54,-37,-14,80,30,163,-38,-195,-82
15726,180,-15,66,15,-15,420,-6,301,58,-137,136,-141,218,-7,28,-25,335,183,2,-26,-70,-13,348,4,-72,-56,14,-11,109,-84,-192,-52
15727,186,16,79,23,0,440,-5,319,61,-118,119,-145,216,2,54,37,316,184,-11,-26,-72,-17,318,1,-73,-84,41,-82,19,-144,-221,-73
15728,191,7,87,24,-17,405,-40,336,46,-118,153,-129,221,11,76,79,348,201,0,-24,-81,-11,346,22,-59,-71,57,-56,7,-117,-235,-59
15729,219,-1,103,21,-21,384,19,367,57,-144,212,-100,240,4,13,133,326,250,30,-13,-49,66,412,49,-10,-44,122,-29,68,-79,-209,-14
15730,238,23,147,58,0,396,8,376,72,-152,187,-27,268,2,11,160,384,283,58,-14,-49,103,455,95,8,-17,171,10,108,-82,-175,-30
15731,239,61,162,93,0,411,50,397,81,-140,190,-21,296,31,21,148,443,290,81,-3,-77,77,413,108,8,-19,78,41,121,-70,-163,-4
15732,240,52,174,65,-24,404,32,377,81,-150,168,-22,292,30,16,87,430,296,69,4,-72,55,430,104,-1,-14,49,12,110,-54,-156,25
15733,239,10,165,61,-26,392,16,387,91,-158,159,-30,299,34,-1,37,405,296,56,-3,-90,20,437,95,-40,-32,70,-60,59,-97,-183,-32
15734,239,-15,145,79,-32,366,-23,403,106,-160,139,-76,277,12,-10,-7,390,254,50,-37,-85,-4,432,75,-46,-60,79,-74,66,-100,-191,-23
15735,252,26,148,75,-27,374,17,384,79,-165,165,-101,258,17,1,17,387,186,30,-36,-74,-1,334,43,-37,-51,62,14,91,-63,-166,10
15736,199,-16,119,49,-38,355,2,342,75,-183,144,-114,245,2,-24,12,332,227,20,-60,-124,-38,395,47,-55,-79,4,21,129,-56,-198,-39
15737,193,-15,97,35,-26,361,-25,352,96,-166,147,-135,255,11,-13,12,354,255,32,-67,-113,-20,437,61,-48,-83,32,63,157,-40,-199,-63
15738,202,18,79,45,-33,366,0,380,81,-154,183,-174,240,9,10,-110,375,200,10,-44,-77,-13,396,44,-63,-57,65,55,139,-33,-163,2
15739,194,-9,71,25,-27,359,-8,391,56,-172,155,-162,236,-19,8,-83,332,193,-1,-37,-79,0,358,32,-86,-59,95,-52,87,-49,-147,43
15740,239,35,100,54,-11,415,35,388,77,-152,181,-64,255,-5,32,51,331,253,22,-16,-61,58,362,32,-69,-37,123,-111,17,-133,-194,33
15741,255,57,134,82,5,437,60,410,89,-136,219,-13,271,16,57,87,340,257,55,0,-15,78,380,38,-43,-38,123,-64,24,-158,-212,13
15742,269,31,137,78,-23,426,57,389,71,-151,232,-102,238,-3,42,108,383,210,33,-33,-53,46,374,18,-59,-65,100,-68,41,-168,-257,-41
15743,234,45,131,71,5,422,76,421,75,-140,250,-117,246,-25,55,122,339,209,28,-32,-40,33,361,33,-80,-87,118,-58,68,-131,-260,-23
15744,238,51,155,71,1,409,10,426,71,-151,208,-91,258,-16,58,143,334,254,35,-38,-16,9,386,43,-72,-81,142,-6,106,-90,-241,5
15745,239,39,124,55,-14,404,22,392,66,-167,208,-96,242,-25,23,128,344,237,19,-49,-33,41,377,30,-83,-76,174,-21,102,-88,-252,-33
15746,244,32,57,40,-8,367,30,386,67,-166,199,-94,220,-26,7,53,330,209,-13,-73,-51,34,322,18,-96,-74,138,-49,28,-128,-231,19
15747,243,21,68,74,-17,379,27,387,66,-179,180,-75,229,-8,28,48,356,209,3,-58,-50,70,356,33,-77,-34,179,-4,57,-95,-160,69
15748,243,25,99,82,-10,412,48,389,74,-177,183,-50,238,-3,14,56,367,221,29,-26,-39,62,373,40,-42,-35,161,-2,76,-70,-151,75
15749,229,18,122,72,-10,436,27,370,89,-179,194,-71,236,-4,20,59,345,227,28,-17,-23,54,426,49,-23,-17,181,-34,102,-27,-139,108
15750,228,30,127,75,-5,401,33,381,89,-172,188,-84,250,14,31,123,331,214,35,-25,5,72,398,69,-32,-9,208,23,128,-32,-151,85
15751,235,13,123,79,-26,385,26,394,93,-181,198,-101,262,-4,31,169,350,219,38,-27,-11,70,314,49,-45,-26,206,51,103,-40,-145,51
15752,231,-11,132,100,-16,368,3,407,97,-196,167,-79,274,-2,14,118,372,228,36,-45,-62,20,380,65,-48,-42,183,-21,102,-21,-145,34
15753,232,-18,130,91,-15,365,-32,395,110,-183,155,-70,278,22,22,96,348,243,43,-47,-54,70,458,79,-6,-35,179,-43,117,-5,-99,114
15754,213,-34,90,78,-26,393,-6,385,116,-147,187,-96,248,17,40,70,359,180,36,-33,-7,86,355,55,13,-7,200,-26,135,1,-67,141
15755,183,-18,79,89,-25,395,22,385,99,-146,187,-140,237,-12,30,111,318,155,22,-23,-14,131,220,10,-27,-8,190,-20,70,-68,-139,132
15756,188,4,84,84,-31,394,10,412,96,-163,170,-115,252,1,23,155,289,183,9,-31,-3,86,311,34,-41,-19,162,1,98,-40,-114,132
15757,217,7,106,59,-33,403,0,417,83,-144,201,-113,263,-3,57,138,360,223,4,-32,28,47,370,42,-31,-4,185,71,135,22,-102,107
15758,246,12,115,77,-21,418,10,378,76,-150,193,-74,253,7,65,160,388,257,5,-34,8,71,379,73,-19,9,189,67,152,37,-110,50
15759,248,16,141,86,-26,433,10,410,76,-137,192,-48,278,2,71,157,410,257,33,-40,-14,114,395,92,-14,10,204,74,171,32,-121,48
15760,253,37,157,111,-16,453,62,431,83,-115,226,-22,301,4,97,206,386,287,49,-20,41,168,466,113,13,31,273,22,162,28,-117,73
15761,279,66,163,107,20,469,92,456,90,-96,261,-7,302,34,122,170,406,305,74,17,98,220,450,136,30,52,273,63,179,62,-58,132
15762,293,93,192,109,20,488,116,477,80,-99,270,-22,282,18,123,94,444,246,42,14,72,221,392,79,-2,42,239,72,138,33,-49,161
15763,285,121,168,109,10,500,129,474,66,-91,259,-26,254,-14,107,210,417,232,35,-20,49,215,386,61,-10,28,257,54,143,31,-59,135
15764,266,81,155,103,6,473,100,438,77,-121,239,-66,246,-22,88,219,383,196,15,-10,36,213,364,49,-28,11,261,19,102,6,-72,129
15765,250,48,145,98,4,455,63,413,90,-139,217,-104,246,-16,81,196,359,174,-12,-29,24,150,335,13,-56,-7,240,-67,51,-40,-111,77
15766,229,32,118,84,-21,440,58,425,86,-121,213,-84,245,-13,70,204,380,184,27,-10,27,110,317,25,-25,14,229,-64,56,-17,-95,50
15767,260,75,138,120,23,467,85,453,120,-106,251,-35,290,24,101,223,405,230,71,31,56,206,358,75,22,72,253,5,116,64,-15,166
15768,293,118,164,135,-4,469,106,458,118,-122,246,-16,296,34,112,228,432,273,78,31,65,192,413,95,42,88,289,31,168,86,2,191
15769,255,85,158,107,-23,432,92,444,100,-117,248,-40,284,16,107,237,421,278,74,45,84,161,411,93,26,75,305,60,204,119,10,169
15770,226,25,148,96,-22,416,30,450,103,-136,232,-81,296,16,82,204,396,262,48,32,59,149,417,83,15,51,268,58,197,92,-19,138
15771,208,10,123,95,-16,416,32,438,104,-138,194,-83,275,-11,70,179,385,232,21,-4,35,123,377,55,-31,26,204,17,83,-32,-126,118
15772,218,26,128,94,5,427,44,438,104,-136,225,-90,261,5,83,176,428,220,12,-20,11,108,385,44,-26,12,179,-2,72,-24,-118,107
15773,226,31,135,113,8,446,53,456,123,-127,243,-60,291,0,89,177,429,274,23,-5,21,117,434,75,-8,24,192,-7,107,11,-92,115
15774,201,17,120,96,-12,431,25,457,98,-123,241,-74,275,-14,79,142,441,257,22,-12,49,83,395,59,-30,6,220,7,91,-27,-112,68
15775,205,30,114,92,-8,429,52,418,91,-123,228,-79,243,-21,87,82,439,194,10,-13,47,68,356,30,-42,-11,209,44,112,-20,-118,39
15776,179,0,90,77,-10,448,32,381,86,-125,221,-69,235,-10,71,86,345,188,-4,-33,19,83,348,22,-60,-14,122,71,130,-9,-111,71
15777,197,13,70,40,-41,462,72,390,71,-105,257,-84,219,-21,94,159,340,193,-6,-30,19,117,388,1,-51,-1,123,106,155,13,-90,81
15778,207,12,102,49,-33,473,53,404,69,-103,254,-125,217,-23,105,139,337,167,-25,-35,30,108,392,3,-39,-8,150,32,124,6,-98,46
15779,193,18,99,73,-14,475,49,388,59,-122,270,-129,194,-21,89,152,352,149,-38,-37,11,113,290,-21,-71,-27,149,-22,30,-46,-130,72
15780,202,18,88,60,-3,483,47,387,68,-109,251,-139,173,-42,69,178,370,160,-41,-34,-20,76,286,-23,-60,-29,139,-8,35,-65,-124,36
15781,218,31,86,71,23,492,67,371,61,-114,264,-129,189,-27,78,213,356,152,-36,-28,-32,83,302,-26,-65,-15,162,-35,29,-55,-99,66
15782,206,59,77,72,2,503,115,358,47,-100,307,-145,160,-23,109,195,320,112,-56,-47,10,98,263,-49,-65,2,160,-86,-7,-72,-97,51
15783,175,49,57,81,10,490,68,358,66,-87,251,-154,158,-43,117,125,303,106,-35,-36,28,99,252,-34,-76,-7,187,-80,34,-16,-49,63
15784,176,-9,93,74,8,454,30,369,70,-110,207,-153,184,-23,66,93,264,132,-32,-44,-22,52,330,-1,-70,-33,143,-83,82,17,-49,78
15785,190,-2,90,102,11,437,39,390,86,-126,213,-128,200,-15,36,78,273,153,-20,-59,-55,-13,318,0,-55,-59,73,-32,85,-57,-150,2
15786,196,12,97,96,5,445,30,383,95,-130,237,-170,190,-28,32,51,273,119,-43,-84,-46,-7,280,-28,-94,-79,57,-15,52,-111,-205,-93
15787,203,23,132,102,23,464,45,375,80,-132,245,-165,185,-44,48,5,299,146,-71,-78,-55,37,281,-51,-139,-90,91,-113,-63,-200,-239,-55
15788,208,15,154,100,43,441,47,404,97,-133,222,-126,211,-57,43,125,316,143,-74,-63,-55,34,296,-52,-107,-91,90,-156,-96,-210,-261,-13
15789,174,0,89,62,5,424,14,405,74,-159,207,-159,179,-64,21,84,255,95,-76,-81,-50,38,258,-58,-98,-79,120,-92,-19,-129,-211,-3
15790,169,6,43,92,8,411,-5,385,88,-157,207,-153,208,-34,24,107,260,146,-31,-66,-23,51,321,-20,-80,-58,170,-36,45,-96,-175,11
15791,190,-26,92,98,4,381,-31,398,88,-166,160,-108,249,-11,-5,106,333,249,-15,-69,-68,-29,399,29,-71,-65,114,60,134,-8,-126,16
15792,204,-30,112,99,12,361,-27,409,89,-191,143,-99,248,-24,-26,59,370,253,-9,-70,-57,-46,413,49,-80,-47,106,59,169,10,-106,44
15793,217,-10,115,111,9,369,-51,439,107,-192,151,-99,242,-15,-8,84,374,243,-6,-69,-45,10,443,39,-84,-47,138,84,103,-39,-138,66
15794,213,-12,104,112,4,391,-48,426,95,-191,141,-95,232,-30,-11,86,411,204,-21,-102,-81,0,420,12,-118,-87,114,18,46,-115,-220,-30
15795,216,4,104,106,20,401,-34,413,103,-187,168,-83,231,-33,-1,107,393,207,-45,-99,-77,28,316,-20,-124,-98,123,-82,-44,-179,-264,-25
15796,205,-18,82,81,-6,360,-31,359,68,-191,153,-75,228,-26,-12,104,430,228,-26,-90,-88,41,366,0,-121,-88,152,5,24,-117,-212,46
15797,196,-52,55,75,-8,368,-74,384,64,-192,129,-55,239,-19,-15,76,480,261,10,-69,-81,3,426,44,-95,-69,118,128,128,-27,-123,113
15798,223,-29,85,78,9,394,-58,405,65,-160,136,-25,254,-3,19,98,454,287,25,-49,-54,24,464,47,-58,-13,172,166,187,52,-68,157
15799,221,-6,63,57,-16,413,7,381,55,-126,155,-42,240,1,41,53,422,275,22,-31,-9,55,449,54,-45,4,226,135,139,20,-69,184
15800,199,21,90,47,-13,438,20,347,44,-150,196,-58,227,-4,34,54,419,257,12,-36,4,104,436,44,-46,-16,207,33,44,-48,-110,197
15801,207,36,76,49,-21,454,28,325,45,-134,222,-75,220,0,60,140,439,219,0,-37,10,127,408,30,-60,-35,238,63,43,-106,-172,97
15802,229,52,120,79,-1,465,45,412,66,-107,235,-84,237,22,75,166,481,218,8,-23,21,146,433,58,-64,-3,245,98,93,-83,-154,84
15803,246,66,135,98,25,494,73,432,85,-108,259,-79,261,44,80,184,464,227,27,-32,-7,203,424,52,-67,-13,222,65,119,-56,-139,125
15804,239,64,98,72,0,477,54,419,78,-121,228,-81,250,24,66,181,352,243,16,-40,-9,220,440,51,-46,-18,224,86,131,-29,-146,119
15805,244,47,93,79,-1,486,51,413,78,-116,223,-128,225,37,54,127,357,203,32,-28,-1,193,438,54,-61,-7,237,179,163,5,-116,131
15806,239,35,73,63,-25,476,53,393,80,-110,225,-146,220,15,24,99,361,187,-5,-47,-22,150,427,15,-70,-38,216,97,121,-39,-137,109
15807,197,16,80,52,-37,456,30,365,60,-146,193,-169,183,0,-5,90,322,149,-44,-85,-64,122,346,-49,-113,-60,186,35,51,-111,-180,102
15808,175,-14,64,50,-34,435,-17,387,53,-151,156,-139,173,1,0,69,269,178,-54,-88,-47,138,272,-50,-113,-69,186,-2,0,-100,-183,103
15809,165,-4,24,54,-18,437,27,359,51,-138,177,-156,161,-3,13,93,299,108,-79,-96,-25,108,239,-90,-136,-100,186,-138,-128,-194,-225,82
15810,179,19,10,43,-6,442,25,325,57,-153,189,-168,151,-21,28,85,285,85,-94,-95,-43,82,230,-124,-157,-100,178,-109,-139,-195,-206,60
15811,174,13,46,71,-1,460,11,348,60,-156,200,-151,183,-8,38,-49,276,138,-79,-103,-54,73,278,-57,-116,-78,163,-16,2,-100,-172,35
15812,177,5,70,103,-8,433,9,375,68,-161,200,-144,171,-11,-7,69,283,150,-66,-95,-84,58,288,-43,-108,-104,105,4,34,-115,-208,-4
15813,178,-4,46,99,-3,441,16,351,60,-165,182,-159,140,-42,-12,80,211,114,-97,-130,-113,57,219,-120,-174,-143,86,-105,-55,-193,-278,-24
15814,194,13,52,103,15,464,19,349,68,-155,202,-166,144,-47,-20,106,218,94,-121,-153,-124,54,227,-137,-198,-163,89,-232,-166,-307,-341,-40
15815,190,22,72,92,25,430,11,368,84,-153,172,-187,136,-39,-24,107,243,80,-124,-147,-131,4,185,-159,-193,-179,85,-285,-200,-329,-326,-77
15816,216,20,81,106,33,425,18,352,82,-181,144,-197,144,-42,-15,79,230,80,-126,-159,-136,-10,159,-163,-192,-193,49,-232,-149,-290,-340,-107
15817,185,8,35,82,25,421,2,345,82,-176,145,-178,161,-29,-8,67,211,89,-114,-143,-130,-16,224,-127,-190,-169,53,-212,-135,-248,-339,-105
15818,178,-23,41,48,-7,402,-46,351,72,-172,140,-155,166,-36,-27,36,231,110,-90,-133,-139,-28,276,-100,-172,-163,46,-177,-90,-224,-314,-101
15819,183,-35,55,65,-26,401,-52,329,79,-183,153,-169,162,-55,-30,5,229,116,-79,-128,-102,18,247,-102,-164,-147,79,-126,-57,-199,-286,-71
15820,210,-8,63,89,-5,424,-25,353,73,-181,176,-176,171,-45,-23,-5,223,99,-69,-121,-103,51,235,-74,-142,-159,81,-127,-21,-168,-262,-30
15821,213,34,102,112,10,435,-10,387,90,-161,159,-124,190,-38,-2,23,253,137,-54,-107,-108,61,258,-55,-138,-157,71,-100,-28,-172,-278,-19
15822,189,28,66,92,-2,448,-10,330,77,-172,148,-163,180,-42,-7,47,243,111,-68,-117,-109,58,257,-73,-136,-149,70,-96,-25,-173,-282,-49
15823,199,12,65,93,2,446,-25,356,91,-166,159,-194,171,-28,2,58,247,109,-74,-102,-125,67,247,-82,-118,-139,76,-140,-13,-160,-265,-62
15824,178,12,16,87,0,433,-13,336,71,-169,142,-206,155,-40,0,25,209,92,-95,-116,-106,7,250,-88,-139,-148,71,-153,-47,-186,-255,-119
15825,152,4,-19,78,-14,402,-30,307,62,-159,127,-206,160,-32,-6,11,188,93,-63,-108,-124,15,278,-69,-122,-151,29,-96,7,-163,-274,-109
15826,140,-25,0,48,-22,380,-60,282,36,-169,137,-197,174,-18,-31,46,222,98,-45,-96,-123,28,262,-67,-108,-137,29,-72,59,-107,-251,-89
15827,146,-15,-1,48,-28,392,-39,295,54,-171,148,-206,177,12,-31,111,226,118,-20,-84,-118,55,298,-28,-105,-132,77,-53,23,-162,-310,-102
15828,132,-25,-1,22,-55,385,-55,272,42,-173,145,-234,153,6,-30,111,237,75,-24,-100,-126,91,233,-70,-123,-148,91,-126,-30,-217,-314,-83
15829,174,-2,42,40,-13,409,-20,264,68,-157,162,-251,166,-4,-6,7,228,87,-9,-84,-88,62,214,-69,-101,-115,80,-174,-23,-168,-245,14
15830,170,0,15,34,-8,384,-21,265,81,-173,157,-247,183,-14,-1,-33,130,113,-24,-109,-80,24,235,-67,-118,-119,72,-172,-32,-158,-220,15
15831,168,-10,-14,45,-14,370,-12,298,70,-169,139,-250,177,-10,-22,11,159,103,-41,-105,-116,-6,257,-64,-123,-129,67,-122,0,-139,-213,-6
15832,140,-16,-39,54,-23,385,-20,292,57,-159,156,-247,152,-37,-18,49,180,105,-68,-130,-145,11,249,-86,-144,-167,41,-209,-60,-221,-251,-20
15833,159,9,-5,49,-21,415,-28,296,63,-144,173,-239,142,-23,1,-60,193,85,-75,-120,-110,42,197,-105,-142,-156,37,-236,-130,-310,-327,-35
15834,158,-2,-15,57,-23,416,-34,264,50,-141,155,-264,124,-17,-9,-67,179,78,-76,-122,-126,17,232,-112,-154,-150,37,-188,-116,-290,-351,-66
