,Fp1,Fp2,F7,F3,Fz,F4,F8,FC5,FC1,FC2,FC6,T7,C3,Cz,C4,T8,TP9,CP5,CP1,CP2,CP6,TP10,P7,P3,Pz,P4,P8,PO9,O1,Oz,O2,PO10
20741,253,516,279,282,-36,-203,104,275,10,73,75,-48,352,-59,208,-68,-26,-137,-118,96,0,233,192,-42,-16,272,185,-191,-91,11,76,-44
20742,268,543,284,282,-43,-221,92,271,9,89,90,-77,356,-58,230,0,-87,-151,-115,111,14,207,171,-39,-9,267,216,-250,-99,17,91,-40
20743,251,513,259,238,-35,-247,68,234,4,101,98,-96,365,-61,238,85,-85,-130,-96,125,47,239,202,-26,-2,292,269,-198,-47,70,136,93
20744,280,460,258,223,-37,-260,109,244,1,89,105,-187,374,-48,216,142,-90,-153,-94,109,39,197,189,-12,-1,304,265,-166,-21,76,128,49
20745,301,458,252,221,-40,-247,152,261,2,76,126,-201,373,-74,233,141,-18,-133,-87,123,52,214,197,0,15,305,252,-97,8,99,136,23
20746,306,481,262,225,-42,-236,161,272,2,80,144,-128,386,-66,245,111,26,-65,-59,142,55,238,275,40,33,337,257,100,93,167,199,72
20747,275,434,268,237,-53,-229,137,285,0,109,154,-122,406,-56,257,84,29,-61,-62,154,56,229,291,60,42,345,236,170,104,162,201,69
20748,255,427,255,246,-46,-282,137,255,7,101,176,-107,379,-57,262,96,-50,-119,-91,139,54,240,215,13,0,304,199,-32,-10,57,82,0
20749,227,466,254,244,-49,-391,138,242,13,110,144,-79,356,-75,246,97,-113,-151,-109,107,8,201,148,-37,-21,269,178,-248,-117,-36,19,-31
20750,207,481,245,230,-49,-195,134,237,14,129,130,-107,373,-86,241,76,-125,-139,-121,81,-6,193,151,-37,-39,233,155,-233,-88,-26,28,-50
20751,203,477,232,209,-41,-198,130,226,17,107,92,-101,391,-96,227,1,-43,-87,-116,58,-37,181,276,-5,-54,200,126,21,22,15,-2,-63
20752,198,444,229,215,-56,-220,87,218,17,89,90,-123,364,-108,196,-159,-56,-95,-139,17,-119,-22,239,-35,-103,123,-4,-14,-65,-99,-140,-217
20753,235,436,243,263,-45,-206,87,228,24,87,77,-139,349,-111,193,-212,-90,-125,-171,0,-153,-87,166,-87,-131,81,-63,-177,-171,-210,-223,-295
20754,216,412,224,244,-41,-240,90,245,7,68,55,-184,338,-106,180,-202,-128,-160,-188,-11,-155,-9,118,-111,-159,67,-58,-366,-229,-225,-206,-307
20755,200,403,216,216,-52,-264,68,242,-3,55,40,-131,345,-120,149,-156,-183,-141,-183,-19,-139,33,160,-89,-142,78,-23,-322,-186,-203,-177,-281
20756,165,394,184,185,-70,-254,66,223,-23,65,52,-192,344,-101,150,-60,-136,-146,-166,-3,-128,23,185,-93,-126,108,3,-258,-159,-165,-144,-219
20757,174,405,177,176,-86,-263,65,218,-2,74,54,-278,349,-70,156,5,-91,-138,-117,26,-88,52,165,-82,-96,136,45,-266,-156,-159,-142,-213
20758,169,388,161,183,-85,-314,68,213,-14,66,32,-214,368,-61,160,4,-115,-129,-88,42,-58,116,155,-40,-72,145,92,-173,-92,-93,-101,-154
20759,173,412,175,194,-71,-292,108,213,3,69,29,-111,377,-39,184,53,-77,-110,-70,74,-31,152,190,0,-37,169,86,-148,-83,-61,-71,-165
20760,182,460,169,175,-74,-277,130,183,-9,75,38,-100,348,-58,190,38,-76,-133,-73,79,-43,117,199,-3,-28,174,80,-138,-60,-61,-71,-189
20761,195,476,176,188,-51,-261,153,163,-6,74,68,-132,339,-53,202,31,-127,-137,-70,99,-42,129,184,-4,-18,206,110,-164,-83,-80,-45,-160
20762,164,460,130,150,-58,-254,144,116,-27,71,66,-153,329,-42,201,20,-158,-162,-84,101,-23,146,127,-28,-2,211,123,-265,-106,-94,-8,-102
20763,161,452,114,107,-73,-249,106,89,-41,81,22,-180,323,-47,222,-4,-107,-160,-80,138,-19,149,145,-36,-2,233,146,-295,-129,-73,17,-66
20764,127,427,77,87,-97,-258,53,64,-33,83,-8,-210,313,-42,210,-39,-119,-165,-77,120,-31,125,154,-27,1,223,110,-190,-106,-65,-27,-135
20765,107,412,79,90,-93,-260,34,64,-43,82,15,-186,320,-46,205,-71,-107,-151,-74,102,-43,40,164,-7,-4,211,62,-144,-108,-113,-104,-251
20766,121,424,80,115,-72,-242,90,38,-53,115,80,-195,317,-33,251,-34,-77,-172,-64,136,-2,6,180,3,43,278,115,-134,-81,-46,4,-114
20767,113,404,75,121,-92,-230,127,42,-52,100,102,-224,311,-42,256,-35,-100,-180,-69,156,6,61,148,-24,32,281,121,-213,-125,-71,-12,-122
20768,94,376,60,115,-81,-251,102,53,-39,110,89,-206,341,-37,259,-132,-124,-118,-60,144,-20,86,155,0,40,273,83,-166,-100,-66,-38,-184
20769,86,265,38,106,-78,-261,76,33,-47,101,57,-235,337,-43,242,-161,-149,-144,-46,154,-20,17,169,19,50,287,82,-16,-33,-15,-20,-181
20770,93,267,85,116,-80,-313,76,84,-29,94,59,-249,352,-22,222,-104,-201,-132,-58,158,0,20,189,12,67,297,120,5,-2,14,8,-149
20771,115,370,93,139,-70,-329,91,128,-15,85,71,-219,339,-5,199,-52,-238,-150,-66,157,-6,45,160,-18,56,290,116,-199,-105,-49,7,-156
20772,122,369,91,123,-85,-241,89,119,-34,85,60,-216,329,-25,229,-66,-179,-149,-78,131,-7,38,134,-23,34,278,84,-235,-125,-44,16,-176
20773,117,391,127,132,-65,-263,114,107,-45,92,17,-182,332,-31,197,-165,-153,-163,-88,122,-18,43,117,-24,39,267,114,-294,-111,-11,67,-103
20774,154,435,188,134,-56,-275,108,157,-43,89,17,-131,329,-39,158,-224,-167,-180,-94,92,-68,34,68,-53,12,220,66,-398,-162,-47,8,-205
20775,166,444,196,160,-50,-280,58,203,-38,77,23,-86,361,-52,165,-208,-136,-126,-102,78,-89,65,105,-40,12,225,56,-259,-101,-17,40,-163
20776,201,487,242,189,-47,-252,77,244,-25,101,31,-32,377,-48,171,-113,-77,-81,-77,100,-63,75,171,-15,15,232,103,-177,-48,37,99,-85
20777,201,514,258,191,-50,-231,89,246,-22,126,80,-124,350,-32,168,-48,-58,-108,-80,103,-53,111,155,-20,30,240,122,-179,-48,44,98,-116
20778,185,465,213,152,-58,-240,84,199,-63,125,67,-122,310,-73,181,-10,-79,-168,-135,82,-49,148,94,-78,-3,226,115,-256,-120,-22,47,-128
20779,145,448,212,164,-52,-256,75,198,-67,113,51,-82,287,-61,195,43,-104,-185,-147,87,-32,213,106,-78,-6,229,165,-295,-129,-25,107,-82
20780,130,465,185,160,-66,-318,77,180,-60,114,32,-77,277,-66,192,28,-94,-200,-156,85,-30,77,125,-84,-19,229,170,-242,-113,-25,87,-72
20781,69,459,156,131,-52,-288,56,148,-62,123,20,-183,276,-83,199,28,-90,-211,-169,77,-29,148,117,-86,-26,224,197,-222,-112,-17,69,-31
20782,59,427,120,125,-41,-213,48,130,-67,146,40,-213,274,-73,191,56,-149,-214,-166,74,-23,216,102,-100,-49,195,212,-240,-115,-16,107,-1
20783,103,407,104,126,-36,-221,35,107,-68,151,63,-234,267,-66,206,42,-142,-207,-150,51,-17,145,131,-85,-68,190,195,-238,-118,-20,100,-43
20784,119,393,48,105,-43,-239,34,51,-80,140,35,-263,255,-64,195,30,-199,-232,-151,62,-42,153,95,-103,-81,191,221,-281,-140,-23,73,-56
20785,122,403,53,79,-50,-240,40,8,-87,98,26,-266,253,-56,175,-22,-201,-248,-167,37,-63,86,49,-120,-92,167,160,-359,-187,-71,4,-105
20786,112,337,59,71,-69,-261,-4,1,-77,101,7,-243,264,-54,172,-153,-184,-244,-159,32,-92,-6,58,-100,-96,157,70,-252,-193,-103,-46,-169
20787,109,307,71,86,-76,-259,1,7,-77,107,-6,-219,292,-41,180,-204,-168,-225,-126,58,-89,36,108,-89,-64,167,41,-114,-115,-68,4,-126
20788,118,331,75,105,-81,-260,29,3,-69,112,14,-212,300,-8,198,-148,-161,-222,-115,94,-56,45,112,-58,-39,215,95,-113,-78,-38,20,-165
20789,63,285,32,96,-107,-280,18,7,-61,105,19,-243,272,-21,186,-83,-240,-224,-123,85,-50,62,49,-76,-44,191,134,-290,-152,-66,-7,-187
20790,15,289,76,116,-83,-259,36,50,-32,110,29,-203,311,13,206,-66,-181,-150,-71,131,-37,92,116,0,14,224,119,-142,-38,17,51,-88
20791,95,365,94,145,-89,-275,46,80,-44,110,42,-175,331,0,226,-1,-162,-143,-66,147,-28,89,156,31,47,250,83,-69,8,40,85,-44
20792,153,398,100,138,-89,-374,54,88,-64,84,28,-191,317,-23,208,-5,-167,-165,-65,138,-17,102,172,29,36,279,88,-60,31,72,113,-54
20793,186,337,148,153,-62,-288,59,121,-49,77,-22,-136,334,-18,199,-33,-189,-118,-56,160,-16,95,160,39,54,287,120,-164,48,97,140,-130
20794,194,322,117,139,-70,-270,6,133,-22,97,-6,-107,357,-4,208,-30,-159,-95,-38,176,6,87,207,59,89,306,149,-113,85,136,157,-81
20795,167,383,103,126,-80,-285,-5,120,-26,94,3,-184,346,-12,179,-51,-204,-147,-57,139,7,84,92,-4,64,282,92,-347,-90,23,93,-119
20796,157,424,122,136,-85,-310,-9,106,-36,73,-16,-211,334,-23,185,-70,-247,-154,-62,135,0,43,83,0,62,281,89,-299,-66,57,94,-113
20797,156,420,96,135,-87,-324,7,104,-17,94,-18,-216,368,-16,198,-41,-228,-113,-48,165,27,40,133,32,82,305,127,-225,-42,74,108,-101
20798,127,407,50,135,-78,-330,-12,62,-36,98,-32,-326,335,-23,196,-49,-241,-176,-55,153,26,84,83,4,99,314,146,-333,-63,52,137,-74
20799,139,418,25,131,-83,-334,10,51,-12,112,-46,-268,330,-6,209,-58,-228,-201,-30,157,23,73,125,30,108,332,152,-262,-23,128,206,-25
20800,101,388,16,119,-93,-331,3,54,-11,93,-46,-241,335,-9,193,-68,-208,-169,-51,156,18,62,179,38,106,310,129,-170,-44,109,161,-71
20801,76,336,-4,99,-102,-347,-45,14,-20,84,-56,-297,304,-39,163,-91,-229,-190,-74,125,5,33,162,7,77,288,96,-224,-147,-1,80,-173
20802,92,339,-6,117,-76,-355,-49,18,-8,92,-80,-269,328,-23,174,-117,-194,-166,-48,135,-25,46,194,9,86,285,58,-270,-84,47,96,-201
20803,116,368,22,125,-75,-353,-80,31,-22,68,-103,-278,335,-45,140,-172,-212,-159,-82,114,-67,-60,175,-12,76,263,20,-319,-74,60,92,-197
20804,124,340,11,133,-67,-336,-77,39,-13,75,-107,-353,314,-48,130,-197,-268,-186,-84,92,-64,-185,77,-32,66,247,6,-297,-103,35,68,-215
20805,145,332,28,136,-55,-324,-44,44,0,89,-80,-291,315,-25,148,-160,-208,-174,-63,116,-27,-102,92,-2,78,287,72,-137,-21,112,126,-134
20806,117,339,-20,117,-83,-324,-56,-8,-42,82,-69,-317,282,-42,153,-178,-205,-212,-86,113,-24,-7,45,-2,68,286,88,-67,-29,115,136,-83
20807,125,372,-9,105,-74,-307,-38,-7,-35,94,-69,-321,288,-30,148,-186,-276,-223,-78,128,-78,-22,48,6,77,272,45,-112,-7,114,103,-158
20808,128,442,-14,84,-74,-348,-44,2,-40,98,-73,-295,276,-37,160,-180,-337,-228,-96,100,-78,-19,64,-17,78,248,25,-202,-34,94,73,-219
20809,144,460,-16,109,-68,-295,-42,11,-46,108,-51,-350,251,-51,170,-171,-321,-240,-117,96,-61,10,59,-38,51,242,40,-303,-96,54,65,-186
20810,95,413,-17,120,-61,-189,-52,-8,-58,110,-7,-347,225,-44,180,-174,-305,-277,-149,102,-55,-11,-27,-86,24,217,30,-514,-251,-92,-2,-206
20811,58,339,-11,125,-60,-257,-70,-47,-47,85,-9,-405,209,-62,173,-197,-342,-294,-164,94,-75,-50,-60,-104,-1,197,14,-553,-287,-110,2,-230
20812,113,327,-7,144,-53,-222,-66,-50,-41,110,-31,-397,234,-72,180,-189,-354,-283,-147,82,-90,-85,-58,-89,5,179,-5,-383,-225,-90,-20,-282
20813,136,382,8,159,-32,-222,-36,-11,-31,104,-22,-380,243,-60,183,-140,-362,-295,-135,84,-67,-69,-107,-104,2,206,37,-489,-247,-93,-7,-246
20814,131,431,-8,153,-32,-241,-3,11,-27,104,-17,-426,222,-59,168,-126,-386,-350,-147,71,-73,-73,-161,-138,6,191,39,-501,-271,-118,-13,-231
20815,110,436,-21,120,-50,-334,-10,7,-48,118,9,-400,241,-49,189,-106,-390,-332,-138,90,-54,-35,-146,-106,19,222,42,-359,-214,-95,-7,-234
20816,83,401,-45,105,-57,-321,-18,-4,-50,99,-8,-441,248,-42,198,-109,-420,-329,-146,117,-46,-64,-126,-103,23,236,49,-379,-218,-71,-24,-229
20817,60,338,-31,97,-77,-298,-27,2,-51,92,-32,-465,256,-43,196,-157,-426,-328,-143,87,-44,-42,-145,-139,11,220,32,-471,-263,-104,-21,-262
20818,80,326,-10,119,-100,-317,-66,58,-12,88,-86,-386,284,-31,171,-281,-407,-298,-123,86,-81,-31,-130,-146,0,201,-13,-483,-271,-139,-52,-294
20819,57,301,1,132,-96,-337,-110,94,2,85,-101,-234,310,-12,165,-248,-343,-258,-118,92,-109,-34,-63,-127,1,180,-4,-460,-292,-169,-72,-235
20820,54,298,2,126,-92,-375,-136,58,-12,71,-95,-296,276,-16,161,-205,-264,-283,-122,90,-95,-37,-9,-112,14,201,14,-307,-218,-87,-40,-212
20821,64,284,-35,109,-97,-379,-152,36,-12,85,-90,-408,253,-25,158,-258,-280,-330,-132,95,-113,-56,-37,-106,-8,176,-24,-213,-180,-91,-54,-283
20822,74,296,-31,107,-100,-364,-110,7,-21,85,-60,-376,239,-24,164,-295,-350,-328,-140,87,-95,-20,-74,-122,9,177,6,-328,-192,-73,2,-166
20823,45,307,-22,94,-106,-373,-122,-2,-44,75,-100,-319,213,-21,118,-339,-356,-327,-161,66,-127,-27,-92,-126,-6,163,8,-432,-219,-79,-10,-224
20824,24,292,-26,96,-105,-376,-146,-23,-68,66,-98,-364,199,-31,87,-327,-348,-341,-175,45,-135,-54,-92,-137,-45,133,-32,-366,-254,-158,-71,-307
20825,3,308,-67,78,-102,-374,-146,-19,-49,67,-105,-361,219,-41,102,-279,-346,-319,-167,52,-150,-36,-94,-122,-36,130,-25,-412,-258,-135,-50,-241
20826,-19,282,-80,58,-111,-334,-110,-15,-40,73,-137,-334,245,-15,105,-227,-321,-280,-159,59,-134,-64,-56,-92,-45,149,-14,-415,-231,-73,7,-213
20827,-7,267,-39,80,-104,-323,-87,10,-60,85,-146,-337,270,-10,96,-157,-275,-268,-144,65,-112,-88,-52,-97,-22,178,7,-467,-219,-59,23,-185
20828,44,257,7,107,-104,-316,-104,41,-41,88,-161,-296,282,-6,94,-151,-241,-223,-101,74,-136,-42,0,-53,22,206,28,-375,-153,-9,78,-122
20829,12,263,3,73,-95,-337,-119,46,-53,102,-125,-258,281,-11,107,-118,-259,-214,-110,67,-116,-32,25,-44,33,239,85,-263,-101,45,130,-55
20830,-5,218,7,63,-91,-434,-160,46,-60,81,-93,-243,286,-4,112,-130,-326,-225,-110,93,-73,-45,5,-55,47,255,133,-380,-125,57,163,-22
20831,-20,125,-36,54,-123,-408,-177,43,-59,68,-100,-239,279,-7,109,-188,-304,-195,-95,86,-84,-12,50,-39,47,246,97,-370,-119,37,149,-120
20832,-96,140,-45,56,-138,-349,-183,44,-65,63,-130,-290,288,-22,89,-179,-276,-203,-97,84,-104,-21,100,-37,35,222,65,-319,-116,10,118,-179
20833,-89,178,-37,85,-127,-398,-184,68,-55,69,-128,-268,309,0,98,-152,-250,-174,-82,97,-87,-15,121,-24,45,238,88,-210,-37,61,183,-52
20834,-58,163,-63,59,-143,-401,-173,62,-46,43,-166,-273,291,11,72,-158,-248,-168,-94,91,-86,-18,131,3,69,251,89,-122,30,118,218,3
20835,-17,186,-62,60,-160,-445,-149,77,-45,26,-149,-304,297,8,58,-202,-266,-218,-108,75,-131,-40,64,-51,45,214,38,-189,-114,-23,71,-134
20836,-8,208,-28,69,-147,-502,-142,85,-44,33,-169,-296,320,12,48,-235,-218,-200,-102,45,-183,-70,39,-62,16,166,-32,-189,-151,-96,-13,-275
20837,-32,188,-17,57,-157,-457,-173,83,-44,30,-204,-273,333,18,37,-231,-200,-164,-76,58,-165,-78,57,-21,47,190,-14,-244,-120,-38,39,-248
20838,-36,188,-29,51,-151,-517,-156,63,-35,32,-192,-238,339,26,69,-187,-220,-177,-59,89,-136,-90,48,-3,75,211,-7,-348,-153,-51,44,-259
20839,-60,179,-52,15,-169,-462,-136,37,-59,36,-177,-294,316,25,83,-190,-269,-217,-73,92,-118,-87,-22,-39,68,214,-32,-492,-251,-85,-6,-318
20840,-66,158,-77,-3,-180,-446,-156,2,-70,43,-178,-306,315,41,104,-252,-288,-204,-54,100,-107,-143,6,-26,92,224,-21,-423,-209,-59,11,-262
20841,-74,86,-80,-8,-185,-453,-174,-7,-83,26,-175,-262,323,57,115,-303,-241,-172,-37,128,-116,-176,66,-1,125,241,-13,-276,-123,19,78,-170
20842,-65,103,-95,5,-162,-406,-147,-1,-36,63,-150,-319,339,80,162,-283,-254,-171,-18,169,-90,-135,55,-1,138,266,19,-268,-115,27,82,-199
20843,-94,143,-121,5,-177,-415,-158,-26,-68,58,-133,-348,316,77,148,-203,-230,-169,-30,165,-61,-99,51,6,140,303,89,-225,-84,63,108,-194
20844,-61,190,-96,14,-163,-374,-114,2,-96,70,-100,-301,318,58,184,-131,-186,-158,-33,177,15,-11,139,31,170,347,213,-59,15,126,192,-143
20845,-36,232,-50,15,-169,-379,-96,29,-78,83,-99,-242,311,65,201,-171,-181,-148,-28,185,15,4,166,40,163,347,179,-23,31,129,187,-126
20846,-18,251,-33,25,-144,-369,-96,56,-65,83,-56,-253,334,61,203,-174,-65,-130,-12,202,0,-8,203,76,168,368,117,46,93,218,262,-12
20847,13,243,6,95,-132,-353,-64,95,-43,90,-63,-238,370,59,204,-143,-136,-125,-15,193,-11,54,163,44,173,340,77,-173,1,151,206,-15
20848,5,245,31,95,-121,-338,-43,93,-33,78,-22,-237,364,56,209,-99,-157,-121,-29,174,-2,202,89,15,154,303,109,-353,-81,55,105,-110
20849,-12,202,34,78,-143,-348,-73,92,-40,64,7,-215,353,36,190,-108,-165,-152,-58,157,4,120,104,14,128,302,130,-331,-80,80,155,-88
20850,23,219,64,54,-145,-364,-80,90,-31,57,-2,-173,328,53,190,-95,-144,-175,-77,146,-4,-16,110,-14,107,290,135,-357,-75,72,167,-98
20851,80,272,99,94,-133,-377,-72,148,-19,62,-36,-160,333,33,202,-63,-122,-159,-76,152,0,63,133,-13,109,295,156,-297,-55,85,142,-70
20852,105,282,86,135,-114,-373,-53,147,-17,64,-75,-155,323,21,184,-93,-123,-162,-91,145,0,88,133,-16,95,290,146,-226,-42,96,158,-60
20853,93,289,83,114,-119,-398,-74,138,-32,67,-68,-156,317,13,179,-165,-127,-161,-106,113,-32,73,155,-22,71,270,125,-201,-31,101,169,-50
20854,83,279,91,111,-132,-385,-98,121,-44,56,-63,-178,323,0,174,-156,-148,-172,-99,109,-37,68,137,-34,56,256,100,-210,-23,108,177,-42
20855,63,294,105,101,-118,-346,-39,124,-45,75,-46,-163,336,7,173,-106,-140,-153,-94,123,-44,91,160,-33,72,254,93,-211,-31,93,148,-68
20856,40,277,87,93,-125,-330,-50,143,-43,75,-12,-155,346,3,189,-109,-114,-138,-74,114,-53,85,197,-5,71,241,93,-158,-13,91,124,-72
20857,20,269,43,49,-144,-322,-119,99,-62,60,-8,-169,335,-1,168,-219,-69,-121,-86,104,-72,86,191,-2,46,220,73,-114,-39,38,90,-72
20858,4,283,32,46,-157,-318,-126,86,-67,55,-33,-159,324,16,161,-277,-75,-104,-81,107,-82,29,187,5,52,218,63,-97,-36,46,83,-89
20859,6,267,2,24,-137,-376,-93,96,-61,47,-51,-167,321,32,163,-222,-111,-92,-60,120,-59,53,170,29,67,222,84,-116,-16,75,111,-71
20860,9,249,-9,14,-144,-423,-78,68,-77,46,-65,-214,333,24,152,-155,-141,-125,-79,108,-79,48,142,10,54,226,70,-146,-48,34,103,-76
20861,19,256,-9,15,-131,-435,-40,78,-72,66,-47,-246,351,36,155,-78,-94,-118,-72,107,-72,10,164,17,51,239,89,-102,-25,76,138,-61
20862,24,263,-19,41,-131,-348,-8,89,-67,86,-31,-218,328,27,160,-79,-129,-135,-84,82,-57,-21,140,5,49,229,95,-145,-1,106,170,-45
20863,15,242,0,79,-124,-339,-6,111,-57,87,-18,-138,334,20,159,-130,-166,-102,-68,89,-71,13,168,26,67,242,108,-89,47,151,229,48
20864,31,214,2,92,-111,-371,0,140,-49,69,-54,-141,327,-2,134,-153,-124,-109,-60,77,-88,-1,185,6,66,233,101,-192,-45,91,178,21
20865,46,249,63,113,-100,-340,19,157,-25,59,-36,-192,337,-10,135,-117,-166,-131,-86,74,-62,-20,163,-23,60,224,92,-392,-173,3,115,-78
20866,53,327,122,139,-87,-368,23,196,4,71,-9,-106,375,-3,167,-39,-52,-91,-64,65,-23,40,262,19,79,222,98,-378,-148,-17,53,-185
20867,82,350,151,148,-83,-430,-17,220,15,69,7,-84,389,-6,180,-32,5,-72,-52,85,-13,77,288,27,76,243,84,-250,-76,8,71,-203
20868,96,258,126,139,-101,-343,-56,216,11,62,23,-98,373,-19,161,-75,-46,-50,-63,79,-53,6,207,32,95,235,66,-184,-30,61,104,-149
20869,77,185,127,149,-87,-302,-61,214,6,57,13,-130,382,-20,160,-130,-94,-82,-72,69,-59,0,122,33,81,218,41,-223,-64,51,65,-178
20870,96,134,138,161,-97,-313,-95,197,-2,48,-45,-194,369,-30,139,-179,-111,-107,-75,53,-64,-5,113,-2,58,223,50,-278,-87,29,61,-189
20871,139,204,139,159,-78,-309,-58,197,0,51,-89,-220,362,-16,113,-143,-144,-139,-80,73,-80,-21,98,-19,49,207,54,-284,-106,10,44,-200
20872,113,237,108,165,-64,-325,-27,193,14,57,-86,-112,373,-9,117,-112,-153,-110,-72,77,-81,-9,114,-6,60,215,51,-223,-57,73,85,-148
20873,21,233,61,151,-89,-366,-74,147,10,43,-114,-77,359,-15,120,-153,-131,-123,-81,69,-85,-77,154,-1,64,208,31,-97,9,133,137,-120
20874,-10,217,48,146,-84,-363,-118,111,14,36,-112,-120,353,-2,104,-157,-102,-131,-75,82,-86,-25,178,-4,56,214,52,-31,43,168,171,-119
20875,52,234,63,162,-64,-375,-124,104,17,44,-100,-161,329,9,96,-150,-108,-144,-82,67,-103,37,151,-32,31,208,28,-147,-59,73,87,-187
20876,49,266,61,133,-84,-361,-133,111,18,53,-118,-134,339,14,105,-152,-57,-148,-110,60,-95,34,176,-45,28,203,47,-156,-117,38,80,-130
20877,-14,227,35,125,-100,-375,-132,90,-10,46,-125,-127,302,-10,119,-178,-140,-185,-119,65,-87,16,136,-63,28,216,70,-132,-49,113,152,-79
20878,16,209,30,115,-107,-418,-158,108,-21,47,-123,-153,284,-14,125,-176,-168,-205,-137,61,-87,-64,85,-82,11,183,25,-215,-73,63,83,-199
20879,55,198,56,116,-109,-452,-164,126,-35,38,-131,-198,298,-24,110,-152,-180,-215,-136,49,-119,-87,50,-94,-28,174,-19,-267,-125,17,19,-275
20880,88,219,100,129,-90,-398,-130,149,-3,51,-84,-164,330,-9,139,-121,-149,-157,-121,67,-101,-38,93,-51,0,170,-15,-259,-119,43,39,-263
20881,87,223,106,155,-83,-394,-105,165,-17,64,-49,-211,324,1,166,-114,-120,-149,-104,90,-59,19,108,-32,39,201,7,-149,-79,52,32,-221
20882,117,279,139,160,-75,-376,-82,167,-37,52,-40,-217,297,-3,148,-131,-108,-198,-122,86,-58,95,72,-42,38,206,21,-162,-88,52,17,-193
20883,128,335,136,152,-65,-412,-46,167,-26,57,-31,-146,298,-20,158,-129,-74,-188,-120,77,-45,98,97,-49,15,206,24,-256,-94,59,33,-195
20884,153,359,132,176,-50,-422,-14,157,-10,45,-62,-133,308,-23,144,-105,-63,-164,-126,50,-66,72,144,-28,3,195,10,-184,-52,94,49,-195
20885,148,331,138,196,-38,-344,-9,178,0,51,-41,-138,320,-45,127,-106,-122,-145,-142,25,-93,53,115,-52,10,179,3,-218,-67,71,44,-147
20886,155,301,155,217,-15,-341,0,184,20,53,-23,-144,361,-42,112,-48,-28,-100,-114,29,-99,11,170,-20,22,179,27,-77,-10,81,51,-168
20887,152,290,156,216,-40,-333,2,210,20,54,-27,-108,371,-28,84,-68,23,-81,-82,28,-119,9,215,7,32,175,20,81,33,105,70,-204
20888,130,271,135,210,-60,-316,37,229,11,62,-80,-88,374,-27,79,-102,-66,-119,-93,25,-124,-8,154,-4,13,160,8,-74,-36,90,88,-144
20889,64,261,112,175,-71,-314,22,222,30,60,-77,-90,372,-31,83,-116,-145,-118,-90,18,-132,41,109,-23,12,159,7,-250,-133,40,55,-130
20890,30,155,64,112,-99,-360,-42,192,4,47,-54,-118,344,-31,78,-159,-138,-139,-92,12,-165,-17,115,-52,10,136,-34,-278,-151,10,2,-147
