,Fp1,Fp2,F7,F3,Fz,F4,F8,FC5,FC1,FC2,FC6,T7,C3,Cz,C4,T8,TP9,CP5,CP1,CP2,CP6,TP10,P7,P3,Pz,P4,P8,PO9,O1,Oz,O2,PO10
117556,-353,-369,-59,-941,-357,295,-75,-67,-26,-228,27,-52,286,-95,-660,205,-143,-228,-336,-780,-423,-14,155,-105,-108,-147,169,-319,35,-263,-322,-246
117557,-319,-395,-53,-940,-363,309,-57,-59,-12,-211,38,-47,292,-100,-661,230,-173,-252,-327,-771,-421,18,83,-96,-81,-112,166,-303,69,-183,-239,-175
117558,-302,-322,-69,-920,-331,328,-42,-65,-13,-190,62,-70,278,-105,-652,204,-132,-257,-303,-764,-393,40,47,-79,-69,-120,227,-296,99,-196,-237,-157
117559,-320,-327,-58,-917,-321,325,-26,-40,-21,-185,56,-106,288,-101,-641,120,-45,-246,-300,-759,-374,36,104,-60,-60,-112,234,-262,107,-187,-219,-175
117560,-354,-355,-37,-918,-337,317,-48,-18,-8,-191,36,-171,290,-86,-646,60,34,-232,-312,-757,-382,25,139,-57,-63,-107,166,-218,116,-178,-223,-184
117561,-317,-318,8,-897,-322,344,-30,-22,3,-183,30,-138,294,-57,-646,46,-10,-212,-295,-730,-381,24,158,-31,-47,-85,147,-184,159,-151,-233,-199
117562,-325,-333,9,-909,-306,334,-54,-67,5,-193,29,-113,312,-63,-653,42,-99,-189,-287,-741,-375,22,145,-14,-29,-96,126,-185,165,-149,-234,-188
117563,-366,-337,-3,-936,-340,304,-51,-80,-14,-206,20,-205,294,-73,-666,-96,-26,-235,-313,-762,-420,-10,87,-57,-51,-105,121,-277,105,-168,-193,-187
117564,-357,-333,7,-926,-346,314,-55,-63,-23,-226,27,-214,280,-93,-656,-758,3,-260,-338,-755,-424,-12,71,-81,-87,-124,114,-346,81,-165,-176,-242
117565,-320,-316,25,-893,-320,343,-46,-19,-4,-210,74,-200,301,-75,-637,-910,-7,-241,-333,-731,-423,10,82,-80,-61,-101,145,-316,113,-123,-139,-272
117566,-343,-332,-12,-916,-315,323,-47,-42,-14,-212,69,-173,283,-68,-630,-658,-11,-245,-330,-735,-381,0,100,-67,-59,-99,128,-266,127,-154,-162,-246
117567,-371,-364,-19,-915,-342,306,-83,-74,-37,-233,55,-133,270,-88,-640,-618,-38,-259,-365,-757,-409,-34,118,-84,-99,-180,13,-267,69,-330,-446,-348
117568,-388,-355,-42,-913,-353,293,-94,-63,-30,-233,73,-127,259,-94,-645,-414,-77,-271,-376,-749,-415,7,117,-91,-97,-153,71,-280,69,-293,-401,-331
117569,-363,-327,-21,-917,-314,317,-45,-51,-6,-208,43,-95,275,-72,-631,-118,-54,-250,-312,-723,-351,29,123,-64,-38,-86,147,-263,104,-209,-250,-238
117570,-325,-358,19,-942,-341,327,-54,-75,-23,-228,37,-112,259,-78,-649,60,-65,-264,-344,-744,-358,-66,81,-97,-46,-94,114,-281,96,-221,-232,-198
117571,-314,-329,5,-937,-331,326,-43,-75,-23,-229,49,-91,271,-70,-650,243,-71,-268,-316,-750,-388,-79,74,-97,-69,-96,109,-306,57,-232,-261,-297
117572,-297,-304,-7,-911,-300,350,-32,-71,-3,-192,44,-93,282,-56,-628,271,-38,-241,-303,-726,-374,-8,118,-83,-47,-82,124,-266,74,-251,-288,-289
117573,-352,-359,-47,-927,-310,338,-73,-84,-28,-188,22,-159,251,-83,-647,44,-51,-282,-354,-764,-403,10,76,-112,-74,-111,96,-283,56,-269,-352,-245
117574,-348,-383,-73,-948,-326,315,-87,-98,-59,-220,-8,-193,242,-114,-682,-15,-46,-300,-389,-794,-436,0,62,-132,-87,-143,83,-301,46,-263,-351,-297
117575,-339,-329,-58,-913,-304,350,-57,-82,-45,-215,29,-178,252,-103,-657,66,-100,-275,-380,-758,-412,-13,109,-108,-62,-127,98,-294,42,-278,-324,-335
117576,-337,-307,-44,-890,-306,356,-71,-77,-25,-244,34,-132,264,-83,-652,93,-78,-268,-359,-772,-415,-11,82,-126,-97,-145,86,-326,-2,-341,-387,-377
117577,-356,-349,-55,-932,-323,326,-111,-101,-27,-276,-11,-147,253,-111,-694,118,-59,-294,-342,-808,-454,0,48,-139,-125,-176,64,-399,-69,-392,-419,-388
117578,-364,-361,-18,-929,-313,327,-113,-71,-4,-231,-1,-129,280,-103,-687,135,-76,-275,-306,-788,-442,6,59,-138,-106,-168,140,-359,-49,-354,-378,-318
117579,-386,-379,-66,-938,-330,337,-92,-70,5,-240,15,-79,283,-91,-694,141,-153,-259,-305,-785,-436,9,73,-126,-94,-177,156,-292,13,-308,-346,-303
117580,-393,-364,-57,-936,-348,305,-67,-72,-27,-247,-8,-62,267,-112,-699,134,-83,-259,-329,-810,-461,-208,77,-127,-106,-195,58,-287,9,-296,-307,-310
117581,-379,-342,-53,-935,-340,307,-76,-80,-21,-247,-9,-130,265,-113,-705,38,-139,-274,-344,-818,-481,-181,81,-133,-129,-199,37,-320,-7,-286,-299,-324
117582,-345,-342,-38,-932,-325,311,-106,-51,-21,-250,-37,-333,275,-109,-713,-223,-115,-287,-329,-803,-487,185,62,-129,-109,-187,64,-373,-10,-282,-290,-252
117583,-351,-343,-5,-900,-328,294,-119,2,1,-243,-58,-375,299,-102,-716,-186,-20,-258,-320,-813,-448,92,93,-113,-99,-210,-3,-338,-14,-326,-390,-360
117584,-362,-344,1,-889,-334,313,-111,-24,0,-245,-41,-100,308,-93,-680,-54,14,-211,-322,-777,-409,-1,157,-84,-72,-186,-9,-258,44,-287,-358,-350
117585,-362,-346,-2,-889,-308,321,-78,-15,16,-229,-8,-66,327,-79,-679,45,50,-198,-312,-784,-414,-107,167,-59,-56,-153,23,-225,91,-233,-290,-255
117586,-369,-319,0,-882,-309,324,-52,5,17,-219,34,-64,345,-82,-680,152,35,-183,-324,-785,-404,-52,222,-52,-51,-145,114,-244,89,-250,-350,-316
117587,-377,-297,11,-896,-335,319,-67,2,-7,-249,12,-21,323,-105,-678,80,-59,-190,-322,-797,-436,-86,217,-66,-67,-167,76,-289,57,-270,-381,-353
117588,-322,-296,32,-880,-313,325,-63,19,15,-230,20,-55,325,-91,-682,-233,-129,-197,-318,-801,-443,-23,109,-76,-80,-175,12,-303,39,-290,-372,-366
117589,-308,-301,40,-876,-307,333,-58,27,23,-223,44,-69,345,-89,-678,-481,75,-194,-330,-789,-423,26,58,-64,-78,-186,11,-324,23,-295,-379,-414
117590,-319,-311,50,-878,-315,320,-100,7,18,-243,21,-84,344,-97,-672,-313,66,-179,-329,-817,-429,-9,88,-75,-100,-195,22,-288,25,-295,-376,-377
117591,-326,-310,36,-858,-289,344,-77,35,15,-213,53,-92,341,-94,-658,-39,15,-190,-333,-804,-395,25,121,-76,-89,-161,85,-256,55,-274,-314,-306
117592,-294,-254,50,-863,-263,360,-14,12,4,-214,82,-57,311,-75,-643,1,85,-211,-322,-779,-356,34,133,-88,-84,-126,156,-257,75,-223,-252,-277
117593,-279,-243,42,-875,-292,361,-15,-19,-12,-236,26,-14,291,-102,-687,-104,66,-245,-355,-796,-379,41,91,-121,-118,-154,179,-289,39,-234,-264,-288
117594,-293,-283,-4,-894,-314,352,-40,-35,-4,-242,14,0,262,-110,-688,-35,28,-260,-382,-822,-396,38,105,-146,-156,-160,129,-263,38,-250,-279,-267
117595,-286,-273,3,-858,-266,365,-15,20,9,-223,52,7,288,-90,-650,58,74,-229,-373,-779,-380,26,140,-100,-129,-150,109,-227,60,-244,-322,-251
117596,-302,-284,12,-862,-279,340,-36,16,3,-240,41,0,292,-95,-653,13,72,-213,-348,-790,-390,19,174,-87,-124,-137,139,-215,43,-234,-321,-206
117597,-341,-307,-34,-875,-314,329,-37,0,-4,-245,42,-47,276,-95,-662,-86,42,-232,-361,-788,-378,1,162,-125,-103,-138,221,-210,52,-235,-280,-212
117598,-361,-314,7,-873,-326,317,-56,-8,-1,-258,24,-54,281,-91,-654,-523,36,-250,-361,-804,-383,3,137,-141,-114,-140,134,-241,35,-254,-310,-263
117599,-337,-319,20,-900,-329,329,-64,-19,-12,-244,58,-39,278,-90,-646,-846,-11,-243,-352,-799,-423,-4,126,-127,-115,-137,59,-232,41,-258,-328,-285
117600,-343,-323,24,-895,-335,337,-56,-35,-30,-244,92,-54,272,-100,-635,-448,30,-240,-365,-778,-403,18,121,-121,-113,-138,101,-234,56,-232,-288,-252
117601,-334,-302,12,-885,-315,344,-43,-34,-5,-226,86,-68,271,-105,-636,-116,-28,-258,-348,-772,-378,48,151,-126,-102,-113,127,-225,72,-207,-238,-230
117602,-317,-268,-8,-878,-316,350,-36,-2,0,-244,71,-40,299,-87,-640,109,88,-202,-309,-763,-364,59,185,-95,-72,-90,125,-161,105,-196,-218,-218
117603,-361,-267,-6,-867,-318,339,-60,-16,-6,-221,20,-39,301,-90,-674,123,97,-203,-306,-759,-377,84,172,-77,-38,-87,156,-129,137,-189,-237,-184
117604,-319,-255,55,-865,-318,339,-55,-3,-2,-219,-15,2,294,-74,-665,113,34,-192,-310,-761,-375,56,189,-64,-28,-82,145,-130,149,-187,-235,-192
117605,-282,-310,75,-859,-316,336,-35,20,-14,-239,18,54,307,-74,-653,108,25,-172,-294,-762,-359,13,237,-45,-40,-68,151,-130,165,-154,-213,-174
117606,-322,-326,42,-871,-308,340,-56,18,-22,-238,14,59,318,-94,-649,108,99,-149,-309,-742,-342,12,256,-43,-39,-59,142,-130,178,-128,-192,-180
117607,-330,-318,21,-887,-324,340,-55,7,-16,-236,9,70,308,-99,-650,71,29,-173,-316,-758,-368,18,222,-41,-32,-74,110,-123,167,-134,-173,-173
117608,-325,-322,4,-870,-312,362,-48,-17,-10,-219,36,64,313,-65,-632,18,66,-166,-293,-731,-316,58,233,-27,-26,-28,174,-90,220,-73,-115,-90
117609,-341,-299,34,-883,-311,367,-66,17,0,-202,53,4,327,-65,-615,-27,96,-154,-305,-743,-320,102,228,-19,-19,-41,164,-94,224,-67,-101,-73
117610,-348,-302,11,-906,-320,353,-87,15,-21,-217,28,-137,314,-108,-665,0,71,-158,-331,-773,-382,45,209,-64,-49,-100,93,-167,156,-129,-218,-164
117611,-289,-268,30,-875,-281,370,-51,23,-13,-229,40,-184,323,-86,-673,151,33,-173,-314,-752,-388,31,193,-63,-51,-82,155,-180,162,-138,-232,-141
117612,-287,-302,43,-853,-286,359,-33,35,-2,-203,28,-127,345,-78,-666,213,23,-201,-319,-756,-390,40,171,-75,-47,-69,201,-196,139,-159,-188,-122
117613,-285,-304,66,-867,-300,372,-47,30,0,-223,19,-39,326,-74,-674,194,63,-230,-343,-789,-404,-54,140,-95,-62,-95,123,-230,106,-198,-219,-152
117614,-272,-300,80,-854,-291,385,-32,21,12,-209,20,-6,305,-77,-644,170,53,-218,-326,-772,-397,14,150,-78,-50,-88,156,-224,112,-189,-213,-165
117615,-311,-318,38,-866,-302,383,-40,33,1,-210,39,-5,303,-88,-626,38,-18,-201,-324,-744,-362,71,176,-67,-41,-72,167,-247,93,-200,-221,-184
117616,-343,-305,20,-897,-314,405,-12,1,-12,-219,70,-29,293,-95,-616,-360,-19,-207,-349,-745,-359,80,166,-88,-77,-64,132,-262,63,-223,-236,-267
117617,-376,-311,-19,-945,-349,374,-38,-54,-55,-205,68,-65,269,-103,-601,-685,90,-230,-366,-761,-376,92,139,-100,-107,-87,110,-286,47,-256,-264,-261
117618,-341,-269,15,-934,-331,388,9,-23,-35,-198,105,-25,285,-93,-600,-666,57,-204,-337,-742,-348,0,171,-73,-91,-67,121,-269,79,-248,-268,-294
117619,-351,-272,17,-916,-335,413,70,-18,-25,-187,150,-35,288,-91,-563,-343,3,-221,-330,-734,-279,-144,149,-96,-89,-49,155,-256,70,-256,-258,-297
117620,-357,-286,15,-918,-330,367,25,-24,-30,-177,114,-55,284,-99,-574,-186,-14,-227,-329,-718,-260,181,131,-88,-71,-28,222,-250,101,-187,-193,-242
117621,-347,-287,43,-921,-307,377,16,-10,-4,-182,117,-19,295,-85,-577,32,86,-200,-297,-687,-247,210,152,-60,-32,10,240,-238,159,-90,-70,-163
117622,-338,-324,40,-921,-302,371,22,-10,3,-194,83,-22,309,-69,-579,236,117,-201,-282,-677,-232,113,182,-42,-13,40,303,-201,166,-46,-25,-152
117623,-358,-310,40,-915,-309,342,0,-3,2,-196,61,-23,331,-57,-598,284,40,-191,-286,-692,-249,137,252,-40,-19,10,315,-202,159,-105,-151,-130
117624,-355,-280,27,-910,-307,377,0,2,-1,-211,60,-24,336,-89,-644,326,22,-191,-312,-743,-314,150,221,-74,-72,-63,246,-231,53,-298,-359,-169
117625,-325,-249,40,-890,-280,399,41,32,13,-220,82,-13,337,-61,-627,345,24,-197,-311,-753,-331,194,127,-81,-68,-70,257,-262,70,-251,-289,-94
117626,-320,-240,54,-877,-300,393,46,43,28,-213,63,-19,350,-52,-640,244,77,-167,-274,-733,-358,114,139,-43,-40,-61,229,-191,136,-165,-194,-76
117627,-340,-242,70,-887,-305,392,58,32,15,-210,94,-2,354,-33,-632,69,84,-162,-272,-737,-357,121,201,-35,-10,-48,161,-149,166,-136,-177,-100
117628,-318,-256,94,-904,-294,394,63,48,21,-203,115,0,344,-41,-622,41,18,-165,-266,-718,-333,157,191,-13,-2,-24,201,-156,192,-123,-144,-74
117629,-329,-269,65,-905,-310,375,39,18,12,-201,97,-1,349,-46,-633,53,69,-164,-256,-708,-353,121,187,-38,-15,-39,189,-180,156,-164,-194,-157
117630,-305,-251,87,-892,-300,380,46,15,9,-209,104,-8,332,-59,-613,129,107,-190,-269,-730,-352,123,178,-31,-23,-64,168,-196,133,-203,-220,-173
117631,-281,-232,76,-860,-279,386,36,71,1,-201,85,-113,349,-44,-631,193,113,-168,-276,-738,-338,135,192,-23,-23,-56,195,-171,149,-178,-178,-133
117632,-273,-240,131,-842,-286,398,53,75,17,-213,81,-85,367,-57,-653,224,142,-157,-244,-745,-327,130,226,-16,-44,-53,188,-165,170,-148,-181,-154
117633,-283,-214,139,-843,-276,423,75,49,19,-192,83,89,363,-67,-640,197,125,-141,-247,-739,-336,145,252,-10,-45,-50,178,-116,191,-131,-175,-176
117634,-271,-226,120,-858,-305,398,47,84,12,-217,57,64,336,-84,-663,10,107,-170,-310,-777,-383,100,194,-60,-65,-79,101,-159,129,-190,-241,-215
117635,-287,-216,109,-860,-293,390,44,82,-3,-196,78,100,325,-91,-679,-462,49,-193,-313,-792,-400,47,181,-71,-87,-111,83,-180,102,-219,-242,-236
117636,-307,-181,85,-883,-295,378,35,22,-17,-230,52,122,321,-107,-685,-428,102,-199,-336,-819,-430,34,186,-78,-113,-141,31,-184,101,-217,-259,-198
117637,-348,-210,60,-904,-330,383,30,21,-31,-251,51,-48,299,-116,-694,-290,48,-220,-348,-805,-433,1,152,-107,-137,-144,11,-240,86,-216,-248,-188
117638,-331,-198,55,-879,-304,394,66,56,-2,-217,78,-164,305,-99,-656,-152,53,-228,-321,-788,-367,56,144,-104,-110,-127,98,-224,104,-176,-221,-134
117639,-292,-191,29,-879,-295,390,42,26,4,-227,120,-157,299,-98,-642,32,118,-218,-326,-788,-330,60,128,-104,-102,-87,133,-223,126,-164,-185,-76
117640,-298,-184,73,-879,-306,403,76,1,-2,-240,109,-100,300,-106,-659,-142,95,-233,-336,-790,-359,24,126,-107,-110,-105,95,-252,94,-208,-189,-141
117641,-309,-158,80,-853,-285,437,135,21,13,-218,138,-38,301,-82,-634,-320,72,-231,-323,-778,-349,73,159,-89,-81,-85,168,-224,124,-155,-137,-134
117642,-326,-183,48,-860,-290,409,99,3,-1,-232,125,-41,297,-99,-636,-222,-100,-247,-327,-774,-353,81,150,-81,-78,-91,190,-232,137,-122,-107,-37
117643,-335,-240,33,-861,-284,394,82,-16,1,-235,123,-47,289,-105,-648,10,-30,-256,-315,-787,-366,10,105,-108,-77,-90,183,-306,57,-191,-174,-159
117644,-305,-246,55,-851,-268,393,53,9,11,-236,110,-16,289,-101,-659,161,144,-231,-320,-793,-387,21,127,-103,-58,-108,191,-289,76,-221,-220,-260
117645,-308,-217,83,-839,-265,399,39,34,16,-240,68,4,321,-96,-690,266,58,-192,-308,-790,-397,43,169,-69,-61,-115,185,-219,126,-176,-218,-265
117646,-326,-230,94,-861,-290,402,44,34,-7,-256,68,0,308,-107,-719,287,46,-214,-316,-804,-427,35,155,-98,-106,-134,130,-279,55,-239,-287,-301
117647,-347,-240,66,-859,-286,403,40,41,8,-247,63,-4,304,-100,-711,222,46,-218,-334,-804,-451,53,121,-102,-86,-151,138,-307,27,-258,-283,-284
117648,-346,-257,46,-873,-293,414,58,13,-20,-242,59,-36,288,-120,-703,91,23,-220,-360,-808,-450,41,92,-119,-102,-152,144,-316,26,-252,-252,-301
117649,-338,-234,34,-890,-297,398,66,0,-45,-245,56,-47,276,-139,-706,16,-19,-247,-351,-834,-471,-38,83,-153,-133,-198,79,-385,-51,-368,-380,-420
117650,-312,-237,61,-878,-276,427,69,-15,-24,-230,45,-61,277,-118,-704,73,-25,-267,-332,-820,-469,-50,86,-157,-109,-181,81,-360,-12,-345,-384,-389
117651,-339,-258,47,-896,-277,411,34,-13,-8,-223,37,-67,276,-106,-700,-56,-29,-274,-354,-823,-481,-7,70,-133,-118,-170,120,-333,18,-303,-340,-347
117652,-315,-265,62,-912,-276,383,6,-13,-12,-210,12,-64,272,-107,-696,-344,-79,-283,-389,-838,-500,23,50,-156,-133,-216,56,-352,-29,-368,-437,-353
117653,-282,-205,71,-854,-260,405,61,-1,0,-185,55,-60,293,-100,-686,-429,-78,-249,-363,-817,-461,18,108,-161,-96,-172,72,-340,-20,-354,-369,-311
117654,-285,-226,52,-857,-259,411,80,-13,-7,-182,82,-77,297,-96,-661,-177,-16,-231,-369,-801,-382,-7,145,-144,-76,-120,112,-364,-16,-313,-319,-306
117655,-307,-225,57,-865,-249,423,88,-10,10,-159,112,-69,308,-79,-619,97,-29,-256,-346,-752,-342,-27,93,-113,-62,-86,102,-344,4,-276,-323,-309
117656,-344,-276,30,-889,-269,392,78,-14,3,-184,94,-87,291,-78,-643,210,-71,-264,-337,-777,-363,-15,46,-137,-77,-97,87,-332,16,-281,-295,-296
117657,-366,-297,11,-909,-289,354,32,-24,-22,-192,53,-58,288,-95,-668,168,-64,-245,-346,-799,-404,0,84,-118,-73,-98,106,-355,24,-271,-273,-251
117658,-379,-265,20,-892,-285,364,60,-3,-19,-193,84,-47,301,-77,-650,55,-181,-259,-369,-778,-400,-77,83,-107,-55,-74,87,-349,44,-243,-284,-298
117659,-390,-262,2,-893,-282,380,63,-16,-15,-179,121,-97,290,-63,-648,5,-127,-269,-371,-784,-405,-319,45,-122,-75,-107,17,-364,22,-271,-313,-388
117660,-414,-283,-45,-914,-312,369,-1,-57,-27,-196,80,-119,264,-93,-668,-102,-76,-273,-371,-799,-430,-63,28,-137,-99,-145,17,-374,6,-311,-314,-358
117661,-429,-331,-42,-917,-304,365,-21,-33,-3,-180,75,-66,270,-77,-669,-166,-53,-258,-352,-787,-427,91,68,-112,-86,-132,67,-298,70,-241,-262,-244
117662,-416,-316,-26,-901,-280,372,-6,-4,10,-174,62,-64,289,-67,-653,-100,-37,-231,-332,-776,-414,-31,114,-91,-65,-107,73,-285,82,-222,-250,-279
117663,-399,-317,-40,-927,-289,370,-24,-18,-29,-211,42,-155,286,-89,-666,-62,-27,-237,-354,-802,-405,-24,89,-95,-82,-115,166,-302,69,-241,-261,-300
117664,-398,-296,-21,-946,-307,371,-17,-18,-29,-206,66,-288,286,-94,-676,-128,-30,-246,-353,-808,-394,-18,72,-113,-81,-118,167,-293,70,-259,-292,-342
117665,-389,-260,15,-913,-320,359,-22,-14,-14,-179,72,-447,295,-76,-660,-104,-103,-266,-356,-786,-384,7,63,-100,-71,-119,104,-266,85,-235,-267,-318
117666,-438,-318,-8,-928,-337,326,-56,-78,-43,-198,41,-264,236,-92,-670,-47,-108,-315,-390,-807,-423,-18,54,-127,-90,-127,48,-311,63,-252,-277,-235
117667,-481,-350,-36,-958,-312,336,-66,-111,-41,-203,46,-77,207,-103,-666,-253,-59,-325,-402,-805,-415,-79,26,-161,-106,-144,43,-392,13,-281,-343,-258
117668,-447,-314,-9,-934,-297,347,-62,-65,-34,-199,47,-107,233,-88,-675,-809,-80,-321,-393,-809,-428,-76,5,-172,-135,-154,-1,-437,-43,-318,-335,-250
117669,-441,-307,-22,-931,-308,312,-80,-74,-38,-232,7,-85,204,-115,-709,-644,-158,-332,-414,-865,-511,-45,-16,-208,-159,-199,-33,-478,-92,-366,-406,-346
117670,-465,-355,-74,-926,-310,305,-86,-97,-48,-227,11,-95,199,-113,-697,-389,-70,-345,-427,-853,-502,-84,-49,-211,-174,-215,-10,-475,-87,-336,-375,-415
117671,-455,-394,-65,-949,-314,294,-71,-110,-48,-217,29,-153,189,-100,-682,-269,-168,-369,-452,-844,-458,-137,-64,-210,-162,-181,43,-469,-70,-311,-292,-367
117672,-423,-347,-32,-923,-277,328,-34,-91,-23,-201,37,-138,207,-74,-687,4,-241,-366,-417,-831,-449,-71,-29,-208,-140,-175,99,-473,-61,-324,-308,-385
117673,-412,-370,-20,-922,-290,320,-55,-86,-35,-198,3,-123,215,-84,-723,164,-288,-370,-420,-852,-478,-86,-33,-206,-175,-202,39,-477,-87,-356,-372,-368
117674,-420,-375,-17,-919,-303,315,-57,-86,-42,-210,1,-128,198,-116,-731,159,-62,-366,-427,-887,-507,-106,-66,-240,-220,-264,-3,-494,-141,-464,-525,-424
117675,-418,-354,-29,-916,-296,338,-36,-85,-19,-222,19,-135,215,-96,-717,144,-2,-349,-431,-873,-497,-52,-43,-238,-198,-245,39,-446,-78,-368,-431,-346
117676,-466,-359,-59,-931,-331,337,-56,-85,-30,-234,0,-160,209,-114,-739,42,-89,-367,-463,-888,-478,-45,-70,-268,-205,-235,20,-459,-85,-342,-358,-334
117677,-489,-347,-79,-939,-329,328,-71,-114,-47,-250,-3,-171,186,-137,-745,-95,-125,-385,-460,-922,-512,-73,-66,-289,-237,-267,13,-454,-108,-361,-368,-346
117678,-461,-308,-64,-919,-302,326,-36,-86,-36,-206,1,-142,200,-125,-747,-51,-151,-358,-442,-891,-517,-98,-37,-262,-240,-268,51,-405,-78,-354,-348,-287
117679,-464,-328,-64,-931,-316,311,-58,-82,-34,-213,-4,-132,214,-124,-765,-30,-141,-363,-469,-902,-526,-157,-35,-263,-248,-275,21,-402,-80,-405,-417,-281
117680,-484,-362,-60,-956,-316,318,-67,-122,-53,-227,-31,-126,190,-132,-763,-13,-124,-365,-464,-906,-529,-173,-47,-269,-246,-260,5,-394,-71,-384,-424,-308
117681,-478,-321,-86,-937,-308,324,-68,-112,-40,-220,-9,-172,186,-122,-757,33,-182,-405,-469,-878,-496,-135,-89,-308,-241,-248,43,-446,-101,-382,-371,-291
117682,-486,-343,-121,-958,-313,314,-95,-118,-43,-229,-3,-194,189,-144,-771,4,-245,-440,-495,-894,-529,-162,-144,-332,-259,-262,28,-516,-182,-448,-412,-415
117683,-470,-396,-82,-944,-276,325,-116,-106,-36,-223,-15,-161,192,-124,-770,9,-179,-411,-485,-902,-543,-174,-154,-313,-252,-287,-10,-524,-205,-478,-478,-513
117684,-472,-390,-79,-925,-276,333,-133,-99,-25,-225,-27,-174,174,-136,-763,6,-222,-414,-514,-926,-553,-170,-156,-335,-258,-304,-44,-551,-211,-506,-492,-540
117685,-515,-391,-126,-944,-283,317,-131,-120,-7,-220,-35,-228,160,-140,-761,-6,-268,-433,-508,-926,-564,-131,-151,-357,-263,-284,7,-541,-198,-479,-462,-469
117686,-507,-414,-133,-955,-300,309,-124,-146,-35,-235,-35,-340,138,-150,-775,-122,-272,-433,-507,-928,-555,-150,-154,-336,-263,-276,-11,-505,-147,-433,-412,-385
117687,-510,-396,-136,-969,-313,278,-132,-156,-30,-242,-72,-374,139,-162,-784,-553,-340,-431,-496,-937,-601,-190,-168,-347,-289,-309,-115,-511,-148,-413,-420,-386
117688,-495,-378,-127,-961,-305,291,-141,-143,-36,-231,-47,-361,165,-139,-760,-793,-236,-425,-486,-932,-577,-175,-123,-334,-269,-300,-72,-548,-136,-403,-404,-349
117689,-483,-374,-121,-952,-316,303,-103,-138,-38,-222,-23,-364,159,-142,-754,-737,-225,-439,-505,-921,-543,-224,-137,-350,-270,-301,-97,-618,-192,-462,-463,-425
117690,-490,-390,-124,-962,-308,304,-79,-147,-42,-231,-23,-366,160,-139,-730,-495,-298,-453,-516,-933,-521,-333,-243,-383,-305,-315,-124,-646,-252,-531,-542,-505
117691,-491,-386,-108,-958,-292,307,-80,-119,-19,-204,11,-328,188,-123,-721,-222,-258,-429,-497,-923,-515,-281,-216,-376,-305,-306,-49,-612,-211,-500,-466,-486
117692,-437,-363,-59,-943,-280,330,-77,-97,4,-220,5,-250,170,-132,-746,-75,-232,-436,-512,-926,-535,-247,-192,-359,-304,-299,-40,-596,-198,-477,-460,-500
117693,-432,-338,-65,-926,-269,317,-73,-98,-27,-227,-32,-251,146,-127,-767,-44,-241,-429,-510,-931,-535,-204,-181,-332,-292,-288,-22,-532,-176,-442,-459,-438
117694,-439,-322,-74,-942,-282,317,-99,-135,-27,-232,-47,-252,148,-142,-789,-116,-259,-428,-501,-934,-543,-131,-171,-335,-281,-288,-53,-525,-170,-434,-475,-415
117695,-434,-276,-57,-931,-267,355,-74,-110,-11,-227,-18,-224,167,-128,-780,-138,-355,-423,-459,-903,-532,-138,-144,-322,-257,-253,-31,-539,-160,-457,-438,-399
117696,-438,-284,-67,-918,-277,362,-76,-117,-14,-229,-19,-211,169,-117,-741,-115,-303,-405,-414,-879,-495,-194,-157,-315,-233,-224,-2,-546,-155,-442,-437,-466
117697,-447,-320,-66,-911,-294,358,-75,-101,-9,-217,-8,-222,179,-120,-724,-43,-143,-404,-392,-885,-490,-231,-141,-297,-214,-237,35,-578,-160,-422,-407,-457
117698,-455,-328,-31,-902,-282,349,-83,-85,-4,-199,6,-251,181,-113,-734,-54,-232,-399,-414,-880,-491,-394,-161,-294,-211,-233,8,-615,-164,-403,-372,-426
117699,-457,-354,-24,-911,-275,351,-79,-99,-18,-199,1,-247,164,-110,-723,-217,-287,-424,-435,-859,-475,-213,-157,-306,-217,-216,5,-558,-145,-380,-323,-432
117700,-476,-371,-51,-935,-267,341,-90,-106,-24,-206,-13,-254,167,-123,-711,-252,-297,-427,-448,-860,-467,0,-149,-304,-211,-195,64,-566,-159,-365,-317,-460
117701,-479,-375,-56,-941,-265,347,-89,-126,-41,-207,-19,-263,146,-132,-727,-286,-289,-425,-459,-879,-475,-187,-186,-321,-220,-202,55,-611,-210,-437,-405,-514
117702,-459,-362,-48,-916,-260,380,-127,-114,-40,-213,0,-265,146,-120,-704,-423,-338,-421,-462,-862,-459,-170,-195,-323,-211,-194,97,-617,-205,-424,-338,-490
117703,-489,-360,-72,-911,-265,385,-139,-104,-39,-207,14,-259,160,-129,-680,-269,-288,-419,-473,-867,-472,-152,-180,-314,-209,-164,108,-579,-162,-389,-319,-366
117704,-484,-364,-52,-896,-257,378,-84,-69,-37,-189,25,-314,183,-135,-697,-109,-256,-401,-475,-855,-453,-176,-144,-319,-213,-178,119,-535,-135,-432,-437,-400
117705,-468,-350,-46,-900,-255,363,-76,-57,-38,-196,0,-398,187,-128,-721,-67,-266,-421,-460,-878,-465,-159,-130,-331,-205,-175,6,-524,-153,-445,-532,-515
