,Fp1,Fp2,F7,F3,Fz,F4,F8,FC5,FC1,FC2,FC6,T7,C3,Cz,C4,T8,TP9,CP5,CP1,CP2,CP6,TP10,P7,P3,Pz,P4,P8,PO9,O1,Oz,O2,PO10
146983,152,484,254,-302,194,225,-26,299,275,171,84,3,345,113,-164,-334,173,-60,-394,-156,-277,53,190,-6,189,0,101,-140,110,-43,-306,-103
146984,119,502,227,-297,193,249,-50,280,273,178,108,-51,314,112,-157,-489,103,-113,-414,-155,-265,110,137,-18,185,20,77,-86,148,-32,-267,-92
146985,50,440,156,-335,183,208,-32,248,252,164,96,-124,267,94,-184,-819,94,-175,-444,-168,-302,65,132,-69,145,-13,55,-92,169,-35,-330,-111
146986,79,423,141,-324,191,222,0,253,268,167,103,-122,272,109,-187,-798,92,-186,-450,-186,-329,9,157,-79,133,-48,16,-115,138,-99,-396,-210
146987,66,414,114,-327,235,266,18,261,289,181,127,-125,277,122,-161,-577,42,-191,-452,-164,-276,28,153,-74,124,-23,33,-147,74,-110,-384,-138
146988,52,380,101,-322,206,258,-44,238,251,185,114,-161,258,119,-153,-448,-148,-192,-444,-187,-255,0,178,-80,119,-13,62,-234,39,-114,-367,-112
146989,89,443,175,-307,205,263,-36,271,240,160,124,-152,253,99,-176,-361,-272,-190,-459,-206,-284,-57,163,-83,112,-51,47,-227,44,-138,-405,-222
146990,125,499,244,-257,233,275,53,338,270,192,133,-102,294,97,-170,-253,320,-152,-472,-184,-266,-82,167,-55,104,-46,82,-176,62,-121,-419,-245
146991,148,509,236,-233,206,287,85,365,280,200,154,-137,288,90,-140,-211,111,-176,-471,-169,-187,0,129,-59,92,-3,142,-138,68,-104,-384,-159
146992,111,448,167,-235,201,249,16,328,264,191,126,-212,290,96,-145,-213,18,-170,-456,-184,-181,0,125,-62,74,-9,57,-167,43,-133,-389,-227
146993,109,430,124,-255,204,237,-25,307,250,190,141,-210,303,107,-155,-241,105,-135,-438,-182,-210,32,199,-53,101,-2,-9,-162,87,-90,-358,-177
146994,126,424,111,-265,200,249,-55,360,273,190,128,-161,320,104,-153,-191,148,-113,-420,-150,-202,57,293,-47,122,18,99,-193,139,-95,-397,-149
146995,111,437,78,-271,208,249,-74,352,254,170,119,-226,300,94,-170,-293,107,-164,-441,-186,-254,-1,291,-68,96,-24,77,-203,73,-124,-380,-192
146996,152,462,113,-276,208,245,-27,253,237,184,116,-163,247,92,-157,-467,96,-216,-477,-200,-271,-42,195,-102,78,-36,-105,-188,-46,-162,-406,-258
146997,135,430,130,-260,229,252,-20,219,254,180,80,-63,258,99,-148,-430,106,-213,-468,-177,-213,-3,106,-83,89,-5,24,-162,49,-114,-380,-187
146998,113,374,54,-237,194,200,-81,237,241,154,-2,-161,241,96,-166,-381,78,-213,-450,-192,-236,58,104,-83,95,-23,50,-105,85,-98,-364,-182
146999,151,405,4,-238,229,209,-97,253,255,166,23,-144,262,116,-180,-441,128,-181,-438,-184,-278,42,179,-54,126,-26,-31,-55,106,-67,-317,-110
147000,115,434,37,-259,231,250,-126,258,263,163,124,-84,271,109,-175,-345,178,-175,-441,-187,-276,3,197,-49,118,-25,99,-38,136,-50,-318,-94
147001,84,441,29,-271,212,240,-90,248,258,143,147,-78,242,88,-191,-240,155,-181,-475,-205,-272,-46,180,-89,96,-27,148,-66,115,-95,-383,-262
147002,115,447,68,-265,211,215,-25,256,261,153,90,-86,259,113,-199,-243,101,-182,-467,-192,-272,45,211,-68,109,-15,33,-129,91,-102,-411,-265
147003,120,458,103,-265,224,209,-53,299,275,160,77,-83,275,118,-214,-313,65,-160,-429,-200,-320,15,218,-55,111,-27,-34,-143,115,-54,-346,-136
147004,94,443,130,-283,213,247,-68,269,271,172,122,-100,256,91,-182,-245,-51,-193,-454,-200,-278,35,180,-84,100,-9,62,-174,62,-82,-349,-85
147005,56,422,160,-282,197,255,-148,247,259,171,137,-95,255,87,-193,-212,7,-186,-459,-202,-261,-86,283,-76,113,-1,78,-180,66,-93,-390,-151
147006,78,427,169,-302,207,234,-203,291,263,175,125,-70,270,103,-184,-402,137,-161,-469,-201,-266,7,271,-68,116,11,23,-139,50,-82,-376,-168
147007,104,412,86,-285,223,251,-94,327,276,188,144,14,291,126,-164,-643,246,-136,-435,-162,-266,150,185,-54,142,14,-30,-103,46,-77,-336,-98
147008,89,401,62,-290,219,259,-26,284,281,192,150,86,267,128,-164,-539,151,-150,-427,-162,-294,47,106,-54,159,5,-11,-140,84,-74,-323,-102
147009,106,417,90,-309,201,246,17,298,279,196,126,106,273,129,-166,-336,112,-157,-427,-138,-259,19,144,-39,179,28,60,-126,85,-68,-300,-145
147010,106,466,104,-298,195,257,22,249,261,199,171,111,252,130,-159,-445,225,-126,-417,-122,-250,64,169,-28,175,44,109,-105,102,-36,-287,-98
147011,72,446,99,-270,201,233,-70,277,275,170,99,48,248,118,-189,-574,210,-147,-434,-157,-293,67,187,-36,172,24,51,-139,110,-52,-318,-107
147012,10,375,10,-277,155,181,-101,309,274,145,50,67,278,114,-210,-419,204,-152,-436,-183,-287,97,209,-48,156,14,54,-107,131,-30,-319,-106
147013,40,344,-27,-291,171,177,-122,308,272,161,61,93,293,123,-191,-273,236,-134,-442,-145,-276,84,219,-42,169,40,113,-65,182,0,-286,-112
147014,60,357,-26,-326,161,180,-169,289,277,135,84,82,271,129,-180,-192,230,-122,-463,-162,-241,74,215,-54,141,22,138,-85,156,-3,-295,-109
147015,53,388,-12,-298,156,166,-137,311,258,144,26,50,263,117,-202,-141,202,-162,-471,-164,-191,104,207,-67,128,30,140,-84,124,-20,-316,-96
147016,65,389,17,-303,174,183,-58,281,247,133,18,-70,259,88,-200,-154,112,-201,-463,-185,-195,32,167,-99,109,17,106,-139,92,-82,-378,-214
147017,80,421,50,-271,212,201,-8,356,263,144,34,-194,248,105,-201,-211,113,-169,-463,-204,-247,18,230,-84,94,16,10,-95,110,-76,-379,-174
147018,58,432,6,-243,205,202,1,325,274,150,17,-195,283,113,-216,-268,219,-155,-463,-218,-326,32,308,-58,117,-19,-21,-64,139,-58,-344,-92
147019,85,425,49,-254,212,239,-38,298,280,161,33,-207,268,121,-211,-228,205,-157,-479,-206,-305,85,263,-68,108,-34,48,-88,128,-49,-341,-110
147020,105,411,78,-249,215,266,-51,304,284,176,62,-291,271,115,-195,-234,57,-182,-486,-199,-299,96,200,-64,117,-20,100,-91,149,-24,-317,-122
147021,107,404,69,-310,205,235,-119,264,269,164,77,-258,253,103,-191,-285,98,-179,-480,-212,-291,78,282,-63,109,-23,132,-88,147,-20,-290,-81
147022,35,400,40,-306,190,221,-149,270,247,137,53,-109,262,87,-205,-292,134,-164,-485,-207,-279,13,347,-53,91,-25,166,-70,116,-48,-337,-111
147023,-1,408,-131,-334,155,197,-176,301,250,135,74,-53,247,84,-205,-451,70,-194,-483,-212,-303,5,225,-66,97,-35,98,-74,125,-75,-343,-143
147024,34,440,-117,-334,175,204,-135,299,270,144,109,-55,267,107,-184,-438,165,-149,-450,-194,-287,59,198,-58,104,-28,122,-58,155,-50,-286,-119
147025,2,367,-83,-316,173,163,-140,273,271,130,59,-57,268,109,-216,-318,140,-149,-431,-201,-279,57,306,-38,108,-15,166,-88,115,-57,-336,-157
147026,23,392,-9,-309,197,142,-139,225,283,122,-52,-115,262,102,-238,-290,135,-155,-418,-198,-290,42,278,-41,117,-3,94,-71,133,-38,-323,-112
147027,15,432,-36,-344,178,139,-125,190,256,116,-27,-159,245,112,-221,-406,98,-219,-463,-186,-271,19,63,-72,121,-16,78,-119,135,-40,-280,-93
147028,63,470,34,-327,193,181,-164,224,258,130,7,-110,284,137,-172,-419,171,-189,-437,-147,-219,40,149,-20,160,32,135,-45,194,40,-216,-49
147029,74,435,90,-326,192,229,-178,217,288,175,99,-73,290,157,-124,-271,184,-130,-418,-109,-139,71,306,12,201,109,236,-25,236,78,-204,-72
147030,63,384,60,-310,165,241,-256,226,292,188,187,-87,272,135,-122,-337,170,-135,-438,-113,-149,96,279,14,218,123,179,-18,260,80,-189,-49
147031,59,401,110,-321,186,271,-211,247,263,191,165,-64,285,127,-126,-531,120,-142,-415,-117,-179,150,219,29,225,101,164,24,285,110,-144,9
147032,71,396,136,-319,209,293,-243,243,259,191,206,-10,292,135,-112,-509,175,-119,-379,-65,-165,179,253,67,253,127,263,42,317,124,-122,28
147033,143,414,42,-336,197,321,-164,231,270,214,251,-17,285,159,-52,-328,255,-87,-367,-62,-112,194,347,79,267,175,361,45,328,145,-101,91
147034,99,401,-17,-314,178,286,-140,267,275,204,199,-74,307,157,-49,-270,208,-97,-384,-68,-73,154,314,51,255,160,310,-5,285,102,-139,-17
147035,0,358,28,-302,141,244,-173,267,249,153,114,-135,273,136,-112,-316,134,-154,-392,-88,-138,92,185,26,226,140,88,-31,267,78,-188,-28
147036,20,390,76,-296,168,220,-84,268,261,159,72,-124,290,150,-156,-323,162,-143,-355,-91,-221,82,204,41,245,126,99,19,270,102,-177,0
147037,53,479,34,-327,187,236,51,283,269,179,92,-97,285,150,-141,-328,177,-151,-369,-95,-207,107,216,25,249,105,136,47,277,103,-142,-54
147038,60,473,4,-296,189,224,77,295,272,149,100,-77,285,146,-145,-715,169,-149,-379,-106,-216,148,243,34,243,94,145,40,269,70,-206,-136
147039,77,508,20,-300,197,207,124,275,274,146,94,5,289,147,-123,-1082,176,-115,-361,-82,-213,90,269,58,253,121,172,34,295,87,-199,-61
147040,76,486,50,-332,199,199,101,244,292,155,83,99,294,168,-107,-567,180,-72,-359,-78,-194,-13,316,96,280,153,196,58,336,150,-124,20
147041,8,423,31,-333,157,172,33,256,275,120,64,61,279,155,-144,-210,181,-112,-384,-87,-220,-4,278,74,250,131,168,0,313,112,-148,-23
147042,-6,402,42,-337,143,190,-15,301,250,135,64,57,251,128,-147,-3,120,-143,-380,-104,-197,83,252,47,232,116,187,-29,276,81,-163,-48
147043,16,407,62,-335,151,185,-167,222,253,140,70,39,246,140,-153,30,68,-127,-388,-112,-200,81,256,49,226,121,208,16,314,83,-183,-95
147044,-16,357,-72,-363,164,190,-172,213,258,144,86,-86,246,151,-167,-44,-32,-168,-414,-124,-173,66,219,30,192,93,185,-33,255,7,-239,-171
147045,-66,342,-262,-351,153,165,-147,242,263,106,34,-301,233,147,-191,-165,14,-222,-409,-151,-240,18,160,-23,140,66,50,-79,169,-38,-257,-153
147046,-81,378,-246,-303,149,175,-99,284,251,116,54,-399,255,143,-183,-214,43,-211,-402,-119,-270,8,189,-23,147,51,52,-59,178,-1,-238,-102
147047,-40,352,-191,-333,160,182,-100,257,275,134,25,-314,274,151,-198,-232,-82,-194,-397,-131,-268,-33,214,-17,148,51,71,-97,159,-18,-271,-150
147048,-28,316,-135,-337,152,175,-152,248,261,117,7,-256,266,145,-210,-311,1,-181,-401,-154,-286,-58,261,-30,125,18,122,-99,156,-43,-309,-151
147049,-63,248,-186,-350,138,152,-224,348,253,93,8,-235,289,120,-235,-517,56,-148,-405,-164,-293,-67,264,-50,117,-6,138,-75,184,-65,-343,-220
147050,-42,253,-122,-367,136,166,-398,295,264,97,-20,-162,265,137,-221,-783,55,-166,-415,-182,-285,-105,176,-45,126,-19,-47,-29,167,-56,-352,-254
147051,10,285,-30,-354,161,208,-422,162,259,145,-24,-97,234,160,-171,-628,30,-213,-420,-161,-252,-18,188,-45,147,32,26,-34,187,-44,-300,-162
147052,13,284,2,-395,163,244,-370,159,220,162,192,-94,224,141,-136,-480,24,-213,-447,-148,-272,-126,272,-66,101,4,34,-223,152,-87,-313,-156
147053,35,365,2,-387,144,244,-192,186,239,152,228,-127,231,144,-137,-327,51,-175,-430,-165,-203,-41,413,-76,111,-3,97,-384,48,-136,-364,-188
147054,53,388,31,-369,143,184,-73,181,241,120,62,-154,222,132,-208,-222,-47,-208,-443,-188,-193,132,242,-100,110,18,64,-284,-13,-173,-394,-201
147055,82,397,29,-347,157,137,-36,177,244,96,7,-195,203,106,-243,-201,-52,-301,-460,-209,-248,24,19,-146,75,-3,-18,-165,30,-137,-381,-189
147056,94,431,11,-326,161,135,-8,170,250,103,-24,-132,203,106,-250,-313,90,-271,-444,-212,-304,-44,128,-111,63,-32,46,-54,155,-55,-358,-178
147057,152,468,54,-333,173,140,44,198,256,119,5,-127,224,107,-254,-402,73,-261,-436,-211,-302,70,87,-109,74,-25,92,-25,184,-46,-308,-145
147058,156,454,89,-338,181,167,65,226,236,128,44,-146,219,103,-225,-366,65,-276,-460,-203,-253,111,51,-115,79,-7,128,-50,145,-50,-302,-155
147059,110,471,103,-330,171,177,31,220,226,122,50,-146,199,106,-212,-301,50,-274,-490,-221,-238,90,17,-125,81,-10,130,-210,56,-102,-311,-119
147060,118,489,116,-343,165,188,64,238,244,139,88,-181,210,116,-191,-240,36,-277,-466,-209,-217,88,-5,-158,78,25,252,-279,-52,-117,-299,-54
147061,92,454,68,-364,177,176,3,226,256,154,77,-202,194,113,-197,-242,39,-300,-462,-208,-255,74,19,-146,74,1,199,-255,-18,-109,-278,-81
147062,14,398,-9,-386,140,174,-76,200,228,123,65,-236,173,91,-232,-249,-22,-315,-502,-243,-285,52,-35,-175,46,-25,90,-267,-2,-119,-296,-99
147063,25,402,21,-351,158,217,-98,232,250,150,101,-241,189,99,-204,-220,-56,-304,-478,-225,-250,74,-26,-180,60,-15,123,-248,-9,-104,-286,-90
147064,48,396,43,-351,164,243,-189,213,247,143,107,-205,171,102,-197,-268,-8,-299,-482,-246,-286,17,2,-170,40,-24,94,-241,-3,-132,-345,-167
147065,23,398,-3,-371,158,216,-138,179,237,121,83,-172,188,96,-218,-291,1,-297,-498,-250,-286,9,6,-163,37,-32,116,-240,26,-140,-370,-171
147066,29,393,-8,-343,167,229,-65,231,247,136,94,-157,225,108,-196,-306,-34,-271,-486,-226,-244,68,52,-130,71,-20,170,-187,50,-105,-379,-160
147067,49,433,-63,-326,184,242,-65,311,273,145,138,-164,263,147,-183,-330,-39,-228,-430,-205,-213,47,84,-112,86,3,151,-218,41,-103,-329,-153
147068,38,425,-106,-323,188,230,-65,341,282,149,143,-214,257,146,-169,-421,-30,-240,-441,-206,-251,-37,93,-117,89,-7,71,-233,32,-131,-361,-208
147069,52,414,-139,-284,195,242,-20,302,288,154,113,-238,248,146,-173,-681,38,-259,-442,-194,-263,-5,119,-106,94,-12,116,-159,71,-81,-340,-138
147070,51,409,-140,-309,187,242,10,293,278,161,110,-197,234,143,-175,-933,38,-261,-449,-190,-273,-4,118,-100,55,-30,129,-172,70,-114,-361,-162
147071,71,422,-71,-318,166,208,-86,295,267,140,93,-221,223,124,-199,-731,-18,-250,-452,-210,-315,-56,80,-134,41,-71,47,-214,35,-128,-377,-162
147072,76,356,-60,-361,142,193,-249,257,251,126,39,-273,206,127,-217,-433,-68,-257,-470,-241,-314,-111,89,-145,10,-89,45,-238,23,-159,-416,-216
147073,32,295,-38,-362,135,166,-316,287,241,97,23,-182,197,110,-236,-432,17,-273,-482,-252,-358,-97,131,-144,1,-111,7,-249,-4,-191,-458,-263
147074,11,324,-3,-306,146,159,-226,290,253,112,36,-50,204,123,-231,-464,34,-287,-500,-254,-362,-75,108,-150,17,-92,15,-185,8,-164,-483,-251
147075,54,382,69,-329,148,178,-183,221,240,104,31,-250,219,107,-251,-527,-46,-282,-507,-253,-363,-83,56,-118,32,-96,34,-161,30,-146,-448,-238
147076,84,411,155,-340,176,187,-106,202,253,126,80,-238,222,125,-214,-585,-24,-241,-479,-245,-278,-24,161,-108,64,-61,166,-122,51,-126,-424,-218
147077,87,395,123,-325,164,221,-94,182,253,135,121,-151,198,147,-194,-460,16,-268,-511,-235,-237,-23,156,-99,71,-47,99,-164,21,-168,-460,-314
147078,65,356,16,-319,157,199,-128,216,250,113,67,-207,213,117,-225,-284,-33,-282,-515,-274,-291,-99,96,-125,47,-82,1,-164,47,-142,-400,-262
147079,52,357,-3,-324,161,176,-191,262,256,138,1,-188,234,137,-225,-217,-130,-263,-474,-274,-304,-49,63,-108,51,-64,-34,-169,73,-111,-396,-172
147080,71,411,23,-286,175,179,-147,294,264,143,-24,-199,241,131,-249,-234,-112,-274,-477,-258,-363,-33,66,-136,15,-99,-88,-216,17,-157,-405,-148
147081,52,445,0,-311,179,175,-92,255,269,121,-17,-197,233,107,-263,-222,69,-251,-488,-275,-358,-44,128,-145,-4,-122,18,-201,3,-164,-404,-184
147082,56,457,0,-347,166,179,-112,191,233,93,-11,-165,214,76,-260,-243,-76,-282,-516,-297,-341,-47,122,-148,-16,-114,30,-200,4,-163,-424,-197
147083,88,456,36,-319,194,183,-121,243,265,129,-55,-104,220,113,-227,-163,42,-217,-498,-259,-271,-40,154,-131,30,-75,151,-224,7,-135,-400,-153
147084,87,419,54,-322,191,200,-153,204,256,148,-34,-132,213,104,-230,-141,38,-235,-487,-260,-282,-5,110,-120,27,-71,183,-195,21,-140,-375,-130
147085,117,382,104,-273,198,217,-191,200,254,133,53,-143,206,102,-211,-187,-9,-265,-464,-260,-272,59,58,-138,22,-81,127,-160,21,-132,-349,-148
147086,137,379,121,-273,201,238,-152,231,264,149,125,-172,210,98,-213,-219,-23,-276,-476,-257,-275,66,18,-176,18,-95,86,-198,-21,-148,-364,-173
147087,123,390,61,-310,194,255,-162,247,274,148,97,-176,207,88,-211,-222,-54,-302,-503,-279,-293,32,1,-189,-2,-100,154,-219,-35,-175,-413,-224
147088,66,362,6,-302,189,219,-192,248,246,127,53,-120,159,83,-223,-258,-126,-335,-531,-297,-284,8,-19,-240,-39,-116,166,-212,-42,-194,-425,-214
147089,47,380,-33,-286,175,226,-183,158,228,145,74,-164,146,93,-216,-256,-149,-328,-528,-292,-267,-26,-5,-249,-31,-129,87,-198,-24,-162,-402,-164
147090,38,355,-108,-273,177,256,-147,206,257,165,146,-296,168,100,-194,-359,-128,-345,-543,-299,-285,-135,8,-248,-59,-141,-51,-224,-11,-196,-456,-297
147091,52,323,-134,-291,156,225,-123,250,240,147,76,-353,171,66,-243,-404,-159,-345,-549,-340,-325,-144,104,-258,-87,-196,-78,-300,-14,-227,-535,-342
147092,76,342,-140,-331,164,189,-101,253,232,124,20,-278,164,68,-293,-387,-130,-310,-523,-352,-367,-65,208,-273,-98,-219,-87,-358,-115,-292,-581,-377
147093,116,394,-33,-320,185,200,-134,288,270,160,45,-236,190,111,-243,-507,-30,-307,-523,-315,-355,-73,60,-245,-70,-184,-142,-250,-134,-293,-546,-375
147094,79,416,57,-341,164,151,-190,268,244,132,40,-275,176,85,-247,-700,-105,-331,-527,-322,-383,-126,-87,-236,-61,-180,-220,-135,16,-227,-504,-358
147095,62,383,32,-323,156,152,-167,251,235,134,4,-294,184,88,-250,-648,-122,-323,-524,-328,-410,-116,-1,-196,-41,-171,-70,-83,63,-181,-483,-339
147096,78,355,42,-312,184,178,-112,227,247,162,13,-287,197,110,-236,-504,-96,-285,-509,-285,-402,-92,81,-163,1,-131,19,-63,67,-159,-440,-266
147097,89,386,17,-315,183,195,-77,243,256,155,33,-359,212,100,-217,-505,-120,-285,-500,-270,-370,-101,53,-185,-8,-131,32,-178,84,-131,-410,-268
147098,83,448,-23,-292,168,171,-68,246,257,124,-16,-508,222,85,-243,-477,-120,-309,-504,-302,-377,-133,20,-197,-30,-154,40,-299,88,-147,-428,-330
147099,20,421,-67,-314,159,161,-75,256,259,118,-30,-396,184,84,-269,-363,-136,-312,-511,-301,-382,-125,-21,-215,-56,-135,34,-336,27,-201,-454,-365
147100,46,414,1,-323,177,182,-20,217,271,120,3,-258,190,99,-228,-458,-127,-281,-506,-268,-356,-78,-34,-242,-42,-142,-32,-349,-205,-303,-474,-230
147101,44,374,-8,-333,150,171,-44,210,246,109,16,-216,158,98,-222,-739,-85,-298,-523,-288,-350,-51,-19,-277,-67,-165,-82,-425,-266,-297,-512,-220
147102,18,323,-48,-361,132,169,-166,209,217,105,16,-229,164,95,-251,-820,-44,-316,-514,-278,-370,-85,24,-240,-39,-165,-155,-365,-154,-239,-500,-319
147103,29,360,-84,-349,162,218,-141,242,246,158,110,-176,196,131,-201,-611,-75,-309,-499,-227,-320,-111,6,-206,13,-109,-89,-305,-87,-209,-454,-285
147104,-27,321,-96,-322,150,257,-232,220,259,161,203,-86,170,99,-158,-373,-121,-313,-524,-228,-318,-286,-6,-222,-2,-105,-29,-334,-94,-201,-428,-230
147105,0,239,-65,-361,129,275,-389,205,226,170,172,-106,158,99,-193,-218,-91,-317,-539,-256,-315,-133,80,-230,-9,-126,-19,-384,-127,-226,-461,-277
147106,58,267,-36,-362,143,271,-354,174,228,167,131,-119,175,117,-187,-140,-41,-308,-508,-245,-256,-35,70,-218,10,-114,-27,-310,-82,-232,-478,-348
147107,50,340,-25,-357,153,262,-246,91,231,142,95,-105,153,105,-201,-173,-61,-316,-506,-255,-321,-103,-19,-233,26,-108,-68,-302,-60,-218,-488,-301
147108,91,383,-27,-386,144,217,-120,111,221,139,55,-225,147,107,-219,-280,-71,-338,-496,-265,-355,-43,-28,-214,40,-118,14,-269,-45,-197,-473,-236
147109,105,413,-26,-409,145,209,-69,136,235,115,37,-239,159,111,-210,-451,-71,-320,-474,-251,-342,-44,34,-195,38,-106,101,-248,-31,-192,-461,-236
147110,94,500,-47,-377,171,231,59,183,238,125,41,-231,189,117,-202,-535,-28,-288,-455,-238,-336,-54,114,-138,45,-91,4,-189,28,-151,-415,-252
147111,75,464,-77,-362,166,221,82,238,271,148,26,-233,211,131,-195,-517,-31,-266,-463,-239,-292,-28,138,-128,54,-103,-28,-182,38,-132,-408,-276
147112,12,380,-86,-371,125,195,85,176,238,131,19,-231,171,96,-195,-538,-93,-322,-500,-268,-300,-63,52,-177,41,-119,0,-202,-1,-172,-486,-347
147113,16,405,-35,-364,149,215,92,198,227,143,137,-184,200,116,-180,-472,-41,-286,-473,-227,-294,-40,60,-133,64,-71,24,-117,52,-129,-428,-278
147114,45,365,-75,-366,153,230,93,213,235,127,129,-195,212,119,-182,-328,-58,-281,-458,-218,-282,-63,41,-129,74,-57,33,-164,33,-147,-411,-278
147115,76,356,-110,-343,158,271,72,219,236,139,137,-269,205,129,-156,-208,-141,-286,-440,-217,-263,-7,25,-129,80,-54,92,-274,-38,-173,-417,-256
147116,69,362,-94,-353,172,234,23,188,238,145,99,-335,172,111,-175,-123,-75,-303,-424,-210,-256,54,15,-160,72,-44,105,-289,-52,-167,-410,-218
147117,36,359,-69,-365,157,264,-6,190,252,146,55,-303,186,120,-174,-89,-27,-291,-452,-205,-242,63,57,-134,73,-42,96,-210,28,-137,-406,-203
147118,46,381,-40,-368,139,285,-4,170,243,136,127,-256,195,111,-164,-146,-37,-296,-463,-223,-269,41,75,-150,70,-78,91,-209,18,-159,-445,-267
147119,7,400,-23,-366,136,272,-37,167,232,137,122,-255,190,115,-175,-158,-55,-282,-464,-238,-255,7,52,-157,63,-75,116,-228,-12,-154,-435,-273
147120,40,418,16,-312,169,329,-91,204,245,179,163,-236,209,146,-143,-161,24,-267,-423,-213,-232,-33,106,-126,83,-46,96,-191,30,-128,-412,-262
147121,32,395,17,-353,136,309,-132,193,248,155,171,-243,201,121,-180,-205,-19,-294,-446,-228,-253,-9,72,-151,54,-73,47,-208,-19,-154,-438,-269
147122,12,410,-27,-372,112,238,-58,177,226,119,144,-189,209,124,-195,-184,-35,-251,-439,-224,-233,25,141,-132,57,-58,88,-188,37,-119,-390,-237
147123,2,358,-51,-332,104,248,5,239,232,151,139,-208,202,119,-170,-361,-33,-230,-439,-234,-221,52,266,-126,47,-49,100,-224,32,-118,-368,-224
147124,-20,303,-97,-272,124,280,32,336,249,148,156,-387,216,111,-178,-431,-77,-257,-442,-245,-229,16,271,-150,31,-66,79,-333,-40,-155,-403,-214
147125,17,328,-184,-254,152,305,60,350,268,151,258,-251,210,105,-165,-371,-55,-255,-468,-223,-242,-17,124,-172,36,-62,140,-277,-7,-135,-395,-191
147126,53,363,-108,-289,142,259,-48,259,233,145,227,-154,180,86,-180,-383,-12,-272,-471,-231,-200,-11,14,-169,24,-56,196,-254,-3,-165,-432,-293
147127,79,389,23,-276,159,279,-99,200,248,176,211,-159,190,107,-166,-492,-31,-268,-446,-217,-135,0,95,-128,57,-12,132,-254,-42,-153,-411,-315
147128,64,354,86,-321,158,297,-93,193,246,167,194,-171,186,125,-150,-449,-38,-303,-451,-191,-128,66,37,-117,84,11,69,-249,-30,-161,-430,-285
147129,87,368,37,-354,147,294,-89,231,226,166,153,-261,182,102,-176,-558,-40,-318,-472,-224,-261,-75,-22,-159,59,-61,-161,-233,-20,-165,-427,-270
147130,149,409,23,-345,173,272,-21,230,245,162,117,-152,204,108,-158,-712,-13,-277,-484,-222,-302,-152,28,-165,47,-65,-165,-222,13,-147,-413,-258
147131,84,416,19,-360,171,279,15,233,249,125,85,-131,202,111,-194,-570,-29,-288,-506,-253,-290,-45,49,-179,31,-78,-94,-233,-17,-167,-432,-279
147132,29,375,21,-348,149,294,1,227,247,150,77,-185,194,93,-224,-383,-144,-272,-513,-263,-310,-57,40,-197,7,-103,-76,-228,-40,-205,-449,-304
