,Fp1,Fp2,F7,F3,Fz,F4,F8,FC5,FC1,FC2,FC6,T7,C3,Cz,C4,T8,TP9,CP5,CP1,CP2,CP6,TP10,P7,P3,Pz,P4,P8,PO9,O1,Oz,O2,PO10
3456,38,209,-350,-190,-155,-74,-360,-110,-88,-229,-310,-454,4,-133,-319,-406,-482,-312,-163,-145,-260,-343,-67,-267,-187,-107,10,-382,-170,-303,-628,-457
3457,10,179,-356,-201,-144,-14,-412,-108,-94,-232,-265,-435,7,-110,-309,-485,-502,-292,-186,-132,-258,-488,-32,-261,-188,-118,11,-359,-153,-312,-623,-482
3458,36,211,-363,-201,-146,-17,-402,-92,-91,-219,-236,-410,12,-118,-318,-580,-510,-288,-178,-149,-288,-383,-19,-265,-197,-128,12,-450,-174,-343,-645,-521
3459,64,232,-339,-193,-125,39,-399,-66,-99,-209,-243,-398,30,-115,-326,-487,-485,-277,-184,-155,-304,-352,-105,-285,-211,-153,-12,-550,-244,-399,-687,-547
3460,28,153,-358,-200,-141,46,-385,-83,-123,-227,-288,-451,5,-130,-358,-335,-562,-317,-197,-176,-298,-339,-231,-312,-222,-183,-44,-540,-257,-410,-730,-581
3461,26,155,-383,-206,-128,75,-344,-99,-125,-228,-291,-468,18,-132,-349,-288,-656,-318,-194,-178,-277,-379,-261,-317,-227,-168,-24,-559,-261,-425,-772,-574
3462,65,217,-352,-223,-102,70,-311,-96,-114,-204,-303,-550,46,-136,-363,-301,-647,-302,-180,-181,-321,-443,-255,-311,-253,-195,-78,-596,-303,-482,-803,-619
3463,-3,239,-374,-311,-145,19,-329,-135,-132,-216,-331,-681,34,-124,-383,-320,-625,-319,-160,-200,-360,-373,-219,-323,-254,-228,-94,-555,-280,-462,-817,-640
3464,-120,224,-428,-274,-169,27,-353,-147,-133,-219,-325,-690,5,-106,-382,-360,-617,-343,-165,-198,-343,-363,-225,-300,-249,-233,-58,-584,-303,-444,-810,-649
3465,-139,171,-449,-202,-157,11,-408,-193,-135,-251,-382,-697,-33,-102,-403,-446,-628,-379,-188,-220,-372,-454,-231,-307,-265,-228,-76,-591,-326,-476,-816,-679
3466,-96,147,-467,-229,-167,-38,-430,-258,-151,-251,-414,-663,-59,-113,-417,-402,-654,-388,-197,-235,-359,-466,-187,-301,-243,-232,-60,-553,-318,-463,-804,-673
3467,-89,152,-513,-269,-189,-60,-415,-278,-150,-254,-392,-714,-53,-116,-438,-385,-682,-424,-186,-242,-342,-401,-234,-320,-254,-230,-12,-542,-266,-408,-783,-619
3468,-85,95,-511,-279,-180,-20,-380,-284,-132,-239,-378,-682,-44,-115,-413,-399,-728,-415,-181,-241,-346,-387,-230,-295,-234,-215,4,-528,-211,-401,-771,-639
3469,-74,124,-480,-270,-151,24,-360,-254,-152,-241,-352,-592,-56,-120,-412,-413,-761,-418,-194,-249,-374,-441,-247,-295,-235,-236,-67,-609,-245,-441,-808,-682
3470,-77,198,-480,-265,-142,21,-343,-240,-148,-247,-340,-590,-41,-130,-416,-394,-781,-402,-169,-239,-360,-428,-304,-300,-226,-238,-67,-650,-277,-441,-817,-632
3471,-93,192,-531,-279,-167,-3,-338,-244,-159,-261,-326,-729,-63,-141,-404,-380,-805,-425,-184,-240,-366,-423,-376,-322,-217,-222,-47,-647,-262,-431,-785,-604
3472,-45,210,-497,-279,-158,-53,-342,-249,-133,-261,-325,-773,-63,-131,-406,-408,-772,-453,-181,-208,-337,-473,-369,-312,-205,-195,-37,-608,-235,-397,-759,-614
3473,-44,198,-485,-293,-158,-101,-397,-252,-138,-251,-308,-764,-81,-143,-409,-472,-757,-458,-183,-218,-324,-466,-388,-302,-198,-191,-31,-634,-242,-384,-750,-576
3474,-13,186,-455,-255,-163,5,-404,-237,-140,-233,-273,-715,-89,-122,-387,-422,-744,-481,-203,-221,-310,-452,-363,-307,-181,-164,-11,-615,-238,-361,-707,-555
3475,-7,131,-480,-293,-166,3,-378,-248,-148,-255,-275,-748,-101,-148,-409,-361,-741,-519,-243,-243,-341,-499,-402,-360,-219,-195,-35,-631,-262,-387,-722,-649
3476,9,116,-461,-252,-133,29,-331,-220,-138,-232,-256,-768,-80,-147,-409,-356,-803,-482,-232,-224,-328,-506,-435,-375,-234,-172,-25,-605,-249,-379,-704,-626
3477,-94,135,-434,-227,-127,37,-314,-228,-143,-233,-286,-673,-93,-165,-401,-442,-839,-500,-257,-229,-331,-468,-466,-389,-239,-185,-25,-666,-278,-405,-697,-570
3478,-214,183,-379,-186,-115,-1,-294,-154,-127,-246,-303,-694,-49,-164,-405,-544,-842,-479,-230,-237,-323,-408,-445,-375,-237,-189,-2,-633,-240,-360,-662,-587
3479,-74,262,-341,-164,-92,-50,-283,-173,-123,-232,-265,-748,-52,-149,-385,-540,-724,-426,-200,-213,-316,-405,-367,-331,-209,-191,9,-605,-224,-355,-655,-634
3480,63,278,-361,-165,-99,69,-267,-180,-125,-229,-263,-867,-54,-141,-380,-388,-697,-409,-199,-212,-318,-375,-352,-312,-202,-182,60,-565,-184,-345,-625,-482
3481,144,262,-334,-187,-108,130,-248,-86,-118,-220,-279,-708,-18,-127,-371,-277,-641,-388,-187,-219,-288,-362,-280,-276,-179,-153,106,-409,-47,-228,-547,-445
3482,167,271,-354,-237,-121,68,-257,-118,-122,-226,-298,-583,-54,-139,-391,-219,-670,-434,-205,-236,-302,-433,-227,-303,-208,-191,75,-460,-108,-239,-590,-522
3483,182,281,-353,-247,-108,37,-280,-110,-127,-226,-304,-463,-52,-143,-392,-228,-644,-408,-199,-240,-342,-512,-131,-294,-221,-226,-19,-614,-174,-278,-661,-554
3484,119,294,-343,-192,-106,58,-292,-95,-129,-232,-278,-433,-25,-150,-411,-304,-699,-351,-202,-253,-381,-494,-119,-292,-213,-239,-79,-596,-181,-301,-697,-587
3485,76,335,-384,-188,-107,25,-292,-179,-153,-243,-294,-631,-61,-173,-437,-411,-727,-413,-243,-286,-387,-479,-211,-331,-232,-249,-92,-699,-200,-348,-711,-610
3486,84,361,-365,-192,-83,15,-299,-206,-143,-244,-283,-676,-56,-148,-439,-469,-658,-404,-216,-252,-369,-406,-172,-293,-221,-222,-16,-602,-159,-310,-653,-596
3487,67,309,-381,-215,-92,14,-298,-253,-170,-238,-291,-649,-106,-170,-439,-450,-619,-415,-220,-263,-393,-440,-132,-285,-215,-251,-20,-534,-150,-330,-664,-578
3488,60,253,-377,-210,-102,5,-307,-285,-160,-229,-320,-605,-121,-166,-433,-526,-668,-443,-241,-259,-400,-470,-228,-323,-210,-247,-55,-599,-146,-298,-641,-514
3489,76,265,-378,-204,-93,6,-327,-252,-151,-235,-354,-593,-121,-162,-449,-557,-686,-437,-238,-249,-413,-450,-306,-317,-227,-220,-59,-577,-149,-274,-596,-472
3490,109,237,-353,-213,-101,19,-327,-239,-145,-250,-340,-657,-76,-181,-433,-384,-693,-428,-209,-237,-367,-416,-275,-252,-166,-176,0,-380,-66,-218,-502,-409
3491,131,235,-359,-210,-81,30,-297,-237,-143,-253,-338,-665,-89,-159,-419,-306,-778,-427,-204,-215,-328,-394,-300,-242,-157,-121,62,-342,28,-157,-459,-361
3492,127,258,-378,-199,-87,18,-324,-214,-139,-247,-340,-636,-64,-159,-420,-426,-729,-376,-192,-222,-332,-384,-263,-215,-148,-123,71,-205,106,-116,-454,-338
3493,88,276,-370,-167,-94,18,-322,-196,-129,-247,-298,-643,-66,-166,-393,-486,-746,-412,-185,-208,-305,-308,-303,-206,-160,-108,101,-321,37,-140,-459,-307
3494,75,173,-366,-137,-83,-34,-324,-198,-108,-251,-293,-616,-50,-165,-386,-502,-735,-417,-184,-195,-291,-285,-315,-230,-152,-105,142,-480,-30,-191,-429,-284
3495,43,49,-380,-167,-84,22,-364,-199,-123,-253,-315,-712,-46,-189,-404,-444,-716,-436,-220,-244,-302,-399,-300,-260,-199,-126,102,-417,-80,-251,-515,-366
3496,35,140,-387,-165,-70,70,-383,-192,-108,-254,-310,-751,-78,-191,-405,-358,-724,-450,-229,-245,-310,-412,-279,-271,-231,-145,81,-448,-85,-234,-520,-390
3497,49,280,-388,-136,-55,25,-371,-167,-93,-234,-328,-662,-70,-174,-419,-330,-720,-434,-239,-234,-303,-322,-259,-263,-225,-125,108,-544,-80,-219,-477,-355
3498,63,305,-353,-124,-59,-19,-400,-151,-110,-239,-367,-575,-50,-167,-437,-319,-715,-428,-229,-251,-282,-277,-272,-276,-238,-116,174,-636,-109,-198,-453,-297
3499,119,335,-327,-125,-63,2,-357,-141,-82,-250,-321,-526,-40,-172,-394,-287,-693,-400,-224,-242,-261,-250,-276,-268,-241,-108,218,-572,-73,-180,-450,-256
3500,136,359,-322,-107,-75,35,-302,-123,-77,-221,-284,-528,-3,-147,-377,-244,-722,-359,-202,-214,-230,-252,-254,-243,-209,-75,241,-476,1,-158,-437,-242
3501,155,362,-319,-106,-55,60,-280,-110,-89,-222,-267,-597,6,-128,-353,-225,-696,-354,-197,-182,-191,-162,-275,-222,-179,-53,301,-513,-33,-165,-461,-225
3502,114,331,-320,-126,-68,55,-283,-139,-101,-231,-253,-684,-13,-159,-338,-269,-651,-370,-199,-176,-180,-167,-257,-255,-185,-67,288,-540,-75,-230,-489,-218
3503,109,331,-318,-144,-67,84,-287,-154,-116,-214,-246,-630,-13,-158,-325,-395,-638,-372,-196,-182,-184,-251,-207,-255,-187,-71,223,-477,-21,-198,-480,-214
3504,144,370,-316,-148,-61,117,-280,-148,-110,-200,-212,-640,-36,-169,-304,-538,-672,-389,-215,-189,-214,-329,-185,-265,-215,-112,170,-455,-66,-254,-578,-298
3505,144,358,-337,-153,-48,72,-269,-171,-119,-195,-184,-639,-60,-182,-306,-528,-665,-419,-242,-214,-242,-288,-172,-321,-254,-149,143,-444,-93,-349,-671,-381
3506,91,310,-403,-188,-57,75,-284,-233,-139,-176,-192,-680,-101,-187,-319,-366,-704,-466,-267,-216,-232,-253,-185,-344,-274,-146,145,-553,-167,-419,-698,-379
3507,24,278,-460,-212,-81,121,-338,-234,-170,-173,-217,-652,-113,-195,-322,-260,-788,-464,-294,-219,-252,-301,-225,-376,-309,-178,144,-681,-271,-517,-766,-472
3508,-9,279,-483,-213,-113,91,-342,-220,-162,-199,-257,-633,-90,-189,-323,-214,-797,-457,-278,-210,-243,-351,-283,-378,-293,-189,171,-545,-244,-498,-786,-514
3509,-50,230,-536,-254,-111,85,-327,-203,-149,-202,-268,-887,-74,-165,-337,-288,-770,-476,-246,-205,-247,-447,-311,-362,-268,-165,132,-343,-145,-460,-799,-505
3510,-35,223,-541,-294,-108,69,-331,-182,-139,-203,-222,-1139,-81,-138,-334,-448,-750,-506,-248,-193,-261,-461,-337,-359,-271,-166,87,-413,-182,-491,-801,-503
3511,-5,233,-525,-287,-106,-102,-350,-202,-121,-214,-176,-1082,-87,-148,-353,-472,-701,-536,-238,-186,-266,-453,-318,-364,-242,-159,60,-329,-165,-468,-790,-478
3512,16,195,-511,-267,-108,101,-360,-223,-129,-204,-226,-933,-106,-137,-335,-383,-747,-561,-246,-187,-267,-401,-419,-391,-269,-190,54,-524,-311,-568,-864,-499
3513,50,210,-490,-238,-112,82,-349,-270,-136,-214,-281,-799,-143,-138,-347,-351,-819,-596,-243,-217,-254,-382,-500,-447,-268,-213,59,-809,-485,-678,-908,-555
3514,29,191,-498,-220,-132,-10,-392,-263,-115,-244,-368,-721,-129,-144,-390,-324,-834,-557,-246,-214,-292,-441,-483,-443,-255,-190,34,-820,-507,-676,-899,-573
3515,11,187,-486,-213,-115,-55,-423,-283,-103,-255,-392,-666,-81,-135,-417,-359,-790,-500,-230,-200,-326,-434,-408,-403,-248,-186,19,-854,-533,-689,-900,-584
3516,34,159,-484,-208,-97,-80,-431,-281,-106,-251,-398,-631,-51,-125,-440,-435,-682,-444,-177,-218,-327,-427,-244,-351,-229,-211,6,-752,-460,-638,-860,-629
3517,14,160,-450,-205,-113,-112,-428,-275,-116,-263,-420,-628,-51,-124,-448,-486,-737,-456,-182,-238,-353,-477,-274,-345,-233,-207,32,-699,-445,-606,-853,-630
3518,-4,173,-466,-223,-118,-70,-419,-286,-128,-265,-399,-689,-79,-131,-436,-414,-793,-479,-206,-232,-321,-477,-353,-386,-223,-203,6,-744,-512,-629,-865,-596
3519,19,217,-444,-225,-107,69,-382,-252,-129,-258,-339,-678,-65,-105,-377,-400,-770,-470,-168,-190,-301,-404,-359,-370,-204,-163,6,-764,-513,-629,-816,-572
3520,18,198,-486,-267,-125,21,-376,-319,-158,-253,-341,-708,-107,-122,-381,-497,-821,-509,-205,-199,-296,-393,-397,-377,-210,-157,25,-810,-543,-644,-798,-569
3521,-18,127,-483,-257,-131,5,-379,-297,-157,-234,-347,-690,-105,-105,-371,-423,-822,-493,-201,-166,-266,-356,-399,-371,-185,-143,57,-727,-501,-586,-786,-536
3522,-125,60,-503,-234,-156,-8,-398,-266,-152,-231,-330,-724,-79,-114,-367,-376,-917,-495,-201,-186,-270,-452,-448,-397,-195,-161,38,-745,-503,-582,-803,-582
3523,-162,-21,-524,-251,-162,22,-457,-272,-171,-232,-291,-815,-90,-108,-351,-443,-957,-536,-231,-184,-291,-444,-496,-429,-211,-175,21,-857,-546,-611,-807,-654
3524,-218,-59,-519,-229,-156,38,-492,-285,-177,-211,-302,-927,-107,-91,-348,-448,-874,-554,-218,-163,-278,-357,-443,-411,-204,-149,60,-910,-537,-586,-775,-636
3525,-175,-39,-523,-246,-152,-66,-497,-288,-161,-234,-346,-973,-111,-89,-376,-344,-847,-542,-208,-188,-289,-348,-461,-418,-209,-164,57,-970,-568,-583,-793,-589
3526,-49,49,-509,-263,-129,25,-491,-287,-167,-217,-321,-823,-110,-93,-362,-336,-855,-555,-218,-188,-318,-349,-469,-420,-218,-152,2,-862,-551,-588,-797,-582
3527,8,157,-500,-244,-128,13,-467,-313,-156,-223,-327,-846,-97,-80,-382,-404,-843,-552,-208,-171,-314,-382,-443,-418,-199,-154,31,-731,-460,-537,-775,-601
3528,-10,126,-533,-274,-155,-92,-498,-297,-157,-268,-389,-760,-106,-81,-430,-406,-874,-542,-225,-185,-351,-411,-444,-413,-201,-171,43,-763,-473,-538,-751,-613
3529,-6,81,-505,-251,-149,-99,-472,-239,-136,-271,-421,-629,-67,-99,-463,-379,-871,-487,-207,-192,-362,-387,-403,-378,-197,-191,6,-758,-427,-535,-757,-596
3530,-22,163,-474,-210,-150,-71,-435,-238,-136,-250,-397,-705,-51,-97,-435,-386,-835,-458,-173,-176,-343,-371,-362,-332,-177,-175,6,-679,-373,-492,-727,-554
3531,-58,181,-473,-234,-156,-102,-462,-275,-140,-259,-433,-779,-77,-108,-458,-517,-840,-475,-187,-196,-363,-368,-325,-319,-177,-179,15,-595,-332,-474,-730,-538
3532,-69,136,-538,-255,-191,-125,-477,-287,-161,-292,-465,-752,-105,-132,-487,-549,-802,-476,-226,-232,-399,-421,-307,-329,-198,-198,-32,-506,-273,-429,-752,-579
3533,-48,162,-538,-221,-176,-100,-477,-283,-150,-288,-426,-792,-92,-104,-497,-511,-811,-479,-211,-213,-403,-406,-335,-336,-190,-193,-58,-565,-256,-389,-725,-584
3534,-72,139,-511,-241,-166,-89,-530,-268,-133,-277,-417,-801,-89,-99,-503,-595,-886,-506,-215,-231,-433,-486,-409,-361,-227,-246,-108,-692,-340,-451,-774,-655
3535,-44,62,-483,-223,-162,-150,-558,-197,-120,-286,-447,-792,-70,-108,-504,-753,-834,-479,-221,-259,-461,-504,-336,-343,-232,-253,-118,-495,-281,-427,-757,-627
3536,-14,10,-488,-218,-150,-133,-585,-204,-108,-283,-472,-922,-54,-106,-490,-765,-810,-502,-225,-255,-451,-515,-343,-355,-236,-256,-96,-506,-273,-433,-753,-600
3537,-21,63,-511,-205,-138,-145,-527,-227,-116,-268,-448,-803,-49,-113,-470,-618,-860,-506,-198,-219,-415,-483,-382,-355,-210,-234,-50,-667,-332,-435,-743,-588
3538,-48,61,-519,-233,-144,-148,-473,-196,-130,-286,-449,-644,-51,-108,-456,-451,-834,-484,-192,-202,-366,-429,-318,-309,-174,-178,-1,-603,-234,-327,-666,-544
3539,-31,128,-515,-265,-154,-95,-455,-250,-144,-297,-425,-719,-73,-117,-435,-393,-733,-478,-191,-201,-358,-419,-205,-295,-177,-176,15,-509,-233,-327,-680,-543
3540,11,165,-489,-239,-135,-77,-428,-217,-132,-278,-414,-843,-56,-113,-426,-394,-652,-454,-177,-168,-327,-375,-120,-276,-142,-151,34,-536,-211,-297,-631,-487
3541,48,193,-418,-175,-109,-43,-399,-194,-122,-249,-386,-721,-30,-70,-408,-349,-566,-425,-162,-151,-296,-355,-73,-261,-131,-117,59,-626,-210,-305,-637,-486
3542,76,211,-418,-183,-130,-52,-407,-184,-122,-257,-346,-696,-35,-97,-387,-370,-710,-413,-161,-160,-277,-384,-199,-271,-118,-106,92,-882,-355,-379,-650,-459
3543,76,220,-402,-201,-124,-65,-403,-168,-121,-269,-296,-661,-22,-106,-349,-492,-747,-399,-144,-129,-223,-327,-221,-222,-106,-53,156,-703,-258,-312,-559,-421
3544,100,268,-354,-192,-117,-42,-354,-150,-136,-249,-194,-638,-30,-80,-322,-404,-730,-451,-149,-132,-224,-284,-328,-234,-112,-38,157,-571,-167,-238,-523,-426
3545,75,238,-349,-191,-116,-14,-385,-168,-120,-245,-227,-621,-21,-81,-330,-265,-752,-422,-140,-123,-215,-289,-325,-220,-79,-30,136,-582,-94,-184,-497,-376
3546,73,260,-332,-203,-108,-21,-383,-165,-100,-251,-297,-612,18,-76,-336,-207,-744,-372,-118,-113,-190,-273,-236,-184,-46,-23,159,-514,-55,-167,-473,-391
3547,48,244,-363,-198,-103,-28,-399,-220,-116,-270,-308,-709,-24,-102,-341,-386,-731,-390,-148,-121,-195,-270,-244,-214,-92,-25,156,-495,-96,-217,-515,-430
3548,46,163,-348,-145,-90,-42,-422,-203,-86,-244,-335,-691,-13,-94,-360,-573,-741,-391,-139,-120,-215,-293,-233,-203,-87,-18,154,-528,-115,-227,-502,-457
3549,47,80,-366,-175,-110,-146,-434,-203,-99,-269,-388,-774,-2,-102,-381,-554,-745,-418,-137,-127,-253,-399,-273,-211,-99,-62,99,-514,-119,-237,-506,-558
3550,40,107,-396,-183,-139,-81,-431,-203,-110,-257,-405,-804,-15,-104,-395,-528,-784,-427,-153,-159,-280,-437,-279,-215,-104,-89,48,-461,-116,-252,-560,-554
3551,5,146,-389,-177,-148,-29,-442,-201,-115,-273,-416,-727,-2,-75,-420,-502,-808,-396,-133,-167,-322,-418,-280,-214,-103,-92,-5,-511,-169,-300,-573,-509
3552,-57,150,-417,-211,-143,-94,-427,-203,-122,-270,-431,-729,-14,-83,-407,-421,-750,-396,-131,-146,-291,-365,-255,-198,-95,-75,69,-411,-121,-250,-554,-465
3553,-19,124,-411,-241,-160,-50,-367,-199,-120,-247,-350,-852,-21,-70,-374,-251,-750,-415,-132,-133,-231,-327,-303,-212,-81,-49,208,-518,-191,-276,-552,-386
3554,-3,123,-405,-211,-155,-10,-335,-197,-115,-242,-317,-733,-8,-81,-353,-154,-783,-408,-112,-127,-213,-401,-296,-212,-81,-52,173,-596,-243,-335,-573,-456
3555,-15,172,-385,-179,-156,-14,-337,-194,-131,-252,-329,-611,-10,-83,-376,-244,-804,-416,-131,-136,-263,-400,-312,-232,-93,-88,48,-736,-237,-344,-605,-539
3556,13,215,-359,-180,-140,11,-343,-182,-140,-258,-345,-582,-8,-96,-394,-378,-727,-352,-113,-151,-289,-363,-224,-205,-81,-87,39,-637,-162,-274,-569,-472
3557,16,221,-383,-200,-136,-38,-314,-196,-148,-254,-352,-565,-9,-103,-397,-455,-620,-311,-120,-152,-305,-356,-175,-199,-92,-105,22,-400,-114,-277,-611,-477
3558,68,228,-353,-182,-127,-37,-294,-148,-136,-234,-327,-585,0,-113,-396,-494,-621,-338,-139,-157,-323,-309,-219,-221,-115,-108,-11,-580,-225,-356,-638,-484
3559,92,214,-307,-161,-119,3,-321,-141,-149,-250,-331,-604,0,-137,-404,-439,-645,-375,-166,-175,-353,-313,-252,-279,-152,-142,-29,-754,-342,-441,-688,-507
3560,109,244,-285,-160,-111,5,-306,-135,-148,-232,-337,-566,0,-113,-398,-378,-624,-357,-158,-171,-330,-318,-243,-264,-160,-163,-5,-633,-311,-449,-709,-510
3561,100,233,-293,-158,-121,17,-307,-81,-155,-237,-295,-535,2,-107,-390,-332,-667,-333,-148,-173,-331,-322,-246,-286,-162,-158,9,-599,-288,-442,-683,-478
3562,-5,188,-342,-166,-123,0,-348,-58,-142,-226,-297,-570,52,-82,-375,-288,-580,-306,-119,-156,-291,-285,-195,-272,-137,-140,58,-530,-263,-404,-638,-459
3563,-34,90,-338,-202,-127,-18,-381,-65,-134,-227,-299,-605,65,-74,-366,-322,-568,-316,-115,-155,-260,-242,-177,-249,-137,-110,114,-593,-257,-403,-650,-429
3564,-4,101,-351,-243,-146,7,-384,-142,-164,-233,-274,-614,10,-87,-361,-329,-574,-347,-137,-162,-261,-296,-179,-271,-157,-113,112,-650,-289,-453,-675,-487
3565,61,214,-318,-249,-133,10,-358,-101,-152,-226,-283,-666,15,-67,-376,-317,-552,-343,-128,-163,-278,-366,-160,-262,-149,-125,127,-573,-240,-428,-655,-511
3566,107,277,-281,-251,-130,20,-334,-50,-135,-236,-308,-697,35,-75,-413,-313,-595,-320,-121,-190,-321,-335,-168,-273,-167,-145,58,-623,-292,-448,-698,-488
3567,30,327,-310,-247,-127,11,-309,-47,-119,-230,-298,-655,35,-73,-391,-277,-617,-319,-117,-202,-303,-279,-152,-278,-165,-165,64,-603,-290,-437,-704,-486
3568,-10,348,-333,-214,-130,11,-262,-119,-109,-213,-269,-602,-4,-63,-345,-317,-587,-354,-117,-165,-253,-208,-157,-247,-150,-132,153,-474,-216,-382,-660,-454
3569,44,336,-322,-172,-112,-4,-246,-140,-116,-234,-294,-546,4,-87,-370,-373,-558,-352,-118,-198,-260,-199,-85,-243,-137,-97,170,-407,-167,-333,-631,-476
3570,177,361,-240,-113,-91,-90,-242,-85,-82,-256,-308,-464,46,-90,-398,-287,-523,-295,-103,-170,-255,-252,-24,-202,-113,-68,133,-393,-135,-318,-595,-415
3571,186,361,-219,-109,-109,-31,-242,-79,-92,-253,-275,-395,48,-95,-381,-274,-614,-296,-103,-175,-261,-299,-54,-219,-138,-86,98,-449,-155,-356,-597,-398
3572,114,319,-236,-124,-120,51,-246,-131,-108,-253,-256,-509,17,-99,-377,-300,-591,-327,-130,-177,-242,-285,-100,-246,-165,-102,109,-392,-163,-331,-607,-429
3573,125,394,-256,-129,-92,-55,-263,-161,-111,-244,-259,-628,-21,-102,-368,-288,-554,-368,-148,-166,-223,-191,-130,-241,-148,-86,147,-417,-151,-300,-591,-396
3574,165,391,-268,-136,-84,-46,-255,-153,-115,-218,-231,-618,-7,-109,-308,-203,-450,-354,-131,-134,-188,-128,-31,-201,-105,-39,211,-338,-66,-252,-519,-346
3575,142,358,-256,-157,-102,47,-287,-167,-126,-229,-259,-582,-5,-94,-297,-194,-432,-322,-127,-130,-155,-141,40,-178,-81,1,213,-315,-27,-184,-488,-361
3576,145,356,-240,-165,-107,74,-277,-193,-146,-211,-238,-540,-16,-87,-286,-190,-527,-348,-134,-109,-144,-204,-45,-202,-88,9,207,-321,-41,-176,-488,-384
3577,88,285,-269,-176,-124,74,-274,-171,-154,-204,-198,-554,-26,-95,-266,-120,-564,-327,-135,-106,-154,-254,-100,-216,-77,13,204,-318,-31,-187,-468,-323
3578,2,210,-302,-198,-138,41,-288,-171,-161,-207,-214,-650,-36,-91,-270,-188,-624,-371,-157,-126,-155,-298,-125,-243,-113,-23,179,-325,-54,-207,-487,-330
3579,-3,199,-278,-205,-140,19,-285,-159,-161,-219,-172,-584,-29,-88,-296,-639,-635,-391,-154,-130,-183,-340,-130,-248,-123,-60,140,-514,-156,-263,-538,-431
3580,-29,200,-321,-230,-157,28,-339,-143,-166,-238,-191,-537,-25,-81,-332,-692,-667,-380,-141,-149,-248,-393,-171,-272,-123,-101,78,-594,-197,-287,-584,-479
3581,19,261,-334,-236,-157,14,-363,-145,-147,-232,-230,-607,0,-47,-345,-427,-667,-369,-124,-143,-271,-337,-201,-257,-120,-118,49,-519,-221,-319,-595,-488
3582,37,287,-367,-255,-161,-35,-349,-163,-152,-241,-309,-715,9,-67,-357,-275,-667,-383,-121,-137,-266,-296,-271,-265,-117,-129,54,-533,-172,-296,-561,-449
3583,40,244,-398,-257,-179,-32,-332,-153,-144,-237,-304,-713,14,-40,-360,-276,-690,-348,-86,-133,-250,-321,-237,-230,-76,-87,67,-443,-42,-196,-525,-397
3584,17,199,-397,-254,-164,-72,-343,-141,-116,-242,-262,-704,12,-44,-340,-342,-682,-365,-97,-112,-265,-449,-248,-234,-73,-85,42,-511,-88,-259,-565,-424
3585,-16,196,-407,-240,-149,-79,-334,-132,-105,-248,-300,-622,8,-73,-339,-370,-735,-396,-115,-153,-268,-367,-331,-293,-108,-93,37,-658,-213,-317,-579,-457
3586,-4,188,-406,-263,-159,-44,-331,-146,-121,-256,-362,-581,-12,-106,-395,-386,-761,-390,-134,-171,-297,-330,-324,-297,-131,-106,30,-688,-195,-282,-565,-477
3587,9,179,-425,-205,-175,-32,-353,-131,-121,-277,-362,-620,0,-118,-395,-340,-771,-391,-139,-188,-286,-352,-296,-280,-156,-127,41,-503,-140,-295,-588,-462
3588,53,192,-383,-186,-135,-15,-319,-117,-99,-257,-329,-684,-1,-111,-361,-321,-828,-382,-147,-175,-281,-327,-233,-292,-160,-115,71,-430,-173,-349,-588,-492
3589,42,154,-358,-186,-118,-57,-358,-68,-80,-232,-348,-630,26,-73,-373,-384,-734,-288,-117,-144,-276,-366,-47,-238,-132,-87,113,-345,-113,-296,-561,-518
3590,38,156,-353,-201,-145,-210,-381,-83,-97,-266,-360,-677,8,-88,-383,-392,-709,-305,-114,-152,-276,-343,-104,-228,-143,-94,115,-544,-198,-337,-576,-455
3591,19,127,-367,-237,-158,-105,-382,-124,-120,-260,-356,-721,-49,-100,-406,-420,-830,-395,-153,-173,-310,-318,-307,-294,-156,-125,51,-945,-362,-398,-608,-438
3592,13,103,-359,-275,-166,32,-365,-157,-151,-245,-332,-780,-75,-89,-396,-433,-845,-448,-183,-214,-324,-394,-465,-345,-175,-153,35,-870,-366,-436,-638,-491
3593,39,99,-350,-284,-145,-68,-385,-159,-143,-223,-313,-846,-62,-87,-399,-375,-812,-464,-159,-190,-295,-376,-494,-337,-165,-138,27,-678,-305,-429,-670,-501
3594,-23,27,-397,-244,-145,-116,-405,-218,-163,-240,-323,-927,-90,-101,-395,-349,-793,-514,-174,-183,-295,-315,-447,-342,-151,-110,74,-560,-278,-399,-628,-431
3595,-32,51,-424,-244,-157,-18,-357,-295,-170,-233,-282,-841,-120,-107,-378,-289,-825,-539,-188,-162,-263,-278,-425,-359,-161,-91,135,-659,-315,-406,-623,-440
3596,-53,48,-414,-258,-144,104,-292,-283,-182,-231,-237,-637,-126,-128,-360,-185,-765,-515,-197,-147,-229,-266,-370,-353,-162,-70,134,-712,-351,-435,-605,-436
3597,-4,100,-385,-216,-136,51,-265,-233,-161,-245,-222,-474,-102,-128,-347,-185,-634,-435,-183,-139,-238,-326,-212,-317,-151,-78,151,-629,-270,-362,-583,-422
3598,40,261,-343,-151,-95,95,-195,-221,-143,-243,-170,-471,-71,-117,-318,-239,-628,-422,-170,-145,-216,-295,-217,-301,-151,-66,176,-568,-238,-305,-549,-427
3599,38,417,-325,-185,-59,121,-187,-174,-138,-256,-147,-510,-42,-140,-320,-243,-683,-434,-169,-143,-210,-263,-246,-303,-149,-60,209,-425,-162,-247,-491,-357
3600,-57,454,-287,-150,-104,69,-217,-82,-139,-278,-176,-520,-37,-150,-355,-271,-612,-412,-175,-185,-249,-242,-241,-297,-165,-79,170,-339,-127,-212,-482,-347
3601,-46,454,-252,-72,-93,48,-177,-60,-117,-271,-194,-691,-7,-136,-346,-242,-609,-391,-168,-200,-248,-221,-271,-302,-186,-100,168,-361,-148,-231,-484,-353
3602,106,445,-212,-80,-89,51,-178,-18,-115,-272,-189,-786,2,-142,-331,-173,-588,-405,-173,-177,-223,-198,-275,-316,-187,-86,206,-478,-169,-217,-484,-321
3603,167,415,-241,-124,-105,28,-179,-45,-120,-280,-182,-705,-21,-134,-322,-147,-588,-419,-175,-156,-187,-137,-233,-291,-162,-44,307,-420,-109,-173,-433,-289
3604,204,409,-245,-173,-110,26,-184,-51,-132,-271,-211,-579,-16,-122,-324,-136,-541,-391,-167,-142,-162,-117,-208,-291,-141,-31,348,-376,-53,-119,-401,-304
3605,200,403,-217,-194,-102,35,-187,-68,-130,-256,-207,-493,-9,-109,-345,-300,-482,-369,-161,-162,-208,-191,-187,-272,-147,-51,276,-354,-44,-133,-430,-233
