,Fp1,Fp2,F7,F3,Fz,F4,F8,FC5,FC1,FC2,FC6,T7,C3,Cz,C4,T8,TP9,CP5,CP1,CP2,CP6,TP10,P7,P3,Pz,P4,P8,PO9,O1,Oz,O2,PO10
83491,415,285,-30,72,-21,261,6,178,-103,-61,255,-573,-286,-552,129,57,291,-239,-82,-214,67,-243,54,263,6,494,428,-72,-27,-27,-53,197
83492,351,275,-74,85,-23,200,-16,234,-95,-98,229,-693,-268,-548,90,52,206,-246,-87,-213,85,-272,-22,248,5,477,532,-28,-31,-32,-7,257
83493,281,270,-121,58,-41,210,-43,227,-98,-75,248,-828,-247,-538,119,108,106,-213,-51,-191,108,-373,25,247,30,536,616,-61,-81,-57,-42,247
83494,284,270,-62,43,-57,210,-95,255,-98,-75,227,-875,-224,-518,121,34,137,-193,-36,-207,28,-342,58,250,15,517,473,-75,-147,-138,-125,188
83495,332,277,-9,75,-57,191,-53,190,-86,-71,189,-966,-195,-516,123,-91,125,-205,-43,-231,-36,-300,23,210,0,451,245,-214,-223,-212,-188,150
83496,313,239,-22,79,-63,150,-123,154,-69,-102,179,-1020,-180,-527,90,-111,105,-219,-49,-230,-10,-343,44,240,-5,448,208,-294,-228,-185,-169,163
83497,270,195,-41,68,-81,132,-232,202,-75,-103,160,-1108,-171,-536,66,-139,44,-241,-33,-214,1,-341,-21,229,-22,446,234,-344,-244,-180,-165,202
83498,237,150,20,104,-63,135,-239,171,-101,-84,222,-919,-191,-514,113,-90,-103,-196,5,-185,40,-295,-23,258,34,505,306,-237,-128,-92,-63,222
83499,252,172,-135,97,-71,163,-163,279,-116,-74,248,-589,-281,-513,122,0,111,-135,10,-192,73,-361,160,287,74,537,353,-128,-49,-11,32,331
83500,212,179,-201,107,-75,199,-79,353,-98,-68,283,-630,-258,-514,139,-7,265,-147,1,-193,50,-373,330,325,51,526,369,52,-43,-19,-5,389
83501,217,197,-270,89,-37,212,-18,318,-70,-79,280,-831,-182,-517,128,-33,238,-147,-18,-204,64,-286,202,304,20,526,422,-1,-73,-90,-94,213
83502,296,314,-239,83,-44,202,6,298,-97,-81,247,-890,-208,-558,110,-35,134,-218,-56,-222,56,-287,-7,201,-28,490,448,-288,-202,-190,-150,166
83503,343,357,-78,61,-14,260,48,300,-91,-66,277,-894,-226,-550,145,27,40,-263,-77,-242,37,-296,-149,149,-62,425,332,-306,-267,-226,-192,127
83504,282,356,5,75,5,275,115,283,-87,-61,323,-852,-253,-550,141,80,-13,-285,-112,-286,-24,-376,-215,141,-96,321,136,-269,-257,-263,-344,-146
83505,213,351,7,135,2,270,91,239,-92,-58,296,-949,-304,-572,123,97,49,-278,-117,-284,-12,-345,-173,158,-103,363,200,-218,-197,-215,-249,20
83506,304,385,-60,178,-4,285,70,260,-97,-74,305,-982,-259,-595,94,93,0,-242,-116,-321,-9,-366,-143,161,-108,347,175,-190,-209,-201,-254,34
83507,359,406,-90,180,-13,329,111,243,-88,-63,331,-1021,-220,-580,116,17,86,-185,-106,-313,-49,-310,-63,206,-82,333,186,-126,-192,-222,-343,39
83508,371,349,-24,127,2,364,92,187,-89,-60,216,-1017,-244,-569,126,-32,220,-197,-88,-300,-26,-227,9,244,-68,392,293,-60,-121,-107,-177,289
83509,395,290,2,103,-8,305,103,223,-108,-76,185,-984,-248,-570,95,28,221,-187,-89,-284,-42,-201,27,253,-86,396,338,-61,-107,-94,-109,365
83510,431,315,45,137,0,275,103,291,-96,-60,256,-937,-224,-573,95,61,260,-167,-68,-272,-22,-288,39,251,-71,404,353,-50,-80,-130,-177,151
83511,360,325,55,141,11,289,58,322,-77,-62,248,-883,-197,-555,89,108,90,-116,-47,-268,20,-406,0,251,-66,404,336,-121,-108,-174,-255,-24
83512,226,303,16,161,-15,245,-6,294,-70,-73,210,-852,-184,-574,78,155,-49,38,-50,-264,51,-369,-104,241,-81,410,355,-139,-163,-218,-314,-1
83513,278,367,32,174,2,272,13,233,-70,-34,248,-877,-213,-545,115,143,296,-206,-50,-240,66,-261,7,263,-50,437,412,-31,-113,-177,-265,21
83514,394,368,21,161,14,294,11,256,-76,-50,242,-920,-239,-555,97,87,301,-286,-52,-248,3,-246,35,242,-64,419,350,-25,-100,-159,-226,80
83515,438,341,48,159,12,206,32,212,-97,-70,252,-876,-252,-558,88,103,156,-199,-63,-248,-17,-225,32,230,-63,408,369,-54,-100,-152,-207,127
83516,330,322,30,179,-6,254,43,172,-101,-47,254,-640,-263,-547,109,80,5,-178,-60,-232,-2,-271,13,211,-59,441,467,-210,-142,-173,-212,153
83517,337,316,34,210,0,284,2,234,-69,-36,253,-543,-251,-521,133,-16,-47,-158,-28,-229,27,-278,98,267,-24,473,527,-187,-131,-130,-127,343
83518,344,261,-78,134,-18,219,-18,244,-78,-67,244,-750,-248,-526,106,-37,-147,-193,-15,-219,28,-362,107,298,-23,459,569,-195,-99,-61,-24,459
83519,335,234,-142,119,-45,205,-55,262,-100,-85,194,-792,-254,-538,101,-70,-10,-207,-30,-236,6,-298,107,292,-37,464,508,-214,-119,-95,-82,303
83520,383,326,-79,133,-24,196,-28,265,-91,-92,152,-898,-232,-569,66,-83,178,-205,-73,-310,-109,-345,87,232,-84,346,150,-206,-217,-302,-423,-309
83521,409,325,-18,88,-18,271,-24,214,-76,-94,213,-983,-217,-559,72,-121,108,-219,-79,-300,-93,-353,-57,226,-104,343,153,-128,-236,-309,-403,-203
83522,400,364,36,102,-12,248,4,217,-78,-90,229,-942,-177,-548,96,-174,100,-230,-57,-273,-57,-300,-117,229,-78,390,244,-217,-164,-208,-270,29
83523,401,389,34,136,-13,204,29,185,-68,-85,244,-892,-167,-540,94,-64,143,-171,-35,-261,-34,-315,-39,268,-64,403,259,-100,-110,-172,-216,81
83524,395,366,31,146,-45,159,14,251,-79,-85,270,-867,-220,-536,123,8,80,-143,-36,-248,32,-339,13,284,-33,446,353,-26,-79,-116,-136,135
83525,323,299,-46,118,-36,193,-39,246,-92,-75,286,-862,-247,-525,166,64,91,-148,-24,-204,73,-349,47,324,10,507,475,-34,11,-6,-11,321
83526,296,242,-65,100,-28,236,-56,205,-70,-45,292,-868,-228,-517,183,141,100,-147,0,-166,125,-362,100,380,49,552,526,5,59,94,132,589
83527,302,283,-22,115,-15,196,-96,247,-74,-58,219,-817,-236,-540,133,141,20,-182,-35,-214,76,-274,47,340,7,496,445,-116,-17,-8,-3,523
83528,319,335,56,157,-1,148,-192,285,-70,-75,185,-745,-204,-531,79,79,-106,-151,-34,-261,-11,-279,67,351,-33,410,273,-204,-56,-165,-316,31
83529,322,296,-109,153,-29,106,-200,328,-68,-95,129,-748,-152,-544,42,48,-14,-48,-10,-280,-65,-307,229,369,-40,380,196,-175,-35,-165,-379,-308
83530,274,290,-176,171,-40,128,-98,357,-64,-104,141,-766,-150,-553,53,180,193,11,16,-255,-21,-347,341,383,2,440,302,79,90,-61,-250,-60
83531,249,273,-127,172,-33,158,-76,257,-62,-90,187,-900,-180,-555,97,195,205,25,-9,-251,31,-379,182,359,-6,447,319,201,120,-22,-152,109
83532,220,212,-140,148,-27,160,-74,168,-94,-94,185,-1084,-179,-551,101,121,54,-71,-10,-230,62,-232,43,328,0,487,474,188,67,33,2,417
83533,198,195,-22,135,-21,191,-29,178,-104,-84,237,-951,-189,-543,109,32,64,-216,-12,-235,20,-252,145,335,-11,453,373,137,29,-25,-114,223
83534,236,146,17,88,-44,189,-26,139,-106,-74,254,-916,-208,-545,107,9,121,-219,-43,-229,5,-291,-29,284,-27,395,275,-258,-38,-72,-159,34
83535,372,171,-14,158,-44,174,-72,205,-86,-67,218,-984,-206,-533,100,3,224,-205,-56,-239,-4,-275,-106,264,-18,392,349,-225,-90,-125,-158,183
83536,445,230,-45,128,-51,208,-65,209,-99,-69,234,-999,-215,-544,107,74,150,-193,-43,-251,25,-382,-83,241,-37,382,365,-205,-114,-190,-232,197
83537,438,265,6,23,-40,251,-71,173,-114,-71,155,-914,-219,-545,83,58,76,-167,-49,-244,5,-309,0,265,-40,404,343,-185,-146,-201,-298,84
83538,408,165,35,38,-52,200,-73,174,-112,-93,149,-857,-221,-561,60,3,112,-148,-33,-244,-22,-237,85,300,-23,397,401,13,-87,-190,-334,-63
83539,425,102,41,76,-5,198,-73,200,-90,-61,202,-845,-204,-532,95,55,65,-131,-3,-217,32,-256,117,340,12,450,517,-18,-24,-111,-203,41
83540,355,139,88,130,-3,171,-72,220,-63,-58,171,-703,-183,-533,77,59,-125,-61,4,-205,24,-254,56,359,24,478,498,-58,6,-46,-120,113
83541,302,241,64,138,-15,177,-29,171,-89,-75,193,-635,-246,-555,66,-24,66,-208,-30,-223,31,-189,-97,258,7,464,453,-166,-68,-74,-109,150
83542,287,255,-13,133,-40,147,-69,269,-86,-88,181,-758,-222,-572,62,-121,158,-280,-51,-225,-15,-270,-71,237,-26,430,351,-107,-89,-85,-68,176
83543,229,226,-28,191,-33,153,-124,192,-70,-79,186,-684,-198,-574,83,-107,158,-204,-37,-235,-48,-309,0,269,-22,402,263,-79,-59,-109,-105,78
83544,244,224,-46,153,-8,181,-106,179,-76,-77,184,-871,-159,-570,60,-100,33,-207,-25,-266,-60,-353,25,254,-31,377,185,-98,-119,-180,-229,30
83545,232,242,-164,62,-40,157,-148,201,-87,-83,137,-1054,-145,-562,46,-122,-9,-146,10,-252,-52,-349,145,311,0,397,233,-7,-31,-74,-108,127
83546,239,185,-199,56,-61,166,-205,205,-73,-65,158,-1131,-125,-524,66,-70,145,-89,26,-226,-35,-338,235,366,35,461,352,32,19,-33,-55,254
83547,265,106,-172,53,-55,129,-140,205,-52,-59,213,-1168,-92,-498,106,-43,141,-100,34,-190,31,-426,139,364,62,504,477,-28,15,-18,-9,294
83548,283,136,-125,19,-61,149,-159,218,-79,-51,193,-1078,-116,-515,118,-84,76,-164,40,-188,35,-494,-47,286,26,464,356,-264,-101,-133,-132,8
83549,334,154,-34,26,-56,81,-163,152,-83,-75,197,-1037,-141,-513,121,-200,146,-177,43,-178,10,-416,-1,304,41,451,214,-111,-43,-111,-127,-42
83550,372,208,48,49,-39,101,-143,209,-78,-64,277,-959,-196,-478,165,-128,127,-151,49,-147,63,-420,64,343,79,506,342,-44,20,-13,-23,228
83551,337,239,61,70,-44,141,-202,240,-74,-44,292,-987,-178,-493,159,-73,141,-113,44,-157,53,-351,121,344,88,516,373,-30,56,27,-3,284
83552,264,235,27,125,-54,146,-251,229,-78,-77,220,-1047,-139,-477,126,-11,181,-79,77,-139,47,-243,252,412,118,515,366,83,139,53,58,341
83553,177,217,-31,88,-65,168,-252,207,-67,-72,171,-971,-146,-482,122,19,67,-71,64,-139,59,-262,302,418,119,543,383,49,131,45,27,236
83554,139,181,-29,56,-45,151,-252,183,-51,-64,199,-953,-105,-471,131,9,227,-5,85,-120,91,-271,281,433,127,565,442,81,151,102,87,217
83555,178,125,-45,34,-53,67,-352,231,-52,-68,173,-1074,-87,-455,126,36,136,92,89,-135,93,-287,175,410,110,564,504,32,138,134,149,379
83556,199,92,-110,26,-65,61,-323,280,-52,-66,166,-1123,-120,-463,89,5,132,-127,63,-142,68,-253,241,395,105,574,493,86,141,131,157,500
83557,224,96,-34,93,-39,72,-276,260,-54,-78,154,-1012,-108,-473,58,36,271,-141,64,-170,26,-280,373,427,97,516,388,263,197,59,-29,175
83558,301,160,-39,81,-35,98,-213,243,-43,-63,176,-977,-113,-482,75,71,250,-58,58,-179,28,-390,260,424,64,475,280,331,167,-8,-146,-174
83559,285,165,-106,77,-31,135,-189,215,-85,-87,139,-942,-133,-501,88,136,165,-103,20,-185,58,-362,123,371,48,477,312,221,149,15,-27,98
83560,238,198,-138,111,-28,161,-167,250,-75,-66,171,-896,-111,-498,116,157,93,-137,24,-187,97,-227,32,350,55,497,447,105,146,46,40,244
83561,101,218,-100,135,-43,175,-77,300,-60,-63,207,-966,-96,-525,100,85,59,-139,26,-183,97,-145,77,368,44,498,515,94,145,63,50,231
83562,48,222,-48,139,-39,191,-44,310,-74,-64,242,-1077,-110,-524,111,101,99,-118,27,-176,95,-283,165,386,41,478,450,86,148,55,58,294
83563,142,208,-27,86,-26,132,-78,347,-66,-69,233,-1105,-93,-525,86,25,1,-29,20,-205,27,-245,189,383,23,427,317,51,110,-2,-48,192
83564,256,185,-92,85,-29,139,-92,335,-58,-72,230,-952,-118,-526,78,-48,-186,-63,6,-221,29,-188,83,337,3,405,273,-237,41,-84,-164,78
83565,257,184,-199,0,-66,228,-113,179,-90,-66,256,-635,-205,-515,104,11,10,-113,2,-200,73,-211,127,322,25,468,428,-80,48,-25,-24,273
83566,271,137,-179,-55,-63,204,-78,113,-100,-46,215,-864,-164,-497,140,53,143,-143,18,-163,129,-149,44,333,67,529,684,75,102,70,153,492
83567,335,64,-138,46,-42,186,-115,200,-54,-27,244,-1049,-61,-490,160,14,63,-135,48,-146,152,-106,21,362,74,520,655,26,78,68,206,655
83568,279,5,-147,15,-56,203,-132,157,-82,-58,273,-1089,-109,-524,151,0,112,-157,17,-168,103,-333,30,325,36,478,439,29,38,7,95,454
83569,300,59,-82,17,-43,186,-161,208,-104,-79,236,-1090,-146,-534,118,-12,201,-167,-26,-224,47,-338,110,308,-15,420,283,200,10,-143,-219,-31
83570,332,106,-19,14,-32,177,-147,219,-76,-41,259,-1016,-121,-492,137,-60,136,-122,10,-190,53,-194,227,389,38,451,340,264,108,-43,-156,23
83571,314,61,-3,-12,-27,163,-70,140,-94,-69,212,-1020,-134,-516,88,-109,-28,-149,-6,-225,-30,-196,170,367,6,419,175,74,20,-160,-277,-8
83572,297,74,-19,0,-19,95,-95,119,-91,-80,123,-926,-116,-521,75,-81,-109,-102,-13,-232,-25,-230,91,346,-10,434,220,-63,-23,-153,-221,128
83573,256,112,-53,45,-43,53,-146,150,-94,-79,174,-933,-150,-528,87,-105,54,-172,-19,-203,10,-265,20,305,-5,471,320,9,-4,-133,-153,179
83574,238,129,-15,56,-32,109,-131,185,-116,-54,219,-1044,-224,-514,145,-37,171,-197,-24,-162,73,-350,-8,317,-2,518,444,-3,-72,-141,-126,247
83575,229,149,-55,-18,-44,159,-132,182,-92,-28,279,-1094,-187,-488,167,3,-50,-151,-9,-153,112,-297,117,340,15,544,467,94,-14,-54,-47,339
83576,251,158,-21,28,-56,157,-228,216,-85,-37,266,-1172,-150,-504,144,2,43,-148,0,-148,93,-285,170,311,22,547,503,-16,-71,-117,-108,197
83577,306,135,52,69,-40,189,-256,206,-85,-46,243,-1177,-143,-512,126,106,104,-127,5,-176,71,-317,78,295,-10,499,431,-177,-208,-238,-223,-39
83578,280,165,-12,92,-42,118,-257,247,-71,-73,135,-1085,-134,-529,94,110,128,-88,-1,-199,40,-403,63,306,-23,476,374,-111,-140,-152,-80,291
83579,250,203,-10,140,-40,65,-239,321,-59,-91,150,-1013,-117,-536,72,-5,29,-122,-28,-208,1,-346,24,297,-42,435,327,25,-52,-94,-99,271
83580,334,230,105,116,-21,48,-281,314,-57,-98,167,-988,-120,-547,64,-109,12,-154,-36,-236,-28,-266,-5,254,-65,408,305,27,-103,-192,-289,-108
83581,342,216,53,132,-20,32,-272,286,-59,-101,202,-939,-114,-549,94,-85,134,-163,-5,-212,3,-181,37,253,-34,435,361,-6,-66,-139,-189,-2
83582,356,237,-19,130,-13,12,-113,301,-46,-88,233,-962,-132,-540,97,-32,-16,-205,-31,-199,18,-118,-52,217,-48,459,358,-353,-180,-182,-210,132
83583,305,213,-110,85,-1,-15,-77,295,-39,-96,237,-994,-158,-538,87,-11,-75,-227,-50,-220,-3,-190,-112,185,-89,443,405,-430,-301,-257,-261,175
83584,258,218,-221,91,2,63,-64,305,-33,-75,290,-1006,-140,-533,120,0,26,-202,-26,-193,25,-247,-51,210,-61,437,427,-294,-252,-241,-208,193
83585,267,196,-147,84,-6,122,-29,297,-49,-70,334,-991,-143,-537,114,54,71,-186,-30,-169,59,-205,0,224,-57,453,413,-315,-282,-280,-219,184
83586,187,193,-38,139,-13,126,-65,355,-28,-70,310,-947,-123,-530,81,47,89,-202,-25,-206,42,-207,50,243,-60,437,385,-247,-252,-258,-266,128
83587,102,151,-36,197,5,206,-77,343,-27,-74,311,-975,-84,-524,115,40,-15,-30,-9,-212,32,-234,-43,253,-27,445,407,-229,-195,-191,-208,213
83588,106,88,-106,148,-24,163,-115,253,-43,-98,278,-791,-103,-524,121,12,-65,19,-8,-211,64,-249,-24,279,-6,499,543,-119,-118,-80,-64,445
83589,222,78,-137,97,-41,89,-166,120,-62,-79,238,-752,-158,-504,130,9,-98,-223,-6,-195,89,-236,125,282,15,533,609,130,-41,16,58,627
83590,332,112,-140,18,-14,12,-225,137,-60,-84,137,-1001,-151,-498,122,84,-120,-230,-11,-194,67,-219,4,259,2,500,520,-25,-57,-38,-25,529
83591,403,110,-96,35,-23,30,-196,182,-66,-77,134,-1027,-154,-515,111,32,23,-175,15,-202,0,-244,34,253,-19,454,367,-60,-73,-152,-170,203
83592,440,96,-32,87,-31,104,-124,255,-94,-81,208,-982,-151,-530,88,19,-94,-193,-25,-215,-6,-257,39,222,-32,442,311,-169,-119,-190,-182,30
83593,370,137,-55,96,-29,126,-125,242,-78,-92,182,-810,-160,-512,87,50,-66,-149,-28,-191,54,-220,71,256,-26,460,390,-134,-184,-208,-193,105
83594,292,129,-91,84,-42,118,-187,268,-66,-95,138,-858,-139,-526,74,21,79,-104,-19,-226,11,-270,89,252,-49,414,330,-332,-226,-290,-277,-46
83595,293,192,0,91,-26,125,-143,271,-50,-68,171,-1079,-107,-528,65,22,76,-124,-14,-252,16,-338,97,250,-65,414,299,-292,-202,-295,-288,-117
83596,335,221,68,51,-20,115,-149,188,-65,-68,191,-1159,-104,-532,110,76,-158,-176,-23,-213,95,-390,-32,227,-70,458,480,-216,-233,-301,-273,11
83597,367,179,140,23,-25,62,-167,178,-87,-78,197,-1207,-113,-549,131,168,-165,-162,-43,-209,146,-486,3,207,-84,454,567,-410,-274,-347,-359,-152
83598,309,163,73,65,-30,67,-178,182,-77,-80,189,-1197,-129,-558,104,135,-63,-198,-45,-238,90,-506,68,203,-76,412,435,-431,-230,-300,-318,-121
83599,288,179,22,125,-10,43,-146,240,-93,-84,189,-1001,-201,-569,77,85,-59,-196,-67,-260,11,-479,16,201,-67,398,231,-179,-139,-251,-299,-46
83600,301,117,64,145,-21,30,-119,269,-72,-69,262,-890,-208,-537,140,99,-268,-183,-52,-223,86,-602,-28,220,-58,455,325,-267,-148,-232,-269,3
83601,289,43,138,120,-29,59,-194,189,-80,-67,239,-967,-196,-534,152,3,-60,-222,-59,-214,98,-485,-108,206,-50,479,485,-220,-151,-189,-181,68
83602,304,101,155,104,-22,99,-237,190,-99,-83,179,-1017,-245,-553,126,-53,122,-290,-72,-225,53,-275,-166,201,-46,498,503,-90,-103,-88,-7,430
83603,248,127,-36,146,3,113,-249,254,-65,-75,194,-802,-250,-539,119,-14,78,-247,-62,-220,46,-146,-51,216,-20,477,409,-86,-93,-41,36,685
83604,234,183,-13,168,2,107,-153,403,-23,-77,197,-842,-171,-527,117,5,-99,-193,-56,-239,-15,-269,13,219,-49,398,233,-149,-132,-182,-271,153
83605,257,206,63,205,2,24,-162,384,-37,-101,141,-927,-166,-541,66,-35,-53,-184,-61,-266,-100,-246,-27,224,-70,368,91,-184,-137,-252,-398,-264
83606,264,229,89,160,8,-25,-176,312,-30,-94,127,-912,-156,-531,98,-27,61,-138,-19,-208,-64,-164,69,278,-12,440,241,-52,-10,-96,-172,51
83607,307,204,190,99,-6,30,-190,238,-63,-79,186,-893,-153,-514,106,-40,52,-125,-14,-201,-42,-240,149,311,-11,463,295,17,23,-40,-160,67
83608,352,67,185,31,-21,72,-232,187,-81,-70,204,-897,-168,-514,82,-64,40,-162,-7,-204,-44,-272,173,326,11,464,249,210,94,0,-145,37
83609,381,87,109,33,0,61,-286,287,-73,-61,171,-907,-132,-508,87,-129,-80,-103,0,-195,-58,-292,299,342,24,452,220,533,203,47,-135,48
83610,395,226,66,49,-6,107,-168,285,-62,-60,225,-929,-108,-493,103,-150,-222,-47,-20,-194,-51,-304,252,303,-12,466,234,34,80,35,-71,88
83611,330,270,104,32,-22,115,-126,218,-82,-69,239,-1022,-174,-537,70,-87,-202,-226,-105,-243,-51,-378,-131,121,-93,412,275,-634,-269,-204,-156,136
83612,234,245,114,40,-17,146,-89,178,-92,-48,250,-1032,-231,-567,111,56,-95,-324,-113,-237,22,-436,-213,67,-116,427,417,-571,-395,-309,-215,168
83613,244,245,105,38,-7,123,-41,237,-87,-32,264,-964,-223,-555,136,138,-99,-248,-75,-219,39,-433,59,181,-93,434,460,-320,-336,-378,-382,-5
83614,266,222,76,30,-38,98,-86,252,-96,-44,267,-873,-203,-548,125,25,-434,-113,-36,-200,17,-375,187,238,-52,441,389,-352,-211,-217,-250,112
83615,362,162,35,53,-38,75,-186,292,-90,-93,191,-863,-180,-527,59,-98,-166,-14,-20,-235,-71,-310,157,260,-45,400,255,-192,-93,-146,-193,152
83616,343,171,-10,51,-51,95,-178,290,-121,-85,192,-910,-274,-549,76,-108,98,-320,-61,-201,-43,-299,-129,191,-33,444,322,-98,-113,-113,-46,407
83617,259,197,-14,79,-15,130,-148,248,-91,-40,233,-769,-278,-516,102,-77,117,-367,-51,-164,-5,-310,-208,171,-22,470,352,-240,-157,-83,21,430
83618,260,206,21,119,-8,133,-133,214,-111,-57,229,-773,-260,-531,106,-16,49,-366,-60,-179,12,-444,-123,179,-32,452,354,-328,-197,-195,-127,100
83619,335,225,88,95,3,148,-98,238,-101,-33,234,-932,-237,-523,131,-7,-44,-335,-62,-167,61,-380,-130,188,-14,481,496,-482,-273,-205,-76,240
83620,371,221,44,75,1,127,-81,234,-105,-47,199,-900,-259,-532,98,-59,42,-310,-80,-210,-12,-419,-120,151,-62,383,328,-370,-293,-361,-410,-118
83621,356,184,12,72,-38,112,-88,248,-125,-66,149,-1033,-242,-548,63,-208,27,-313,-81,-220,-84,-304,-158,150,-93,337,216,-277,-253,-378,-458,-157
83622,374,241,58,93,-30,71,-84,294,-100,-58,230,-1095,-190,-524,78,-314,-15,-246,-26,-215,-93,-311,-110,199,-45,368,175,-207,-171,-267,-310,-136
83623,354,256,105,112,-3,77,-124,278,-88,-51,274,-1128,-205,-504,125,-220,7,-221,-19,-190,-72,-321,-63,226,-16,417,244,-167,-139,-246,-325,-150
83624,242,179,46,64,-47,32,-207,262,-92,-63,235,-1192,-161,-514,109,-117,-88,-242,-31,-160,-24,-246,-53,259,4,490,419,-45,-53,-127,-169,217
83625,243,167,-24,98,-50,-1,-202,236,-89,-71,177,-1164,-104,-488,97,-32,-56,-143,2,-132,8,-240,85,342,49,513,451,221,108,25,-53,285
83626,282,226,-17,142,-19,12,-181,179,-71,-61,204,-1082,-77,-471,135,-16,100,-77,27,-136,20,-354,218,388,66,483,361,385,133,31,-85,56
83627,349,276,32,84,-30,32,-179,177,-82,-66,211,-985,-99,-468,122,-40,15,-97,19,-146,8,-339,165,348,34,435,257,284,82,-59,-257,-245
83628,338,275,48,54,-30,58,-111,287,-88,-53,229,-853,-168,-472,127,12,-120,-100,27,-128,28,-260,101,315,27,456,353,-126,-38,-132,-198,-40
83629,301,249,73,11,-30,76,-146,269,-86,-51,235,-814,-215,-498,163,53,18,-186,-10,-141,29,-213,28,285,21,478,436,-419,-130,-107,-90,206
83630,307,209,3,-6,-46,63,-202,249,-82,-43,221,-860,-193,-490,160,99,89,-232,13,-132,63,-232,-24,286,30,497,478,-415,-129,-110,-86,193
83631,263,212,58,-4,-40,36,-187,244,-91,-37,223,-970,-183,-468,156,115,-14,-191,37,-102,128,-263,79,320,49,539,605,-293,-55,-28,-6,289
83632,245,177,107,0,-31,-15,-173,193,-106,-50,205,-1030,-192,-489,101,20,-240,-133,33,-130,41,-344,247,330,15,500,492,-237,-22,-60,-110,45
83633,238,144,125,30,-44,-36,-125,229,-92,-52,210,-1084,-173,-499,105,-17,-97,-115,8,-168,3,-417,276,278,-8,450,321,-296,-123,-164,-205,-65
83634,319,138,103,16,-43,-38,-102,206,-105,-53,222,-1072,-196,-496,129,12,29,-190,-1,-177,34,-332,173,226,-17,460,316,-396,-206,-205,-173,162
83635,368,149,72,-52,-27,10,-86,119,-109,-55,223,-951,-266,-517,123,6,56,-266,-22,-173,16,-260,22,216,-15,460,340,-263,-191,-255,-230,22
83636,314,168,71,-63,-8,24,-51,130,-115,-41,238,-936,-285,-508,109,-4,78,-307,-37,-125,4,-321,-83,193,-11,452,344,-182,-145,-179,-144,68
83637,297,177,113,-2,-17,23,-81,176,-90,-30,239,-927,-271,-499,116,-31,115,-317,-33,-139,17,-381,-106,183,-1,486,348,-96,-104,-129,-88,167
83638,250,158,45,8,-62,-20,-170,160,-110,-72,180,-976,-266,-510,88,-52,125,-284,-45,-166,13,-497,-113,169,-17,475,316,-101,-113,-146,-104,176
83639,150,92,-17,79,-53,0,-226,212,-114,-42,200,-973,-255,-511,109,20,62,-282,-30,-150,37,-515,-110,180,-8,503,366,-154,-118,-133,-111,174
83640,59,31,-52,125,-44,87,-270,201,-94,-39,154,-947,-254,-521,94,54,-105,-275,-46,-168,13,-467,-42,176,-8,493,343,-143,-104,-111,-66,199
