,Fp1,Fp2,F7,F3,Fz,F4,F8,FC5,FC1,FC2,FC6,T7,C3,Cz,C4,T8,TP9,CP5,CP1,CP2,CP6,TP10,P7,P3,Pz,P4,P8,PO9,O1,Oz,O2,PO10
34652,54,-5,-36,-284,-39,169,69,11,-153,-17,87,-70,61,-395,23,-68,98,-12,-95,8,-319,167,77,-229,-83,212,13,-266,74,-354,-67,-413
34653,47,-34,-33,-312,-44,162,57,-6,-169,-51,69,-78,56,-404,-9,-194,86,-15,-80,-1,-335,183,81,-211,-74,206,53,-253,94,-304,-57,-376
34654,93,31,-8,-281,-17,134,86,17,-153,-48,87,-54,58,-379,-3,-12,102,29,-56,13,-318,235,112,-182,-42,245,113,-211,148,-239,14,-301
34655,74,15,12,-260,-10,84,70,-8,-161,-45,90,-62,67,-391,14,34,126,49,-46,34,-281,255,129,-161,-33,260,134,-215,176,-199,63,-270
34656,123,67,73,-253,-2,115,106,6,-159,-58,103,-32,77,-389,25,30,164,62,-53,35,-272,271,148,-171,-38,266,141,-229,164,-195,70,-260
34657,146,132,107,-240,-2,115,154,29,-154,-45,135,5,84,-389,32,52,191,79,-45,46,-267,275,163,-164,-22,278,159,-201,176,-164,99,-230
34658,106,106,69,-242,-19,46,145,30,-141,-41,124,2,95,-384,33,49,199,78,-45,38,-237,300,168,-150,-19,275,189,-214,152,-222,101,-173
34659,112,81,75,-227,-13,78,116,47,-149,-4,139,-20,89,-392,49,82,210,62,-58,57,-224,307,151,-175,-26,282,206,-258,130,-216,101,-157
34660,42,69,-9,-230,-5,101,110,32,-168,0,121,-57,53,-406,32,61,188,7,-93,34,-245,274,124,-219,-62,267,170,-269,110,-238,76,-230
34661,52,44,18,-201,-2,122,139,74,-145,14,68,-68,33,-386,42,58,185,5,-90,19,-242,271,119,-233,-79,245,166,-221,117,-241,61,-247
34662,94,47,-1,-226,-19,123,140,110,-152,-11,85,-93,14,-404,40,62,156,0,-96,29,-242,283,80,-246,-103,216,183,-203,92,-247,39,-259
34663,52,5,16,-211,-28,128,152,117,-148,-30,116,-74,30,-428,49,65,171,-4,-119,17,-245,290,93,-269,-90,199,197,-213,91,-270,18,-276
34664,-10,-21,-47,-198,-25,151,135,120,-146,-5,137,-131,33,-420,29,40,155,-25,-136,-10,-265,234,57,-303,-137,174,165,-226,64,-321,-66,-334
34665,-70,-47,-116,-176,-24,128,110,137,-137,-12,143,-150,50,-431,33,67,143,-54,-141,-1,-268,163,37,-319,-147,155,150,-259,16,-355,-114,-348
34666,-13,-7,-169,-236,-11,121,120,127,-147,-22,150,-184,31,-397,42,68,166,-52,-142,-24,-273,205,37,-330,-175,129,134,-270,6,-370,-109,-317
34667,57,23,-188,-183,-11,123,136,146,-126,-16,150,-163,60,-391,48,101,142,-19,-122,-23,-283,245,44,-330,-189,122,113,-276,-32,-391,-106,-359
34668,58,27,-188,-196,-9,33,122,174,-123,-25,132,-70,89,-413,23,111,36,9,-116,-30,-294,288,72,-344,-170,131,105,-349,-46,-424,-108,-341
34669,88,6,-152,-244,-26,124,140,185,-157,-20,139,-45,62,-417,27,107,89,-24,-132,-27,-291,334,78,-342,-156,131,85,-354,-47,-404,-97,-341
34670,121,-7,-64,-272,-20,150,160,122,-156,-9,169,-29,43,-406,49,128,116,-39,-137,-17,-266,361,56,-362,-152,149,130,-300,-52,-396,-69,-269
34671,88,20,11,-279,-5,124,163,-43,-157,1,171,-18,31,-405,58,136,114,-27,-139,-5,-264,376,78,-327,-160,157,150,-259,-57,-410,-78,-237
34672,42,-34,-16,-246,-24,153,186,-20,-155,-22,176,-74,0,-413,43,115,129,-25,-148,-31,-315,308,21,-374,-193,88,77,-347,-144,-514,-177,-382
34673,16,-114,-71,-262,-18,162,201,46,-160,-10,182,-118,18,-416,49,121,182,-12,-143,-29,-318,238,-28,-380,-193,67,62,-324,-160,-546,-233,-460
34674,-15,-78,-122,-301,-13,184,211,-37,-171,-11,173,-142,7,-425,30,133,260,-114,-158,-57,-305,337,-67,-389,-181,87,91,-283,-134,-505,-201,-378
34675,7,37,-88,-283,-1,198,203,-76,-162,-4,177,-64,24,-425,37,113,175,-70,-132,-39,-312,362,22,-337,-159,98,70,-291,-93,-498,-182,-393
34676,129,61,-32,-249,15,214,184,-3,-137,14,213,-2,74,-396,72,132,142,18,-114,-2,-287,354,113,-276,-125,128,128,-223,-38,-475,-133,-336
34677,79,-4,-57,-239,5,170,196,-16,-144,-16,203,-49,36,-408,51,114,166,-28,-135,-32,-293,348,73,-320,-143,129,99,-237,-62,-458,-145,-335
34678,58,40,-48,-214,0,193,223,-15,-153,-15,202,-72,22,-419,68,140,182,-27,-144,-18,-269,316,97,-306,-137,138,93,-220,-42,-451,-159,-355
34679,90,128,-44,-201,4,202,253,1,-167,11,232,-78,30,-406,102,229,205,-25,-114,30,-229,330,103,-282,-107,174,149,-243,-31,-424,-121,-292
34680,122,101,-79,-271,0,191,256,18,-169,18,241,-72,43,-391,130,261,208,0,-99,46,-190,369,150,-255,-74,213,225,-246,5,-400,-75,-267
34681,140,81,-61,-261,-4,225,267,23,-154,16,247,-86,57,-376,132,244,154,46,-56,51,-183,382,181,-220,-72,222,235,-258,-4,-410,-92,-306
34682,160,138,-15,-266,-4,217,268,-108,-157,22,260,-53,62,-368,130,278,181,58,-50,74,-169,406,175,-177,-43,243,209,-200,28,-392,-88,-322
34683,139,191,2,-281,-11,221,278,-216,-164,28,262,-8,54,-366,124,354,248,34,-63,66,-169,416,200,-187,-37,252,206,-143,115,-332,-54,-345
34684,147,181,28,-246,-12,206,264,102,-136,38,267,-26,84,-368,112,312,229,57,-60,81,-169,418,228,-164,-34,257,236,-128,103,-336,-57,-262
34685,96,197,-41,-232,-11,173,237,162,-116,37,245,-15,91,-375,141,255,242,92,-32,121,-151,388,229,-137,5,294,253,-133,120,-318,1,-254
34686,63,186,-111,-233,-7,195,184,151,-126,14,173,-5,114,-379,128,102,260,105,-19,115,-161,394,224,-120,18,321,269,-78,158,-284,27,-211
34687,95,84,-51,-224,-31,189,188,115,-132,-9,199,-32,122,-380,91,98,237,71,-24,97,-176,402,204,-123,3,305,269,-90,152,-288,18,-241
34688,60,-74,14,-229,-42,190,201,96,-123,-18,196,-33,105,-366,98,221,222,55,-18,117,-190,394,195,-121,-3,325,257,-142,138,-305,5,-271
34689,48,-100,14,-221,-61,207,171,70,-110,-10,212,-25,103,-336,111,210,227,71,11,155,-172,380,166,-109,22,365,289,-155,151,-286,30,-269
34690,52,-39,-31,-252,-55,218,162,43,-128,-14,236,-38,91,-331,120,203,169,39,-5,142,-150,402,134,-143,0,362,283,-183,163,-263,55,-226
34691,77,59,-41,-255,-55,194,203,44,-128,-11,223,-58,112,-313,110,219,187,43,-2,128,-142,385,157,-115,33,389,286,-155,175,-245,75,-254
34692,72,73,-48,-264,-72,113,170,50,-130,-40,187,-82,101,-327,110,207,199,42,-2,123,-145,398,163,-85,36,398,298,-163,178,-251,86,-218
34693,47,2,-36,-240,-51,119,160,101,-109,-30,198,-76,122,-317,105,205,226,67,9,157,-145,429,188,-95,52,386,328,-165,194,-243,77,-155
34694,19,-34,-115,-284,-76,97,136,74,-138,-28,194,-100,105,-336,82,136,212,49,11,139,-173,402,175,-96,31,364,291,-177,174,-250,58,-179
34695,21,57,-120,-270,-78,80,171,9,-134,-25,190,-58,93,-296,109,172,230,62,4,143,-155,400,180,-97,66,382,308,-160,187,-228,87,-148
34696,78,105,-31,-273,-51,104,226,14,-117,-4,228,-37,89,-296,134,207,258,86,23,154,-130,422,214,-71,74,417,339,-100,225,-188,157,-81
34697,77,40,-86,-285,-80,94,231,39,-126,1,200,-42,80,-313,131,202,262,65,31,157,-138,423,225,-78,84,424,351,-87,254,-157,174,-34
34698,44,-11,-106,-282,-99,63,210,69,-154,-16,194,-88,69,-316,139,180,265,66,33,159,-142,425,226,-49,90,433,319,-69,252,-151,185,-39
34699,91,3,-55,-256,-93,94,216,100,-139,-23,230,-95,87,-297,154,198,296,65,53,180,-145,407,229,-43,96,447,299,-79,249,-173,147,-102
34700,114,-10,29,-251,-92,102,188,45,-142,-33,193,-140,98,-290,151,191,312,101,60,188,-145,407,258,-16,134,452,324,-90,266,-136,174,-129
34701,113,-102,-31,-304,-120,60,143,56,-148,-36,152,-269,93,-315,136,171,267,124,43,177,-132,386,214,-31,141,426,318,-116,237,-131,161,-94
34702,17,-103,-254,-271,-107,100,118,159,-131,-34,158,-374,105,-313,111,147,349,17,38,168,-137,369,159,-29,134,435,314,-118,231,-153,158,-89
34703,-2,-52,-204,-324,-119,101,112,55,-148,-58,152,-80,97,-298,118,140,335,35,44,180,-139,363,222,-27,139,436,336,-106,231,-142,168,-76
34704,9,-31,-92,-286,-111,101,96,-18,-135,-50,136,47,116,-294,106,112,160,166,70,177,-155,351,274,2,144,432,335,-50,243,-136,154,-142
34705,15,-41,-83,-334,-121,102,83,7,-122,-40,139,53,116,-280,105,114,148,116,95,177,-156,339,231,-7,153,457,311,-37,256,-130,159,-176
34706,-11,-83,-78,-331,-121,78,59,29,-120,-34,113,62,108,-269,100,85,196,89,88,183,-153,335,223,-11,137,434,315,-52,261,-124,154,-146
34707,-63,-129,-108,-330,-125,79,68,-9,-144,-39,87,34,99,-299,106,61,188,84,48,172,-162,320,211,-23,126,386,279,-81,247,-156,137,-198
34708,-16,-129,-67,-322,-125,78,67,3,-137,-41,107,8,108,-295,100,62,210,104,66,172,-175,301,201,-24,120,379,283,-115,226,-175,103,-266
34709,-32,-130,-40,-328,-136,48,60,27,-124,-47,104,-49,102,-287,92,40,175,109,59,184,-189,264,182,-31,112,379,285,-117,197,-199,64,-264
34710,-72,-67,-44,-318,-137,39,68,-14,-120,-61,61,-83,79,-300,86,54,163,36,47,163,-183,264,165,-74,102,379,278,-114,209,-193,51,-235
34711,-111,-52,-72,-305,-155,1,18,-57,-136,-73,23,-96,67,-288,58,96,146,0,23,136,-191,225,128,-94,72,350,283,-140,176,-225,37,-255
34712,-103,-131,-96,-335,-150,0,-24,-80,-127,-65,40,-73,48,-301,59,71,116,36,0,106,-221,208,112,-107,47,327,244,-198,142,-238,33,-245
34713,-43,-170,-62,-363,-124,-2,-44,-111,-155,-70,30,-124,31,-297,50,-26,76,15,-26,107,-238,173,80,-135,35,309,155,-228,113,-272,10,-282
34714,-28,-198,-90,-362,-144,5,-75,-128,-152,-62,35,-162,30,-307,50,-196,40,-32,-18,104,-256,64,50,-158,38,303,157,-276,96,-301,-16,-355
34715,-8,-176,-135,-369,-143,-22,-64,-92,-136,-76,15,-151,47,-326,23,-211,26,-24,-20,98,-272,127,38,-135,26,299,138,-309,90,-300,-48,-394
34716,-30,-139,-202,-357,-122,-123,-44,-129,-136,-75,-32,-142,64,-297,30,-79,39,10,0,125,-245,163,47,-121,52,335,185,-300,97,-296,-42,-380
34717,-47,-129,-213,-348,-124,-69,-65,-317,-145,-64,7,-131,53,-297,52,-68,8,-17,-14,102,-251,153,46,-137,59,324,179,-320,115,-280,-2,-334
34718,-45,-118,-202,-309,-123,23,-78,-36,-124,-51,41,-173,65,-289,46,-46,-12,-34,-15,87,-275,119,48,-154,37,292,143,-367,113,-273,0,-309
34719,-167,-175,-282,-315,-143,18,-120,2,-128,-53,-9,-196,48,-308,21,-37,-52,-40,-26,84,-298,143,53,-163,13,278,137,-434,64,-303,-11,-300
34720,-192,-225,-333,-307,-126,36,-120,-38,-136,-70,-22,-214,42,-318,36,-25,-34,-59,-40,76,-282,164,65,-162,-1,264,132,-444,29,-334,-27,-281
34721,-177,-239,-339,-274,-120,59,-91,-5,-148,-81,-2,-272,27,-334,8,-38,-11,-91,-61,65,-296,97,16,-220,-11,239,103,-447,-32,-427,-113,-416
34722,-120,-229,-334,-247,-118,63,-40,-41,-148,-75,7,-245,-3,-335,1,-51,-22,-66,-64,42,-319,77,-32,-233,-33,197,70,-383,-51,-472,-170,-589
34723,-39,-214,-281,-338,-102,65,-31,-111,-154,-55,40,-288,-12,-330,-6,-37,10,-96,-50,36,-316,113,-29,-206,-26,207,66,-336,6,-409,-127,-495
34724,30,-162,-256,-376,-97,68,-21,-98,-166,-84,26,-244,-7,-343,-9,-45,25,-120,-72,24,-337,101,-12,-213,-39,192,57,-344,17,-371,-113,-410
34725,106,-121,-251,-331,-87,59,16,-33,-148,-57,58,-192,19,-341,12,-35,-4,-37,-63,24,-328,102,53,-200,-32,218,57,-271,74,-329,-57,-338
34726,82,-189,-196,-332,-68,110,64,-31,-140,-39,93,-191,32,-346,25,10,-10,-29,-51,54,-299,139,53,-159,-14,244,92,-260,102,-304,-37,-315
34727,28,-146,-108,-283,-69,103,67,-43,-137,-37,106,-146,18,-331,51,65,40,-58,-28,77,-292,152,50,-167,6,259,115,-288,104,-280,-33,-359
34728,-9,-57,-69,-306,-87,107,92,-63,-142,-33,73,-105,32,-357,47,76,68,-20,-31,54,-297,105,62,-180,-10,257,83,-276,87,-320,-65,-458
34729,25,2,-24,-335,-81,139,138,22,-137,-30,155,-70,65,-352,48,122,131,25,-21,60,-289,117,93,-161,-19,264,111,-185,108,-304,-37,-387
34730,72,-17,-31,-343,-71,141,107,17,-128,-13,191,-102,55,-331,59,125,184,-10,-27,53,-280,186,70,-179,-27,251,114,-189,86,-313,-23,-381
34731,7,-53,-191,-343,-70,146,114,46,-131,5,160,-178,73,-313,79,115,162,-19,-19,65,-264,235,84,-157,-13,262,119,-181,108,-285,-12,-363
34732,-102,-67,-234,-307,-74,140,114,41,-131,-13,137,-204,50,-319,68,89,103,3,-13,76,-268,233,125,-149,0,276,141,-177,130,-246,18,-341
34733,-139,-65,-195,-301,-82,109,155,-96,-144,-10,113,-206,18,-321,65,66,94,3,-25,75,-263,251,140,-150,5,294,149,-186,154,-228,35,-290
34734,-89,-152,-209,-330,-87,82,113,-149,-167,-31,113,-217,11,-305,70,76,81,-20,-33,68,-281,229,95,-167,6,288,117,-235,122,-284,-25,-385
34735,-20,-153,-103,-343,-65,67,106,-115,-151,-11,126,-181,10,-300,66,82,93,-31,-28,93,-279,251,48,-187,4,278,110,-236,101,-325,-44,-448
34736,58,-18,-95,-330,-45,118,119,-75,-135,-1,128,-133,49,-291,89,81,150,12,-2,108,-280,243,73,-166,30,289,111,-254,98,-300,-50,-472
34737,17,55,-104,-360,-58,145,104,-114,-175,-31,106,-118,25,-302,80,72,184,-33,-18,102,-313,236,61,-179,18,281,109,-226,57,-347,-87,-423
34738,30,116,-14,-345,-61,179,118,-134,-156,-11,150,-61,37,-300,99,82,66,19,-10,118,-299,244,84,-141,39,282,114,-262,85,-325,-70,-434
34739,21,115,-50,-329,-68,175,137,-83,-156,-15,173,-25,59,-306,119,90,24,44,13,133,-275,211,89,-130,49,295,108,-258,97,-285,-51,-432
34740,71,99,-66,-355,-81,119,157,-29,-162,-16,170,-53,67,-301,122,102,164,-7,16,151,-250,231,69,-148,78,316,103,-182,122,-265,-25,-399
34741,114,95,-53,-341,-55,136,140,21,-145,1,171,-16,94,-311,123,127,180,26,20,156,-253,233,94,-96,73,311,92,-190,138,-256,-13,-336
34742,67,43,-67,-243,-50,154,126,34,-145,-12,166,-36,63,-309,130,213,163,16,5,149,-245,150,106,-125,69,303,117,-231,106,-303,-51,-352
34743,17,0,-147,-254,-77,108,118,8,-160,-17,143,-89,28,-331,112,180,137,-23,-31,114,-260,143,63,-182,23,296,102,-279,71,-321,-76,-362
34744,-93,-130,-257,-230,-59,127,115,-108,-146,1,133,-100,38,-312,129,126,156,-10,-37,124,-220,176,69,-175,26,317,139,-272,73,-318,-56,-363
34745,-79,-177,-322,-260,-61,158,126,-176,-164,-2,160,-112,4,-320,137,16,184,-44,-34,136,-207,183,58,-169,40,334,163,-288,80,-308,-30,-362
34746,8,-18,-255,-265,-42,185,132,39,-136,3,176,-121,47,-294,152,-67,151,-1,2,157,-192,210,94,-146,62,348,197,-243,130,-272,23,-321
34747,45,146,-145,-296,-57,129,117,5,-163,-10,142,-120,63,-292,126,46,66,5,12,150,-235,165,78,-153,52,338,143,-267,98,-301,-22,-382
34748,70,127,-81,-327,-79,144,113,-55,-175,3,134,-138,38,-291,127,44,99,-11,1,148,-239,181,84,-140,66,344,111,-258,120,-269,-5,-316
34749,41,86,-57,-345,-72,209,98,-75,-158,-1,141,-117,31,-257,137,43,132,17,16,182,-216,198,104,-110,101,375,145,-197,165,-211,14,-290
34750,23,14,-30,-374,-71,224,118,-73,-176,-6,153,-132,55,-266,137,56,132,41,41,185,-194,187,117,-105,106,388,170,-204,172,-211,30,-313
34751,50,-66,-5,-347,-67,189,147,-48,-168,0,162,-85,77,-271,142,68,137,39,39,186,-205,212,118,-107,116,399,190,-202,196,-191,40,-247
34752,106,-68,85,-286,-52,155,160,9,-144,3,183,-74,86,-245,169,77,157,62,74,219,-194,223,135,-79,136,407,215,-163,204,-184,37,-313
34753,114,-34,91,-294,-65,75,152,28,-148,-5,172,-80,80,-245,153,58,157,73,62,216,-180,230,131,-81,142,401,217,-126,181,-196,44,-311
34754,77,-8,-22,-285,-69,79,171,32,-161,-16,172,-85,85,-258,156,31,156,86,75,213,-179,219,109,-82,128,407,216,-150,163,-215,63,-256
34755,46,18,-57,-256,-45,91,177,80,-150,-19,156,-88,92,-271,170,68,222,39,57,208,-170,226,79,-106,116,404,221,-185,162,-217,48,-230
34756,32,16,-30,-233,-32,95,188,111,-136,-16,151,-52,108,-272,180,145,246,24,52,227,-163,266,104,-108,108,413,247,-165,140,-223,45,-233
34757,27,-129,-34,-260,-59,177,121,49,-162,-25,177,-19,88,-280,178,134,173,63,30,194,-162,265,175,-108,90,407,212,-141,111,-268,4,-278
34758,50,-150,5,-288,-64,198,136,49,-175,-24,160,-10,100,-277,163,107,170,86,29,171,-188,235,157,-107,102,385,175,-152,101,-286,-2,-289
34759,83,-38,71,-269,-42,220,110,51,-148,-3,152,-20,118,-248,183,111,214,79,48,202,-168,237,172,-89,114,387,211,-128,124,-288,-14,-268
34760,98,32,26,-265,-26,221,88,115,-121,17,162,-11,151,-239,200,128,223,101,58,213,-145,298,192,-93,106,381,259,-211,108,-280,-29,-219
34761,94,41,-62,-282,-25,158,110,148,-130,-8,138,-17,147,-267,177,95,185,112,26,179,-193,256,186,-107,79,356,211,-293,96,-318,-47,-266
34762,49,82,-165,-294,-42,160,96,79,-145,-20,148,-44,114,-295,147,72,184,87,12,151,-206,214,183,-135,50,339,188,-215,83,-345,-70,-201
34763,60,119,-168,-293,-45,171,124,149,-128,-1,131,-18,104,-297,157,80,237,66,9,155,-211,234,220,-113,71,336,188,-120,146,-280,-35,-172
34764,71,107,-91,-292,-58,115,141,120,-136,-27,91,6,89,-316,121,31,172,56,-33,136,-234,306,186,-147,34,320,184,-165,135,-326,-56,-223
34765,111,89,-6,-280,-78,83,146,-9,-148,-37,114,4,69,-324,112,28,180,35,-8,145,-224,254,158,-143,36,328,190,-150,136,-305,-57,-246
34766,113,116,-18,-223,-71,128,145,14,-151,-23,145,-14,71,-303,133,69,229,48,5,142,-204,246,154,-135,61,334,198,-135,151,-265,-36,-249
34767,-2,36,-41,-194,-52,163,195,41,-133,-29,135,-18,76,-313,133,131,263,69,-9,143,-192,265,148,-138,47,345,200,-124,143,-271,-29,-272
34768,24,-67,32,-192,-42,146,170,74,-125,-20,169,-57,104,-291,162,248,326,28,11,159,-142,313,154,-118,69,366,253,-112,155,-250,9,-227
34769,29,-128,107,-214,-44,90,163,62,-118,-25,183,-264,90,-306,148,229,288,63,18,149,-135,349,200,-118,79,380,251,-105,211,-218,51,-140
34770,59,-138,152,-260,-22,158,223,-252,-152,-21,218,-173,64,-314,169,164,346,81,15,154,-156,350,256,-83,102,383,236,-69,278,-160,106,-44
34771,85,-118,-18,-245,-37,154,179,-124,-144,-21,221,-19,75,-317,144,2,324,75,10,137,-158,291,235,-88,78,365,206,-108,246,-183,66,-181
34772,40,43,-144,-134,-23,128,180,166,-104,-32,205,2,125,-336,126,34,265,103,6,138,-193,325,218,-84,78,377,226,-80,260,-153,61,-208
34773,53,156,-60,-184,-20,158,160,121,-113,-27,220,64,112,-345,142,170,217,99,18,129,-154,390,204,-66,90,398,311,-36,289,-107,128,-79
34774,165,133,38,-306,-33,219,190,66,-145,-39,226,64,81,-346,134,173,272,59,-6,123,-148,381,177,-99,83,386,294,-11,278,-156,88,-197
34775,172,113,66,-290,-17,248,184,47,-165,-31,243,75,101,-354,145,200,295,80,-15,152,-147,368,199,-85,81,384,298,1,252,-194,50,-334
34776,201,61,101,-281,0,246,160,68,-137,-11,291,75,121,-328,185,245,353,115,19,174,-89,460,259,-62,127,447,386,16,279,-132,145,-131
34777,228,58,84,-266,-11,217,163,82,-135,2,295,84,113,-339,214,277,421,120,37,194,-53,452,273,-57,114,468,423,2,320,-115,165,-20
34778,188,70,50,-269,-30,224,208,89,-135,11,291,38,137,-331,212,306,424,131,50,217,-54,378,267,-65,115,459,397,-27,293,-119,132,-179
34779,109,5,-40,-250,-38,158,250,91,-121,-6,289,6,138,-334,221,285,382,106,48,218,-51,498,263,-80,143,485,433,29,306,-108,123,-216
34780,86,6,-49,-215,-31,196,282,78,-133,-13,318,1,107,-332,221,261,373,97,35,209,-58,515,282,-72,122,477,418,99,331,-51,179,-107
34781,93,53,-163,-168,-10,208,249,201,-137,-17,312,5,107,-346,199,245,315,40,22,180,-58,464,239,-105,116,459,429,17,265,-117,172,-109
34782,129,68,-223,-186,-18,211,191,191,-146,-12,282,-5,83,-343,175,231,259,37,5,167,-77,393,219,-112,103,451,433,-8,228,-163,131,-138
34783,158,71,-145,-208,-30,169,218,4,-154,-2,292,-19,101,-320,206,274,261,46,20,185,-24,423,251,-116,129,484,496,-17,235,-150,186,-56
34784,199,129,-88,-234,-23,132,292,25,-148,9,307,0,101,-316,225,285,251,28,29,208,-17,472,225,-122,130,485,483,-119,177,-206,146,-83
34785,206,142,-21,-283,-35,137,287,8,-155,-18,274,-27,66,-315,188,230,244,21,-2,186,-72,438,228,-136,107,465,388,-101,185,-207,136,-108
34786,160,133,44,-312,-54,103,262,-35,-168,-25,252,-42,71,-309,177,194,255,15,29,176,-90,401,203,-134,104,437,357,-63,199,-186,138,-188
34787,133,81,39,-367,-64,79,227,-79,-181,-47,234,-76,67,-313,162,172,242,7,30,157,-127,348,170,-120,106,410,331,-63,206,-178,134,-181
34788,55,70,4,-346,-66,58,201,-79,-170,-34,220,-81,55,-319,143,130,191,5,4,151,-150,355,180,-129,87,417,354,-95,193,-175,123,-107
34789,40,75,-16,-318,-55,92,209,-78,-153,-36,210,-65,45,-296,164,134,192,9,16,159,-148,373,184,-128,88,413,382,-108,186,-201,55,-157
34790,18,0,-17,-342,-53,103,190,-94,-155,-31,210,-71,44,-310,141,121,200,22,1,153,-139,369,167,-136,77,388,384,-102,178,-227,38,-190
34791,7,-60,-32,-304,-54,178,168,1,-152,13,188,-21,73,-301,169,165,227,43,1,146,-123,386,193,-122,83,384,371,-154,168,-229,68,-133
34792,76,-84,-30,-284,-46,220,165,31,-161,2,148,-36,46,-329,160,151,235,16,-11,120,-167,327,171,-146,70,374,335,-171,146,-241,29,-186
34793,70,17,5,-263,-42,245,147,-24,-150,6,187,-29,60,-340,150,156,269,52,5,136,-160,283,192,-129,74,384,295,-115,190,-232,11,-322
34794,109,73,-10,-268,-29,303,91,-35,-144,12,225,-66,94,-322,162,182,330,33,25,162,-140,328,218,-102,102,409,298,-65,233,-188,49,-301
34795,115,-31,1,-281,-26,328,127,-60,-152,13,244,-82,74,-297,186,174,312,8,7,158,-129,382,209,-118,91,395,290,-20,209,-202,54,-216
34796,125,-58,53,-321,-40,278,153,-66,-166,-1,205,-104,59,-305,154,213,262,39,-4,120,-136,415,246,-124,56,367,269,9,223,-181,53,-151
34797,161,28,31,-309,-51,241,182,-39,-148,16,240,-69,62,-315,161,285,302,54,-23,125,-105,399,240,-130,39,397,338,6,256,-174,88,-74
34798,74,-4,-83,-211,-27,242,207,41,-149,32,276,-108,96,-317,164,222,311,44,-35,130,-135,393,220,-136,17,376,320,-6,246,-181,70,-110
34799,62,-48,-173,-210,-33,215,202,-21,-137,38,282,-26,98,-292,184,120,273,62,-11,139,-146,391,206,-122,34,357,269,-47,198,-244,11,-338
34800,130,44,-157,-153,-20,116,234,-136,-114,13,299,-21,120,-290,205,1,310,110,33,169,-121,397,253,-89,60,393,319,-15,238,-215,45,-265
34801,185,188,-45,-163,-2,107,256,185,-108,14,298,-4,162,-292,220,120,323,126,42,176,-126,451,256,-68,55,427,338,-35,270,-177,83,-134
