,Fp1,Fp2,F7,F3,Fz,F4,F8,FC5,FC1,FC2,FC6,T7,C3,Cz,C4,T8,TP9,CP5,CP1,CP2,CP6,TP10,P7,P3,Pz,P4,P8,PO9,O1,Oz,O2,PO10
62930,153,-179,72,-165,-92,129,-297,175,-136,-121,-74,-109,102,75,-335,-256,-299,-24,398,38,-427,16,3,-166,-139,-271,468,41,120,-17,-339,-318
62931,170,-193,89,-160,-101,104,-285,190,-139,-142,-80,-156,105,65,-356,-160,-371,-34,399,12,-477,-9,-38,-204,-175,-284,460,-6,107,-58,-358,-268
62932,199,-184,102,-172,-105,88,-316,226,-117,-154,-83,-147,122,55,-377,-83,-436,-39,408,-6,-487,0,-54,-198,-165,-268,504,-25,102,-20,-302,-204
62933,159,-202,118,-181,-114,97,-392,215,-142,-167,-74,-175,127,24,-402,-201,-369,-39,393,-32,-537,0,-65,-211,-179,-306,553,-29,95,-32,-307,-161
62934,167,-212,170,-174,-106,99,-405,200,-130,-175,-67,-187,135,41,-384,-181,-467,-61,391,-21,-547,4,-54,-193,-164,-298,552,-46,64,-51,-328,-156
62935,172,-220,164,-181,-110,68,-405,181,-131,-165,-103,-166,120,62,-369,-138,-498,-65,395,-12,-504,-23,-37,-180,-164,-305,501,-25,75,-61,-375,-319
62936,169,-237,162,-172,-114,65,-397,209,-145,-154,-140,-131,142,50,-380,-99,-318,-26,427,-28,-496,-22,22,-147,-141,-304,516,56,128,-51,-349,-372
62937,181,-204,186,-156,-108,97,-382,185,-134,-139,-121,-81,133,61,-360,-20,-271,10,449,-12,-493,35,78,-113,-129,-273,568,78,167,1,-286,-318
62938,207,-187,188,-152,-94,125,-349,192,-124,-150,-99,-49,143,51,-356,46,-235,22,449,0,-496,5,102,-117,-118,-275,561,126,202,21,-312,-307
62939,224,-163,194,-120,-71,146,-336,261,-122,-145,-70,-42,192,50,-337,140,-215,64,494,22,-459,56,151,-61,-107,-223,619,159,253,72,-260,-221
62940,236,-157,212,-108,-58,157,-351,287,-92,-95,-45,-7,210,74,-297,165,-195,106,488,63,-402,85,197,-23,-71,-191,678,214,306,154,-161,-164
62941,227,-168,175,-120,-79,140,-386,287,-92,-107,-37,10,188,71,-308,28,-229,98,483,58,-404,84,215,-22,-59,-174,696,255,333,186,-135,-167
62942,227,-156,184,-130,-87,138,-381,291,-114,-122,-31,-17,187,66,-312,-115,-276,88,482,39,-422,89,209,-30,-84,-178,698,230,295,148,-162,-217
62943,204,-119,205,-115,-83,168,-338,319,-127,-100,-10,14,195,61,-295,-213,-226,98,470,49,-412,120,190,-39,-76,-176,703,219,284,141,-121,-190
62944,174,-112,140,-151,-105,152,-324,269,-140,-109,3,31,170,52,-295,-385,-163,87,453,36,-399,130,168,-48,-111,-178,670,211,244,80,-178,-144
62945,183,-140,167,-130,-101,161,-298,262,-126,-110,-10,52,197,70,-292,-256,-138,138,484,65,-361,160,267,-5,-71,-156,735,206,285,132,-100,-61
62946,204,-123,227,-136,-81,158,-289,321,-128,-98,-27,56,201,76,-286,34,-173,151,498,87,-337,199,252,0,-32,-127,811,188,324,231,34,1
62947,201,-120,258,-97,-80,153,-253,350,-114,-110,11,83,217,75,-263,183,-179,138,499,89,-318,191,186,5,-32,-129,801,206,320,201,-21,-64
62948,228,-86,247,-97,-88,149,-250,316,-117,-129,0,96,191,48,-295,220,-167,115,480,32,-347,164,166,-27,-74,-177,730,201,268,78,-239,-194
62949,260,-40,291,-80,-54,171,-223,329,-90,-98,-10,79,223,51,-312,228,-151,116,483,39,-330,229,193,-19,-64,-172,757,246,295,86,-251,-146
62950,275,-13,304,-54,-28,174,-199,373,-77,-94,-17,59,243,65,-292,215,-144,131,514,76,-322,237,219,-8,-43,-152,793,270,303,102,-221,-94
62951,262,-43,308,-59,-69,160,-228,353,-104,-126,-19,20,227,56,-302,106,-172,108,509,64,-353,199,194,-34,-51,-145,776,235,292,108,-161,-68
62952,282,-29,313,-50,-73,176,-207,354,-99,-115,-10,43,229,52,-302,-11,-169,123,529,47,-339,252,172,-36,-65,-155,755,223,296,125,-145,-54
62953,311,-5,284,-51,-59,190,-174,369,-77,-108,35,80,236,58,-269,-76,-192,152,522,65,-282,263,195,-42,-50,-130,804,249,313,149,-114,-47
62954,271,-84,261,-85,-80,166,-211,334,-112,-141,5,45,212,46,-278,-41,-294,122,470,46,-301,248,164,-73,-94,-159,762,203,255,102,-178,-94
62955,252,-104,273,-91,-83,155,-225,336,-109,-147,-6,21,214,55,-291,-33,-181,87,473,50,-340,256,162,-74,-104,-177,781,189,277,115,-160,-46
62956,307,-75,282,-54,-81,182,-173,350,-88,-123,23,40,224,66,-291,98,-128,105,499,54,-330,257,188,-64,-69,-151,818,213,300,156,-132,-11
62957,309,-32,256,-48,-62,214,-130,372,-75,-112,41,-2,251,78,-278,123,-237,151,530,60,-321,273,189,-56,-61,-141,822,228,286,156,-108,-44
62958,304,-49,202,-82,-69,194,-149,365,-115,-132,15,-20,225,42,-295,-26,-316,130,480,36,-346,230,161,-88,-91,-180,802,204,255,118,-142,-50
62959,295,-33,243,-72,-60,179,-133,392,-112,-119,56,18,244,41,-276,-155,-204,129,480,20,-373,146,156,-95,-113,-211,730,197,212,67,-226,-108
62960,293,-23,292,-61,-52,201,-167,405,-107,-105,110,34,237,54,-263,-64,-196,126,469,49,-348,187,174,-97,-105,-214,749,224,210,80,-207,-102
62961,270,-83,270,-90,-69,184,-229,377,-105,-125,51,82,205,37,-287,107,-105,105,454,22,-343,198,173,-117,-125,-218,768,228,204,53,-241,-94
62962,240,-110,263,-103,-91,149,-226,337,-131,-156,17,100,181,17,-306,182,-160,71,412,-5,-365,132,142,-150,-154,-238,742,183,185,28,-278,-149
62963,305,-71,361,-73,-52,165,-204,324,-95,-127,13,118,187,42,-281,264,-199,88,425,20,-331,206,158,-133,-150,-207,787,204,189,55,-242,-132
62964,292,-74,347,-67,-40,179,-201,350,-87,-133,-5,139,217,50,-310,272,-233,112,448,32,-342,219,190,-113,-129,-195,778,225,204,69,-209,-77
62965,272,-109,297,-99,-82,179,-242,334,-128,-155,-7,73,187,17,-316,248,-215,93,447,20,-362,173,162,-136,-145,-219,710,190,183,64,-209,-87
62966,280,-97,242,-102,-83,194,-301,341,-112,-131,16,58,197,28,-301,100,-112,115,455,0,-350,203,147,-144,-146,-206,695,161,161,54,-193,-84
62967,264,-94,195,-99,-81,180,-407,370,-131,-135,29,62,192,17,-288,-75,-164,81,455,2,-352,214,173,-149,-168,-224,686,152,146,41,-209,-119
62968,249,-100,269,-114,-83,184,-400,337,-122,-158,29,42,171,18,-297,-119,-244,53,418,6,-360,181,138,-164,-151,-234,668,132,141,25,-233,-114
62969,268,-70,323,-92,-70,189,-285,290,-111,-141,43,40,173,25,-271,-155,-263,57,406,18,-344,131,76,-172,-162,-242,680,137,113,23,-270,-145
62970,277,-60,318,-109,-62,188,-233,300,-133,-146,35,16,160,38,-296,-33,-241,17,421,4,-380,177,74,-191,-194,-247,723,129,119,36,-250,-144
62971,276,-74,277,-93,-63,146,-264,346,-124,-159,3,11,168,30,-311,14,-250,14,428,-10,-408,128,68,-191,-201,-255,679,84,120,32,-229,-160
62972,247,-65,270,-103,-73,140,-265,312,-111,-173,-9,27,167,26,-296,92,-237,30,416,-13,-420,116,60,-194,-196,-260,649,78,121,30,-238,-175
62973,226,-58,246,-105,-65,140,-262,294,-118,-172,-46,11,162,19,-314,112,-256,25,439,-18,-428,144,68,-201,-210,-272,642,85,111,11,-245,-149
62974,267,-41,248,-61,-57,152,-215,329,-99,-156,-20,63,188,22,-335,-95,-232,54,446,-14,-427,180,109,-192,-192,-287,643,88,118,-3,-266,-105
62975,280,-78,235,-77,-70,138,-260,314,-95,-163,-33,69,178,30,-323,-148,-229,47,453,6,-413,176,116,-169,-173,-272,657,117,151,43,-264,-78
62976,280,-108,274,-82,-67,142,-267,312,-97,-174,-34,20,187,25,-314,0,-264,55,461,-4,-419,137,87,-184,-170,-272,645,130,141,41,-222,-151
62977,277,-127,287,-82,-77,137,-258,312,-96,-150,-18,0,202,38,-308,101,-232,36,443,-5,-381,99,98,-175,-166,-237,633,134,162,69,-198,-145
62978,267,-113,229,-99,-88,132,-234,343,-101,-163,-44,-27,166,29,-326,136,-205,26,449,-3,-403,123,71,-184,-170,-264,639,92,146,32,-261,-195
62979,277,-86,258,-81,-84,143,-236,360,-112,-165,-67,-34,170,20,-354,147,-250,25,458,-14,-436,125,66,-200,-170,-287,640,66,137,33,-262,-224
62980,296,-57,332,-78,-65,155,-232,300,-105,-152,-19,13,185,36,-337,158,-356,32,461,-12,-434,133,76,-188,-187,-283,632,94,144,45,-233,-152
62981,272,-63,318,-90,-74,147,-274,281,-120,-174,-54,-27,152,15,-347,-32,-626,-5,440,-31,-435,88,4,-234,-216,-289,612,85,108,10,-262,-88
62982,298,-56,293,-82,-71,148,-304,346,-117,-184,-50,-19,170,10,-371,-245,-301,-14,441,-29,-483,38,15,-258,-216,-301,567,52,55,-39,-325,-142
62983,313,-42,267,-63,-70,161,-325,368,-119,-163,-48,31,170,16,-381,-194,-208,5,431,-44,-517,-9,53,-254,-231,-338,493,77,55,-73,-411,-421
62984,288,-68,270,-90,-75,157,-321,311,-130,-149,7,2,133,18,-351,-132,-347,7,426,-22,-467,-11,80,-253,-228,-331,522,25,65,-60,-375,-334
62985,259,-100,238,-81,-92,162,-350,332,-115,-151,1,-37,167,10,-354,-108,-256,20,452,-9,-434,-10,51,-236,-222,-303,563,54,99,-24,-303,-244
62986,288,-82,228,-92,-95,158,-395,358,-117,-171,-28,-84,167,9,-327,-152,-259,17,440,-29,-470,25,-24,-262,-229,-322,556,87,77,-25,-339,-272
62987,310,-70,268,-95,-71,153,-397,370,-126,-167,-50,-103,177,1,-355,-235,-302,3,438,-37,-498,65,-56,-271,-234,-342,510,40,50,-76,-377,-291
62988,282,-82,253,-110,-73,124,-386,326,-129,-178,-105,-89,142,-12,-380,-342,-323,-14,438,-41,-511,46,-57,-277,-240,-350,491,25,39,-75,-370,-296
62989,295,-63,262,-119,-77,117,-339,276,-131,-198,-131,-62,136,6,-364,-381,-319,-43,432,-27,-514,13,-38,-245,-234,-365,485,50,58,-46,-355,-288
62990,328,-65,293,-93,-76,123,-291,287,-111,-195,-112,-57,143,16,-371,-181,-337,-43,442,-13,-510,-3,-14,-235,-218,-336,497,28,81,-62,-363,-296
62991,330,-73,315,-84,-82,127,-305,280,-118,-175,-107,-41,129,24,-346,-7,-365,-40,457,-4,-457,-21,-15,-234,-205,-321,544,19,70,-41,-341,-283
62992,316,-84,350,-76,-79,115,-318,283,-124,-186,-111,-46,138,28,-341,140,-435,-24,469,3,-457,-5,-25,-236,-195,-309,581,7,72,-34,-329,-245
62993,327,-79,304,-65,-58,105,-309,289,-120,-177,-119,-48,152,33,-366,192,-403,-23,459,7,-474,47,-22,-224,-195,-289,604,3,73,-27,-313,-233
62994,336,-67,296,-68,-73,104,-306,310,-127,-188,-125,-43,153,12,-396,106,-293,-29,439,-13,-499,49,-49,-241,-223,-304,606,-17,33,-58,-340,-286
62995,301,-95,270,-89,-82,94,-348,295,-139,-203,-124,-67,130,-6,-392,-104,-407,-50,433,-32,-486,50,-46,-253,-231,-317,630,-13,49,-51,-318,-236
62996,325,-87,273,-96,-59,103,-311,304,-112,-190,-92,-60,145,20,-359,-183,-369,-14,434,-8,-434,111,0,-222,-196,-273,666,13,84,-5,-272,-180
62997,347,-65,357,-60,-44,137,-366,322,-105,-171,-46,-12,165,19,-324,-409,-295,-3,445,20,-425,112,-1,-198,-176,-253,658,23,100,5,-286,-186
62998,367,-55,377,-52,-60,168,-398,309,-102,-172,-35,-20,153,19,-317,-447,-349,-15,436,16,-402,127,-9,-219,-168,-256,639,30,94,-3,-261,-143
62999,383,-38,362,-50,-54,186,-402,333,-109,-145,-7,15,147,14,-303,-109,-365,-23,431,15,-409,124,3,-230,-179,-263,647,35,103,-11,-260,-141
63000,351,-73,343,-64,-61,192,-473,306,-121,-153,-76,70,156,19,-327,206,-268,1,442,23,-374,69,32,-193,-163,-251,697,53,122,35,-199,-83
63001,380,-61,353,-79,-71,164,-539,281,-120,-165,-119,19,156,26,-346,303,-302,5,446,51,-369,132,47,-171,-137,-216,734,86,162,76,-150,-76
63002,366,-32,349,-54,-58,171,-437,276,-115,-155,-25,16,168,40,-338,256,-276,22,465,58,-378,170,91,-147,-107,-183,723,116,197,96,-131,-96
63003,389,-13,347,-54,-59,170,-321,289,-123,-134,-6,13,171,31,-311,155,-248,32,471,29,-378,177,100,-142,-116,-201,656,147,184,70,-209,-185
63004,392,-19,323,-68,-66,143,-314,272,-133,-158,-4,20,166,26,-330,-155,-260,26,468,34,-423,165,84,-163,-146,-231,627,119,171,35,-277,-212
63005,329,-61,313,-95,-80,112,-335,239,-142,-182,-30,45,141,33,-338,-298,-305,0,459,29,-415,122,68,-203,-145,-240,620,73,135,6,-277,-206
63006,300,-72,269,-121,-80,111,-304,249,-143,-173,-50,11,134,13,-317,-271,-342,-25,437,28,-395,50,22,-216,-153,-229,630,35,131,25,-243,-157
63007,282,-34,223,-127,-83,127,-300,238,-157,-164,-64,6,124,14,-297,-242,-346,-27,443,31,-393,18,14,-215,-155,-204,618,36,128,58,-211,-133
63008,290,-45,247,-129,-78,109,-314,232,-165,-158,-104,-28,102,24,-323,-132,-352,-19,430,23,-422,54,-3,-218,-159,-239,629,20,101,44,-172,-158
63009,345,-6,291,-102,-61,123,-289,251,-123,-159,-118,-42,105,23,-329,10,-369,-33,433,21,-448,47,-37,-239,-177,-287,612,-4,91,20,-239,-282
63010,372,1,305,-83,-50,133,-290,275,-123,-169,-91,-42,129,17,-350,11,-491,-36,431,9,-456,69,-5,-230,-187,-262,607,22,89,-2,-293,-291
63011,347,-27,311,-79,-41,125,-300,276,-133,-154,-82,-20,138,27,-348,56,-676,-13,423,28,-437,118,19,-209,-186,-237,611,66,139,13,-307,-217
63012,330,-43,308,-94,-56,116,-329,276,-136,-164,-106,-24,125,21,-382,21,-270,2,418,11,-460,88,32,-215,-204,-276,572,80,122,-65,-418,-247
63013,348,-64,328,-94,-62,136,-371,318,-139,-189,-99,-93,125,17,-369,-48,-269,4,422,-11,-479,91,46,-205,-197,-287,555,44,105,-47,-356,-283
63014,359,-50,331,-91,-53,138,-325,306,-138,-179,-102,-49,133,8,-376,-82,-349,14,397,-35,-471,17,71,-219,-202,-281,550,-20,79,-32,-332,-292
63015,324,-81,294,-105,-91,114,-297,251,-136,-184,-119,-58,124,16,-388,-37,-503,-30,404,-27,-471,-70,0,-255,-212,-295,549,-55,65,-51,-344,-296
63016,342,-71,299,-96,-86,107,-303,307,-112,-187,-113,-75,129,31,-369,64,-361,-49,425,6,-460,-13,-62,-242,-192,-278,526,-18,76,-22,-313,-283
63017,331,-83,259,-82,-77,104,-347,266,-127,-207,-121,-28,110,50,-376,94,-271,-62,406,-14,-475,28,-18,-245,-209,-263,508,-17,70,-38,-350,-291
63018,322,-73,200,-83,-66,112,-388,241,-138,-198,-88,-59,112,32,-407,-124,-357,-34,395,-18,-508,-28,-8,-262,-215,-293,462,5,57,-111,-445,-331
63019,339,-44,209,-94,-66,111,-427,245,-147,-197,-79,-98,92,-1,-424,-166,-328,-42,385,-28,-539,-41,-25,-283,-237,-317,437,-3,57,-99,-419,-321
63020,342,-66,267,-79,-76,128,-399,251,-126,-154,-88,-47,98,19,-400,9,-326,-43,380,-10,-501,21,-47,-272,-215,-282,497,31,86,-31,-332,-257
63021,315,-68,247,-74,-54,156,-376,241,-127,-160,-66,-46,93,28,-377,97,-401,-46,406,-6,-468,16,-79,-258,-184,-240,558,-3,108,37,-237,-173
63022,342,-52,248,-81,-76,153,-370,237,-161,-170,-87,-55,89,0,-363,119,-395,-51,395,5,-426,20,-52,-261,-158,-212,606,-21,136,118,-118,-100
63023,328,-84,265,-111,-68,172,-345,248,-159,-160,-85,-53,102,18,-354,131,-416,-44,414,13,-392,64,-23,-255,-158,-200,687,-5,123,122,-107,-110
63024,279,-71,268,-127,-62,168,-311,245,-168,-157,-91,-61,104,4,-367,88,-332,-29,403,3,-393,53,-29,-246,-165,-200,607,0,65,-19,-272,-236
63025,279,-23,311,-113,-82,144,-246,257,-145,-153,-78,-36,136,30,-352,73,-287,-20,419,2,-387,68,-11,-224,-160,-221,495,19,53,-121,-416,-320
63026,260,-13,317,-116,-97,151,-249,254,-139,-142,-60,-46,137,24,-353,-63,-306,-8,437,26,-390,84,0,-220,-170,-205,524,48,97,-35,-314,-215
63027,262,-28,310,-128,-87,148,-242,269,-163,-146,-39,-30,130,29,-332,-311,-314,-21,425,5,-397,63,-10,-232,-191,-217,528,72,123,13,-254,-204
63028,305,-31,289,-139,-102,144,-242,263,-158,-169,-17,-30,144,34,-309,-236,-379,-18,419,9,-395,59,-6,-240,-177,-229,566,57,120,8,-262,-207
63029,301,-43,274,-136,-88,173,-228,254,-125,-149,35,-30,129,72,-277,7,-299,-1,426,39,-358,97,19,-217,-150,-193,613,80,141,49,-250,-167
63030,254,-69,259,-130,-89,174,-300,247,-129,-139,27,-33,112,53,-274,136,-293,-29,433,41,-366,110,-4,-219,-141,-174,625,57,137,42,-247,-158
63031,232,-99,276,-138,-108,154,-322,235,-146,-167,-65,-71,96,35,-368,97,-364,-49,420,7,-430,145,-27,-222,-176,-235,620,26,109,4,-262,-193
63032,264,-118,275,-133,-117,143,-338,232,-164,-176,-82,-98,78,11,-362,-15,-408,-78,390,-23,-445,92,-57,-253,-204,-256,576,0,88,-24,-263,-203
63033,309,-65,310,-109,-86,148,-305,276,-140,-161,-54,-52,117,31,-317,-116,-388,-64,414,0,-401,35,-49,-244,-162,-221,607,34,120,42,-196,-135
63034,274,-58,282,-140,-97,121,-308,212,-177,-177,-84,-81,85,10,-353,-145,-446,-93,388,1,-420,54,-69,-267,-181,-233,636,-7,99,35,-166,-129
63035,238,-83,255,-172,-98,136,-350,174,-185,-187,-56,-87,60,17,-348,-24,-399,-86,391,-33,-421,82,-82,-279,-194,-243,654,-11,72,3,-214,-157
63036,251,-93,287,-163,-100,139,-386,189,-167,-170,-68,-77,74,25,-349,-81,-394,-73,381,-46,-424,70,-65,-292,-200,-265,567,10,41,-85,-357,-189
63037,276,-106,289,-156,-108,139,-360,232,-150,-165,-76,-61,92,33,-354,-304,-366,-70,398,-22,-438,136,-30,-264,-184,-233,594,65,109,18,-269,-134
63038,226,-126,240,-193,-118,118,-376,202,-179,-193,-84,-117,66,-2,-379,-323,-306,-94,388,-47,-473,107,-57,-293,-220,-256,560,30,86,2,-265,-188
63039,232,-86,247,-166,-97,152,-332,190,-165,-162,-52,-123,73,6,-352,-94,-367,-107,398,-22,-433,42,-61,-287,-238,-268,549,28,75,-35,-292,-218
63040,221,-100,231,-180,-86,148,-295,165,-171,-162,-56,-135,64,15,-355,91,-408,-132,367,-13,-420,33,-77,-315,-228,-274,570,-5,65,-42,-294,-249
63041,223,-120,221,-176,-94,142,-276,153,-173,-156,-46,-169,53,8,-351,33,-399,-129,372,-19,-437,83,-124,-334,-227,-283,618,-18,31,-53,-307,-237
63042,241,-129,222,-194,-126,135,-261,171,-165,-178,-80,-197,49,15,-373,-28,-415,-125,374,-39,-470,91,-150,-344,-228,-295,609,-42,6,-100,-362,-297
63043,210,-128,207,-192,-120,137,-317,171,-173,-179,-82,-154,71,26,-400,63,-383,-127,376,-11,-456,108,-128,-326,-209,-272,623,0,49,-65,-304,-287
63044,166,-160,189,-204,-128,99,-383,155,-180,-209,-72,-167,68,22,-384,-11,-366,-111,426,0,-456,123,-106,-304,-210,-264,645,7,59,-42,-285,-207
63045,161,-135,180,-227,-112,101,-359,147,-163,-190,-65,-202,80,10,-370,-197,-361,-120,413,3,-434,207,-86,-292,-187,-244,652,8,99,-4,-261,-146
63046,183,-123,175,-236,-109,98,-353,120,-165,-191,-81,-178,50,25,-381,-103,-361,-121,414,19,-403,252,-21,-282,-155,-225,695,-5,99,3,-223,-95
63047,193,-149,202,-230,-116,83,-381,143,-169,-185,-86,-195,37,32,-361,79,-378,-138,417,46,-364,238,-18,-273,-173,-196,701,3,107,7,-215,-78
63048,205,-144,215,-215,-132,90,-333,137,-172,-177,-68,-193,35,32,-346,217,-408,-149,412,42,-355,222,-72,-277,-183,-188,748,44,99,26,-200,-66
63049,179,-148,165,-219,-114,104,-300,123,-163,-173,-72,-175,19,11,-360,255,-428,-147,379,-3,-391,161,-98,-288,-194,-218,741,40,105,24,-193,-77
63050,172,-162,155,-190,-103,103,-327,141,-164,-144,-67,-143,40,39,-362,221,-383,-127,388,10,-391,100,-54,-247,-187,-208,757,88,162,86,-127,4
63051,208,-112,185,-172,-92,121,-294,161,-146,-147,-64,-137,49,17,-362,223,-397,-110,393,36,-401,131,-35,-258,-186,-202,774,102,163,85,-137,-55
63052,266,-61,188,-145,-59,151,-271,202,-154,-152,-36,-118,75,18,-353,172,-357,-92,392,7,-414,147,-36,-266,-197,-225,722,68,99,8,-213,-204
63053,276,-65,232,-139,-74,152,-258,213,-156,-145,-25,-95,86,5,-353,120,-356,-74,403,-4,-415,158,-36,-257,-204,-249,677,89,94,-20,-285,-213
63054,238,-118,240,-144,-113,139,-247,182,-161,-176,3,-98,90,-5,-367,38,-502,-81,419,-11,-434,138,-24,-261,-218,-253,664,77,105,-2,-268,-140
63055,248,-124,250,-144,-110,126,-273,219,-149,-175,-25,-62,96,8,-382,-5,-475,-44,446,-12,-416,147,16,-252,-209,-251,712,75,98,-6,-236,-76
63056,232,-139,282,-160,-125,124,-296,252,-136,-162,-42,-7,126,16,-377,-70,-271,15,439,13,-410,185,77,-214,-196,-231,738,106,147,48,-188,16
63057,220,-149,255,-136,-111,106,-307,240,-135,-165,-71,11,136,25,-375,-21,-103,34,451,14,-423,170,109,-205,-197,-239,727,142,162,53,-213,-108
63058,231,-141,274,-151,-114,92,-326,217,-158,-186,-91,-47,92,24,-374,6,-211,-1,431,14,-430,171,43,-236,-208,-252,708,143,142,38,-233,-122
63059,241,-141,276,-129,-99,90,-327,271,-129,-190,-95,-71,97,18,-400,-122,-280,-26,429,-11,-466,163,28,-247,-219,-277,614,124,119,-6,-293,-212
63060,214,-170,234,-138,-111,84,-359,247,-136,-185,-104,-64,88,14,-402,-401,-317,-32,442,-30,-474,86,32,-237,-193,-274,543,96,108,-26,-311,-233
63061,193,-195,170,-163,-125,75,-384,162,-170,-200,-95,-79,67,-3,-398,-479,-255,-50,414,-57,-504,58,24,-242,-212,-284,519,62,71,-36,-318,-240
63062,224,-151,179,-158,-109,121,-359,202,-149,-176,-43,-63,92,8,-372,-313,-308,-51,421,-34,-458,107,38,-253,-184,-259,579,100,103,22,-225,-111
63063,265,-101,216,-126,-88,144,-314,248,-127,-173,-28,-74,97,13,-337,-61,-375,-33,427,-6,-403,145,64,-240,-165,-221,659,126,139,46,-184,-19
63064,258,-138,233,-106,-110,112,-335,230,-143,-175,-54,-100,91,4,-373,12,-207,-46,396,-21,-416,155,50,-238,-194,-230,668,106,168,52,-186,-10
63065,206,-179,240,-131,-98,115,-412,196,-138,-177,-73,-98,61,9,-399,-11,-216,-51,407,-43,-456,135,37,-263,-212,-263,586,106,137,16,-237,-265
63066,191,-186,218,-160,-130,111,-425,203,-168,-195,-85,-118,47,-24,-415,-2,-267,-86,393,-53,-468,137,-8,-280,-218,-281,603,86,105,37,-200,-192
63067,206,-164,212,-155,-118,105,-423,214,-167,-190,-105,-110,63,-16,-414,62,-297,-84,376,-37,-448,126,-13,-285,-216,-273,622,52,92,18,-210,-175
63068,246,-146,249,-120,-103,119,-374,219,-146,-194,-123,-107,85,-8,-424,141,-285,-55,379,-41,-438,115,-5,-292,-224,-271,566,63,72,-51,-336,-236
63069,231,-147,195,-126,-113,107,-346,224,-136,-219,-135,-64,81,-15,-406,184,-302,-48,354,-51,-453,171,5,-275,-222,-255,641,41,99,-10,-272,-173
63070,216,-138,169,-122,-105,106,-345,223,-144,-214,-119,-78,103,1,-389,205,-311,-59,395,-39,-406,147,14,-250,-191,-225,696,57,119,67,-154,-132
63071,237,-165,251,-130,-92,99,-389,235,-133,-205,-86,-62,117,-11,-396,151,-354,-29,408,-38,-408,129,26,-246,-203,-246,663,65,131,42,-233,-173
63072,224,-154,270,-122,-88,95,-388,271,-122,-183,-71,-60,152,10,-392,112,-300,1,426,-41,-432,161,36,-226,-195,-239,669,68,139,54,-214,-165
63073,253,-138,261,-92,-97,107,-314,297,-118,-186,-69,-40,157,25,-375,82,-261,20,443,-22,-405,150,85,-204,-173,-243,675,107,127,21,-265,-155
63074,264,-116,266,-103,-112,107,-277,304,-131,-198,-52,-19,136,7,-369,-27,-326,22,430,-25,-430,150,88,-198,-179,-246,605,159,140,-48,-383,-208
63075,255,-145,255,-115,-128,62,-293,275,-141,-210,-81,33,131,0,-363,-201,-266,29,434,-24,-425,162,139,-195,-173,-242,583,182,168,8,-328,-186
63076,293,-143,320,-89,-104,77,-266,306,-132,-194,-59,112,177,21,-345,-129,-246,72,459,11,-395,185,214,-154,-148,-203,644,187,220,98,-238,-106
63077,292,-143,346,-103,-100,91,-265,296,-118,-191,-10,97,187,34,-329,56,-279,73,481,51,-349,204,180,-125,-114,-180,697,213,272,156,-148,-36
63078,252,-169,332,-128,-113,69,-334,265,-107,-182,-26,55,175,36,-335,146,-279,56,475,45,-356,131,100,-132,-108,-187,681,218,237,127,-190,-98
63079,244,-178,332,-138,-124,62,-357,267,-129,-218,-62,46,151,28,-358,194,-424,45,453,30,-405,133,80,-168,-123,-201,647,192,193,100,-197,-110
