,Fp1,Fp2,F7,F3,Fz,F4,F8,FC5,FC1,FC2,FC6,T7,C3,Cz,C4,T8,TP9,CP5,CP1,CP2,CP6,TP10,P7,P3,Pz,P4,P8,PO9,O1,Oz,O2,PO10
131714,407,460,110,-52,-134,390,374,171,-182,125,573,-75,361,-542,56,29,-248,-88,-140,-43,-539,31,119,-218,-182,-74,-89,-282,-170,-122,-377,-276
131715,429,467,170,1,-128,394,360,232,-173,95,470,-35,387,-538,34,30,-239,-80,-150,-61,-538,45,149,-223,-191,-81,-60,-301,-185,-117,-402,-275
131716,404,362,149,-43,-143,371,339,216,-191,92,430,-52,374,-523,7,16,-250,-78,-141,-74,-565,33,114,-222,-198,-100,-49,-282,-183,-123,-409,-328
131717,347,323,88,-91,-169,357,330,193,-185,91,453,-74,366,-525,-12,1,-264,-93,-147,-109,-601,-11,56,-264,-211,-151,-78,-284,-203,-166,-453,-281
131718,309,328,42,-54,-145,383,396,239,-175,95,472,-66,389,-517,-17,14,-203,-102,-141,-111,-629,-231,40,-261,-238,-172,-177,-261,-249,-209,-520,-434
131719,343,307,17,-52,-150,396,341,117,-169,114,364,-53,378,-514,-17,78,-166,-72,-146,-121,-638,-107,40,-273,-237,-199,-223,-261,-260,-243,-554,-571
131720,389,244,64,-18,-134,440,325,337,-142,118,339,-69,397,-524,-33,122,-154,-87,-159,-138,-634,2,63,-261,-240,-205,-233,-222,-272,-261,-579,-573
131721,438,238,151,-17,-125,434,319,336,-151,101,470,-106,365,-534,-34,77,-121,-176,-158,-151,-620,-91,17,-289,-263,-204,-243,-241,-293,-288,-604,-613
131722,485,298,280,-37,-133,419,368,188,-173,122,491,-98,376,-517,-9,-31,-252,-110,-143,-120,-582,-71,30,-290,-238,-166,-233,-319,-284,-281,-594,-561
131723,473,324,300,-77,-139,382,327,165,-174,126,449,-36,389,-516,-22,-138,-270,-44,-135,-87,-565,56,78,-248,-200,-129,-187,-280,-275,-249,-546,-549
131724,398,423,269,-104,-142,294,318,171,-171,97,397,-63,367,-532,-23,3,-233,-127,-148,-84,-573,2,50,-264,-223,-148,-186,-282,-267,-251,-547,-542
131725,381,461,345,-58,-147,255,318,197,-168,92,411,-35,383,-500,-6,45,-175,-107,-123,-81,-549,17,87,-245,-199,-106,-142,-229,-224,-222,-502,-468
131726,351,468,314,-37,-141,266,282,188,-178,84,443,-24,380,-494,8,94,-203,-67,-116,-58,-508,40,122,-230,-188,-104,-108,-219,-241,-199,-487,-455
131727,390,570,295,-67,-138,288,282,169,-181,93,503,-74,373,-507,19,93,-281,-102,-119,-45,-513,29,87,-251,-176,-104,-100,-258,-252,-206,-504,-482
131728,421,561,265,-67,-139,317,288,168,-190,102,487,-19,378,-511,21,41,-322,-100,-120,-56,-521,-6,72,-247,-172,-94,-166,-277,-240,-228,-513,-494
131729,468,547,246,-73,-149,248,311,139,-189,85,425,-22,383,-514,17,-84,-220,-92,-108,-50,-506,14,130,-231,-174,-73,-187,-287,-226,-202,-484,-476
131730,488,468,247,-69,-145,232,331,163,-175,78,363,11,409,-512,-10,-172,-238,-75,-86,-41,-550,75,138,-213,-139,-75,-143,-249,-206,-165,-442,-393
131731,529,373,293,-105,-152,290,359,178,-168,103,401,53,409,-489,-12,-78,-214,-58,-67,-43,-573,55,156,-183,-131,-55,-130,-195,-185,-129,-431,-385
131732,491,307,312,-92,-166,339,362,202,-163,124,449,26,423,-477,11,5,-203,-43,-59,-39,-551,68,155,-155,-119,-57,-110,-200,-162,-108,-399,-304
131733,414,208,264,-90,-168,344,319,215,-171,108,461,-32,419,-501,22,1,-235,-50,-64,-41,-556,55,131,-172,-121,-55,-102,-205,-140,-91,-406,-309
131734,400,225,302,-63,-150,331,315,180,-157,106,432,-8,413,-479,-2,-303,-249,-67,-65,-64,-574,-18,94,-168,-148,-82,-129,-274,-200,-159,-465,-437
131735,434,274,242,-60,-167,318,296,176,-169,92,410,-28,409,-487,-27,-319,-249,-94,-96,-58,-570,-73,54,-204,-151,-103,-142,-286,-219,-202,-509,-511
131736,425,344,199,-82,-169,332,249,185,-164,80,449,-38,416,-474,-27,-7,-240,-87,-78,-55,-585,-106,46,-194,-134,-103,-162,-230,-200,-173,-510,-538
131737,393,321,130,-95,-179,330,259,167,-159,104,506,-73,417,-471,31,10,-268,-98,-57,-37,-540,-120,50,-177,-127,-57,-91,-202,-179,-141,-476,-426
131738,370,303,73,-92,-198,324,264,160,-174,113,548,-95,418,-471,36,-27,-261,-99,-74,-25,-517,-196,49,-188,-123,-43,-77,-216,-192,-158,-486,-491
131739,315,340,67,-73,-189,303,226,200,-173,100,510,-78,421,-477,20,-20,-246,-80,-69,-9,-519,-150,54,-203,-108,-54,-106,-272,-245,-198,-530,-604
131740,310,427,126,-40,-170,279,199,237,-150,100,414,-63,424,-457,32,-26,-219,-69,-53,7,-509,-50,83,-177,-77,-28,-44,-224,-175,-146,-472,-570
131741,304,425,158,-67,-192,259,219,229,-168,74,334,-51,425,-471,30,-4,-187,-37,-48,4,-489,-20,88,-148,-50,22,1,-167,-140,-107,-424,-404
131742,317,246,153,-85,-219,343,179,209,-158,94,305,-105,432,-443,40,56,-139,-42,-4,27,-497,-23,93,-136,-18,17,-105,-159,-137,-110,-400,-447
131743,393,185,134,-106,-203,404,118,188,-156,105,364,-88,445,-435,58,34,-136,-54,-6,23,-521,-58,97,-138,-33,8,-170,-167,-133,-112,-391,-486
131744,400,242,123,-147,-209,400,130,184,-176,112,380,-53,434,-461,54,-3,-206,-53,-15,20,-521,-283,130,-147,-35,3,-167,-185,-124,-143,-426,-465
131745,395,309,123,-148,-215,371,174,172,-184,99,378,-63,424,-471,13,-188,-235,-54,-28,10,-556,-95,134,-139,-37,-15,-130,-236,-162,-144,-434,-490
131746,349,294,115,-158,-210,317,210,149,-178,88,393,-64,422,-463,27,-200,-235,-32,-17,0,-576,20,185,-123,-45,-11,-82,-303,-173,-144,-426,-522
131747,285,250,82,-200,-226,315,134,90,-196,83,394,-120,406,-469,15,-151,-255,-48,-36,-23,-576,-9,158,-162,-62,-4,-58,-272,-184,-138,-425,-488
131748,280,291,91,-166,-207,306,194,127,-176,114,404,-125,410,-456,41,-187,-208,-15,-32,3,-560,-79,145,-161,-60,10,-47,-187,-162,-99,-418,-474
131749,290,343,80,-123,-212,264,217,199,-158,113,404,-169,421,-463,40,-109,-159,-39,-20,20,-552,-107,97,-151,-45,32,-14,-193,-161,-114,-393,-445
131750,287,322,14,-141,-234,227,195,110,-162,103,379,-184,400,-439,38,-54,-133,-78,-24,28,-515,-55,71,-145,-38,46,8,-234,-168,-77,-368,-353
131751,278,330,41,-191,-239,238,249,-115,-172,95,353,-200,379,-441,41,-67,-272,-18,-29,36,-503,-4,104,-151,-19,62,19,-176,-132,-42,-322,-308
131752,295,344,83,-191,-226,272,276,-235,-175,108,397,-306,370,-438,51,-31,-307,-82,-65,34,-502,-102,58,-173,-30,62,4,-152,-133,-63,-341,-414
131753,286,304,50,-146,-242,260,188,91,-172,100,367,-151,337,-465,15,-90,-319,-231,-117,-8,-551,29,-26,-237,-84,19,-21,-248,-224,-128,-420,-476
131754,280,232,72,-98,-238,217,133,119,-151,79,320,-68,348,-476,-12,-149,-355,-151,-111,-49,-588,33,16,-241,-103,-10,-84,-236,-210,-125,-398,-433
131755,347,249,152,-191,-224,152,151,87,-183,68,322,-141,338,-490,-29,-149,-333,-154,-129,-53,-593,-48,24,-236,-106,-28,-143,-262,-189,-130,-406,-482
131756,366,215,201,-133,-209,145,138,95,-175,66,313,-132,335,-522,-53,-174,-322,-157,-146,-79,-632,-87,46,-257,-131,-43,-133,-287,-202,-104,-399,-454
131757,330,143,114,-104,-196,238,133,73,-162,96,354,-157,356,-512,-42,-191,-387,-178,-130,-66,-614,-65,-5,-270,-141,-46,-127,-339,-248,-152,-403,-404
131758,296,87,77,-170,-205,225,122,27,-188,88,387,-191,334,-500,-33,-225,-452,-203,-132,-50,-620,-17,-54,-273,-155,-34,-105,-324,-247,-124,-391,-385
131759,251,46,28,-199,-222,229,111,43,-172,80,402,-192,320,-497,-46,-233,-480,-235,-142,-75,-648,-71,-99,-313,-167,-68,-138,-346,-271,-181,-433,-489
131760,252,120,22,-181,-230,230,51,54,-163,84,394,-212,293,-504,-37,-187,-488,-271,-149,-88,-647,-211,-120,-315,-179,-89,-142,-327,-285,-197,-458,-500
131761,251,249,34,-146,-236,202,85,74,-161,77,390,-246,292,-521,-40,-191,-409,-258,-149,-86,-641,-96,-104,-320,-180,-64,-117,-303,-290,-186,-424,-426
131762,267,327,36,-153,-234,239,125,82,-167,78,443,-271,300,-527,-42,-213,-397,-246,-150,-86,-630,-67,-105,-332,-186,-69,-126,-362,-302,-202,-458,-526
131763,281,329,20,-146,-228,291,117,48,-190,92,325,-265,294,-521,-31,-198,-365,-261,-157,-72,-600,-45,-98,-329,-177,-50,-81,-327,-283,-177,-443,-488
131764,339,282,53,-130,-213,316,155,68,-175,101,197,-308,314,-509,-27,-156,-339,-237,-155,-62,-576,-25,-82,-313,-157,-35,-42,-282,-260,-137,-369,-351
131765,385,308,97,-158,-224,311,185,92,-179,98,230,-271,328,-516,-60,-134,-358,-195,-145,-62,-595,-52,-54,-288,-134,-44,-73,-308,-249,-164,-401,-446
131766,399,347,101,-161,-226,278,193,87,-159,93,264,-233,308,-536,-64,-169,-400,-206,-158,-88,-630,-123,-46,-304,-161,-81,-155,-328,-270,-209,-469,-602
131767,382,348,107,-162,-212,279,141,97,-168,90,244,-209,321,-528,-69,-189,-406,-214,-156,-84,-639,-158,-58,-305,-171,-84,-168,-346,-292,-211,-476,-571
131768,335,226,76,-156,-240,250,28,75,-191,75,210,-225,292,-543,-80,-227,-426,-257,-178,-98,-639,-159,-86,-317,-181,-61,-131,-391,-302,-205,-460,-571
131769,311,201,80,-191,-249,245,11,66,-190,93,192,-253,294,-542,-57,-172,-448,-262,-185,-93,-640,-172,-68,-330,-178,-60,-115,-454,-291,-197,-454,-594
131770,318,235,86,-171,-227,256,-38,113,-175,91,260,-241,320,-517,-48,-68,-445,-253,-166,-82,-634,-236,-39,-318,-165,-68,-170,-556,-308,-217,-488,-625
131771,266,277,18,-165,-243,274,10,102,-173,73,287,-254,315,-532,-31,-33,-462,-260,-156,-77,-613,-320,-39,-304,-188,-67,-158,-486,-323,-232,-526,-628
131772,255,278,59,-119,-232,276,52,144,-150,100,328,-259,333,-516,-11,-200,-425,-219,-137,-61,-594,-155,-20,-276,-164,-45,-128,-441,-300,-216,-513,-572
131773,280,227,17,-94,-217,246,15,162,-150,112,312,-307,340,-505,-39,-410,-418,-210,-137,-65,-603,-188,-68,-282,-158,-60,-131,-420,-293,-185,-481,-512
131774,266,198,-17,-62,-215,235,73,151,-164,86,274,-353,358,-532,-80,-447,-435,-195,-129,-107,-663,-256,-84,-283,-183,-117,-173,-343,-282,-189,-482,-647
131775,305,186,11,-86,-222,244,77,87,-176,63,246,-305,334,-543,-89,-309,-389,-239,-142,-100,-672,-277,-81,-284,-199,-127,-187,-393,-281,-205,-496,-577
131776,315,205,3,-87,-219,266,38,46,-179,67,239,-269,334,-527,-77,-194,-416,-252,-140,-102,-649,-257,-7,-290,-190,-116,-186,-477,-289,-185,-466,-486
131777,294,253,11,-56,-205,221,56,150,-156,65,235,-259,349,-528,-84,-219,-433,-231,-143,-100,-637,-294,1,-261,-207,-121,-190,-418,-291,-209,-497,-524
131778,322,289,113,-22,-182,138,137,118,-143,77,248,-238,347,-526,-81,-191,-442,-195,-136,-128,-622,-375,-1,-259,-218,-139,-216,-378,-303,-235,-557,-679
131779,295,257,172,-83,-206,237,148,-143,-184,53,256,-171,318,-552,-81,-207,-445,-180,-140,-121,-641,-224,1,-256,-221,-158,-241,-319,-280,-212,-528,-648
131780,321,215,147,-121,-210,235,88,8,-198,35,239,-223,300,-568,-107,-242,-440,-187,-155,-116,-666,-200,-44,-279,-229,-171,-278,-337,-291,-218,-529,-626
131781,347,160,110,-100,-206,230,88,172,-161,59,287,-243,349,-532,-80,-216,-412,-150,-118,-106,-655,-165,1,-233,-180,-144,-215,-281,-243,-177,-483,-563
131782,325,142,127,-121,-208,242,103,123,-162,46,285,-221,332,-539,-70,-225,-374,-175,-144,-103,-654,-122,-4,-246,-192,-145,-166,-276,-250,-151,-476,-497
131783,346,167,170,-134,-187,267,92,112,-165,57,304,-157,322,-537,-72,-212,-328,-177,-145,-106,-646,-77,-23,-251,-192,-112,-99,-269,-236,-149,-446,-443
131784,366,162,133,-140,-191,265,101,88,-156,81,292,-162,325,-539,-56,-190,-313,-173,-137,-95,-639,-64,-32,-234,-177,-79,-78,-246,-210,-147,-405,-392
131785,386,168,164,-152,-184,245,112,63,-181,64,335,-189,329,-518,-66,-197,-325,-146,-133,-75,-645,-118,-27,-221,-168,-83,-89,-228,-189,-152,-436,-428
131786,385,226,193,-131,-182,263,153,61,-174,67,374,-227,329,-529,-55,-193,-321,-143,-129,-75,-624,-153,-1,-203,-173,-80,-52,-205,-174,-137,-421,-432
131787,369,273,99,-82,-193,246,171,99,-161,84,379,-189,328,-530,-67,-226,-329,-160,-132,-66,-620,-104,-3,-215,-166,-90,-58,-250,-184,-151,-446,-412
131788,410,291,103,-61,-183,232,145,141,-146,74,368,-168,345,-522,-55,-212,-322,-121,-103,-70,-614,-52,25,-166,-124,-67,-25,-275,-168,-151,-416,-395
131789,413,372,139,-81,-194,252,194,153,-161,66,315,-159,377,-535,-31,-165,-343,-116,-98,-55,-584,-74,16,-177,-124,-41,-5,-279,-177,-104,-361,-404
131790,394,446,152,-104,-203,235,268,151,-170,65,262,-155,364,-535,-38,-158,-327,-134,-122,-62,-579,-94,9,-212,-153,-53,-27,-237,-198,-106,-402,-483
131791,373,444,153,-84,-210,230,216,155,-167,52,319,-153,348,-538,-45,-169,-325,-136,-129,-62,-578,-72,20,-232,-144,-63,-54,-200,-193,-129,-407,-491
131792,385,387,183,-84,-182,254,191,163,-152,67,372,-154,340,-531,-38,-157,-336,-131,-125,-67,-570,-86,9,-205,-140,-63,-51,-248,-197,-133,-407,-410
131793,372,312,160,-79,-192,253,131,137,-162,57,396,-169,327,-498,-13,-160,-359,-153,-114,-55,-580,-105,-32,-225,-160,-68,-50,-282,-213,-153,-416,-384
131794,339,186,52,-107,-217,227,55,133,-164,30,280,-206,326,-517,-49,-192,-375,-186,-142,-85,-625,-207,-31,-252,-172,-95,-96,-312,-237,-184,-483,-518
131795,348,185,36,-103,-220,252,131,116,-172,36,189,-253,311,-524,-69,-150,-370,-209,-165,-89,-635,-268,0,-249,-187,-101,-124,-296,-227,-180,-486,-527
131796,349,152,91,-68,-218,233,143,128,-162,25,252,-261,332,-520,-81,-102,-347,-160,-132,-78,-600,-130,19,-234,-144,-92,-85,-303,-192,-150,-471,-471
131797,344,216,82,-88,-209,190,135,175,-153,18,272,-287,367,-516,-98,-63,-263,-135,-106,-62,-581,-85,56,-193,-128,-50,-42,-288,-166,-110,-400,-349
131798,312,260,-2,-92,-216,153,120,164,-142,41,307,-274,372,-484,-38,28,-223,-112,-83,-41,-560,-219,76,-170,-113,-35,-32,-239,-138,-86,-373,-380
131799,260,202,-60,-67,-233,185,77,172,-141,47,325,-243,384,-501,-7,25,-332,-84,-70,-26,-540,-169,75,-162,-103,-9,5,-206,-141,-83,-363,-396
131800,276,196,14,-24,-204,201,67,159,-156,44,338,-162,366,-531,-30,-95,-399,-91,-99,-54,-577,-92,71,-174,-140,-41,-52,-272,-197,-148,-437,-608
131801,455,338,243,9,-164,228,139,226,-142,82,379,-115,390,-522,-23,-234,-300,-86,-90,-40,-552,24,79,-163,-124,-32,-46,-267,-181,-114,-421,-580
131802,508,399,353,29,-179,241,185,222,-131,73,387,-69,387,-514,-31,-198,-242,-81,-99,-60,-575,37,97,-156,-133,-38,-47,-272,-166,-84,-394,-416
131803,482,412,361,-6,-177,255,223,175,-122,59,402,-30,378,-519,-35,-61,-172,-74,-91,-62,-591,-20,113,-162,-152,-63,-64,-195,-136,-92,-369,-430
131804,452,404,363,-28,-178,267,212,157,-135,76,402,-39,370,-518,-29,-74,-254,-94,-101,-76,-593,-27,82,-183,-171,-73,-33,-142,-152,-100,-365,-392
131805,420,342,370,-14,-199,257,197,150,-129,83,390,-42,397,-506,-14,-79,-266,-83,-87,-70,-569,-9,53,-168,-168,-37,2,-171,-147,-68,-372,-367
131806,421,329,364,-44,-185,230,202,148,-133,70,400,-62,385,-507,-38,-80,-268,-86,-88,-78,-586,-95,41,-191,-165,-61,-50,-208,-174,-105,-429,-471
131807,408,295,264,-105,-183,242,213,156,-136,92,380,-85,375,-509,-9,-116,-250,-73,-91,-68,-584,0,51,-187,-147,-73,-25,-213,-167,-103,-422,-424
131808,381,304,293,-87,-183,268,267,154,-145,120,412,-87,372,-516,10,-149,-240,-108,-106,-64,-544,-8,1,-220,-158,-64,4,-289,-193,-120,-410,-423
131809,368,291,293,-77,-182,272,255,182,-151,118,370,-76,368,-523,14,-159,-217,-123,-114,-64,-535,-7,18,-234,-194,-106,6,-260,-205,-133,-427,-343
131810,382,248,256,-97,-174,236,171,190,-150,94,340,-72,381,-502,-5,-125,-220,-91,-119,-91,-576,-61,84,-229,-204,-127,-77,-200,-213,-147,-459,-390
131811,316,155,251,-106,-192,203,182,164,-154,80,403,-89,375,-512,-17,-61,-289,-114,-142,-103,-601,-153,65,-247,-233,-156,-172,-198,-233,-189,-505,-522
131812,338,13,242,-88,-193,225,259,175,-162,90,497,-111,354,-523,17,60,-279,-144,-150,-95,-569,-139,48,-262,-224,-161,-148,-237,-226,-199,-513,-533
131813,348,12,279,-70,-181,316,282,196,-163,123,552,-118,356,-520,26,92,-245,-111,-145,-72,-559,-209,81,-243,-232,-125,-150,-210,-185,-159,-478,-478
131814,359,51,317,-71,-183,277,178,198,-139,119,466,-113,374,-531,7,-11,-198,-72,-128,-63,-524,29,124,-221,-206,-95,-88,-142,-161,-121,-478,-488
131815,332,131,268,-58,-180,233,184,184,-141,76,334,-99,368,-543,0,-152,-184,-100,-126,-65,-537,49,102,-215,-172,-93,-33,-194,-170,-127,-471,-440
131816,231,199,227,-80,-212,226,221,151,-154,68,298,-107,356,-540,-22,-86,-191,-109,-132,-78,-556,39,109,-222,-183,-79,-10,-133,-147,-110,-417,-389
131817,257,219,209,-121,-210,227,168,139,-150,72,359,-54,390,-527,-13,-47,-206,-57,-126,-66,-571,29,135,-200,-178,-88,-9,-97,-136,-114,-444,-435
131818,274,247,210,-41,-207,236,172,183,-149,71,386,-23,402,-508,-4,-54,-206,-56,-106,-61,-541,24,125,-207,-167,-86,-51,-201,-185,-134,-472,-432
131819,291,243,132,-73,-232,252,146,188,-152,70,357,-25,407,-505,-11,-67,-199,-30,-92,-60,-560,35,149,-188,-167,-104,-85,-241,-159,-119,-436,-380
131820,250,188,44,-96,-246,277,76,263,-142,79,325,-52,408,-493,-15,-68,-175,-63,-87,-56,-589,47,69,-209,-166,-105,-88,-274,-181,-146,-439,-370
131821,221,122,60,-110,-235,300,114,78,-152,96,326,-51,385,-503,2,-61,-214,-64,-92,-54,-593,31,72,-202,-148,-105,-109,-285,-190,-150,-473,-465
131822,225,66,85,-96,-222,301,107,148,-135,106,370,-75,411,-476,11,-45,-263,-31,-74,-35,-565,20,165,-153,-122,-91,-105,-305,-181,-185,-493,-469
131823,204,111,140,-72,-210,285,149,362,-136,104,388,-46,419,-461,6,-55,-223,-34,-53,-40,-583,-39,189,-157,-111,-92,-145,-273,-189,-187,-502,-500
131824,124,176,100,-64,-233,248,160,240,-164,67,364,-82,378,-492,9,-93,-273,-113,-97,-38,-615,-96,60,-227,-136,-104,-190,-258,-238,-161,-506,-495
131825,176,167,116,-107,-223,257,137,155,-170,95,373,-113,363,-491,15,-101,-280,-122,-102,-24,-603,-66,25,-240,-116,-85,-185,-229,-209,-122,-477,-450
131826,196,160,124,-139,-245,233,110,132,-180,90,344,-150,338,-480,20,-104,-282,-161,-97,-16,-608,-82,-21,-238,-105,-76,-163,-261,-213,-123,-471,-481
131827,289,214,166,-133,-211,252,158,163,-180,106,377,-153,348,-449,41,-102,-271,-179,-76,6,-609,-100,-40,-229,-85,-88,-152,-254,-245,-194,-498,-492
131828,340,207,194,-146,-222,257,173,171,-181,95,385,-157,345,-445,42,-101,-259,-168,-68,12,-608,-83,-51,-243,-105,-87,-191,-246,-259,-199,-483,-474
131829,307,176,189,-186,-250,212,139,117,-199,90,401,-219,327,-470,42,-60,-280,-195,-106,4,-613,-83,-45,-264,-128,-89,-196,-255,-283,-183,-496,-454
131830,285,164,213,-169,-236,207,133,64,-195,83,454,-235,316,-479,72,30,-302,-193,-105,0,-567,-131,-15,-266,-116,-69,-183,-248,-264,-176,-493,-467
131831,284,139,213,-160,-236,224,145,79,-181,114,414,-220,329,-472,89,-4,-259,-161,-86,9,-565,-194,-9,-253,-108,-67,-170,-277,-269,-160,-495,-500
131832,243,91,122,-173,-239,200,133,63,-192,108,343,-171,325,-451,73,-129,-246,-173,-97,26,-567,-132,-27,-246,-96,-47,-165,-311,-273,-176,-490,-484
131833,243,73,139,-164,-229,138,168,96,-173,94,338,-174,357,-452,23,-273,-207,-175,-79,10,-555,25,-65,-217,-83,-16,-121,-226,-203,-127,-449,-481
131834,251,119,186,-184,-236,164,152,120,-162,104,367,-172,373,-464,38,-151,-212,-138,-51,21,-548,-143,-24,-217,-72,-1,-61,-168,-193,-119,-432,-518
131835,217,190,190,-188,-217,192,162,97,-168,135,402,-188,385,-438,78,-34,-232,-129,-46,67,-506,-176,21,-216,-73,24,17,-161,-173,-85,-409,-500
131836,180,121,153,-178,-226,188,185,68,-186,136,414,-192,359,-459,70,-59,-277,-168,-53,69,-501,-40,16,-223,-83,20,30,-184,-178,-69,-371,-367
131837,150,23,121,-171,-263,180,95,49,-191,106,340,-188,381,-457,39,-116,-272,-163,-62,21,-519,-20,26,-201,-91,-19,-25,-189,-190,-87,-383,-318
131838,166,8,133,-227,-262,184,145,46,-207,97,351,-225,368,-468,59,15,-354,-161,-70,15,-511,-56,3,-212,-111,-34,-17,-217,-214,-118,-423,-393
131839,193,5,160,-222,-257,217,111,19,-200,118,356,-232,326,-461,68,-47,-386,-182,-90,27,-495,-60,-26,-235,-128,-18,65,-273,-242,-136,-414,-443
131840,191,-28,115,-207,-261,247,-13,65,-209,111,453,-318,348,-457,63,-411,-413,-170,-90,9,-531,0,-23,-250,-142,-16,54,-247,-251,-131,-399,-406
131841,100,12,21,-146,-253,259,1,163,-175,107,502,-260,390,-473,56,-298,-340,-152,-78,-17,-543,28,-14,-239,-143,-29,41,-249,-270,-141,-416,-500
131842,44,108,44,-112,-227,296,58,188,-168,131,502,-206,398,-444,87,4,-302,-149,-93,17,-521,18,-21,-234,-134,-30,3,-285,-247,-140,-423,-513
131843,89,171,1,-125,-216,342,110,128,-168,143,407,-136,384,-453,94,-57,-294,-159,-90,23,-526,9,-6,-221,-129,-6,-39,-243,-230,-98,-340,-403
131844,145,208,-14,-145,-232,336,156,112,-176,112,299,-135,371,-464,32,-87,-294,-183,-86,-11,-562,5,-11,-224,-128,-12,-32,-327,-259,-113,-379,-414
131845,151,162,11,-170,-233,284,173,102,-168,97,330,-146,371,-455,8,-95,-382,-172,-67,-16,-552,18,0,-211,-117,-11,-13,-360,-231,-109,-393,-422
131846,160,103,39,-211,-231,212,141,90,-172,99,371,-143,380,-455,42,-123,-418,-139,-78,0,-535,10,10,-221,-115,-11,-20,-266,-219,-62,-337,-395
131847,222,128,88,-197,-224,278,146,129,-182,117,397,-129,392,-454,55,-115,-371,-123,-70,10,-521,14,24,-211,-113,-18,0,-310,-240,-111,-364,-388
131848,258,221,125,-198,-224,389,212,157,-159,160,448,-122,398,-457,87,-39,-335,-110,-44,46,-497,-14,11,-194,-100,-1,24,-311,-242,-105,-366,-371
131849,210,201,85,-180,-239,353,197,142,-172,144,443,-156,422,-437,77,2,-363,-115,-29,53,-471,-37,-11,-173,-68,22,47,-310,-225,-71,-327,-332
131850,166,140,123,-156,-228,319,179,112,-171,136,437,-185,414,-428,84,-3,-369,-139,-37,47,-458,-40,-20,-170,-72,34,79,-338,-212,-54,-305,-257
131851,146,159,120,-190,-236,254,160,115,-182,109,419,-209,393,-461,70,-59,-367,-151,-51,15,-502,-55,-7,-193,-83,4,52,-350,-225,-75,-324,-321
131852,162,186,114,-179,-224,232,141,110,-187,95,415,-212,397,-457,74,-74,-378,-156,-44,29,-518,-31,34,-175,-69,6,2,-329,-205,-84,-373,-500
131853,145,211,52,-211,-217,257,112,76,-153,109,407,-231,395,-451,77,-68,-366,-185,-39,49,-504,-65,1,-171,-49,25,7,-307,-202,-85,-365,-474
131854,53,139,-22,-226,-269,224,52,3,-183,78,354,-274,366,-457,53,-114,-465,-200,-57,30,-542,-119,-117,-209,-83,14,-21,-431,-273,-131,-368,-502
131855,26,129,-13,-188,-244,206,86,51,-186,97,357,-299,389,-437,81,-42,-574,-181,-46,41,-502,-139,-128,-200,-47,35,-13,-498,-294,-130,-367,-523
131856,79,125,-22,-150,-213,226,126,41,-169,114,333,-489,402,-423,88,12,-464,-194,-41,81,-480,-106,-53,-183,2,61,40,-424,-230,-54,-300,-418
131857,103,136,-38,-134,-214,253,135,-158,-184,128,364,-327,359,-426,89,2,-348,-186,-40,77,-469,-117,-37,-164,7,91,66,-377,-164,0,-232,-346
131858,164,82,12,-161,-202,265,153,46,-180,144,426,-238,367,-423,131,-57,-315,-168,-21,97,-446,-170,-35,-123,16,122,77,-346,-147,12,-225,-346
131859,104,-118,32,-157,-197,288,101,121,-181,114,411,-211,355,-444,99,-107,-367,-200,-28,90,-490,-182,1,-149,14,72,45,-315,-147,-16,-285,-426
131860,98,-140,11,-190,-211,305,60,35,-193,112,388,-185,377,-443,106,18,-495,-158,-14,78,-489,-129,-1,-122,7,58,-11,-327,-166,-40,-332,-567
131861,119,-60,-2,-269,-256,239,32,-1,-220,107,348,-181,344,-460,91,-11,-485,-164,-33,59,-489,-140,-24,-105,-19,61,-23,-385,-162,-110,-362,-660
131862,180,76,24,-278,-240,244,66,-7,-208,117,371,-190,357,-435,94,-189,-447,-149,-27,85,-480,-134,-27,-97,5,74,3,-405,-160,-97,-360,-638
131863,213,151,75,-267,-235,275,126,0,-200,132,404,-182,368,-418,99,-245,-420,-154,-5,111,-464,-28,-33,-101,26,81,48,-330,-131,-66,-355,-584
