,Fp1,Fp2,F7,F3,Fz,F4,F8,FC5,FC1,FC2,FC6,T7,C3,Cz,C4,T8,TP9,CP5,CP1,CP2,CP6,TP10,P7,P3,Pz,P4,P8,PO9,O1,Oz,O2,PO10
91644,248,328,423,123,120,607,230,230,-15,-67,512,277,272,283,234,296,406,352,33,244,138,577,310,104,-6,312,587,428,498,261,232,382
91645,233,315,368,145,109,518,184,231,-27,-82,461,305,261,262,188,272,286,402,22,194,97,546,331,70,-62,256,530,393,425,183,154,330
91646,217,353,350,139,105,506,224,238,-6,-69,490,263,265,254,187,265,294,389,24,198,89,538,290,63,-90,250,519,363,389,151,110,324
91647,176,380,291,157,110,492,256,247,-7,-76,483,310,225,274,190,244,287,324,-2,192,71,501,246,35,-99,226,502,329,357,116,85,301
91648,185,366,247,160,123,508,243,258,-13,-75,479,374,222,281,187,241,270,324,-9,192,69,496,255,3,-116,205,481,312,310,73,61,284
91649,191,197,290,141,130,535,235,248,-4,-52,472,344,247,278,180,221,247,344,-7,179,50,463,247,14,-118,194,461,292,308,50,38,249
91650,152,165,275,136,134,566,240,188,-16,-43,459,302,226,295,186,210,246,313,-19,182,65,445,210,8,-112,213,454,286,285,67,39,190
91651,136,238,247,87,115,571,250,-28,-23,-60,488,272,204,276,180,231,259,290,-15,191,57,447,201,-16,-121,222,455,294,275,43,17,250
91652,178,276,275,87,99,500,232,70,-34,-76,473,278,190,259,162,214,210,282,-41,173,44,470,208,-23,-131,207,452,255,257,25,3,274
91653,220,310,354,87,118,487,234,315,-31,-96,470,289,211,265,157,206,232,296,-47,156,49,459,196,-31,-128,184,468,228,235,12,6,239
91654,172,300,334,100,103,467,224,233,-31,-99,465,305,223,270,157,214,240,295,-42,183,41,488,199,-26,-131,203,475,240,245,44,31,291
91655,144,323,310,163,95,496,165,169,-31,-95,473,293,194,252,152,225,201,281,-45,184,39,480,192,-34,-127,206,497,218,257,71,34,270
91656,156,287,245,151,110,517,141,195,-20,-94,474,265,184,258,151,214,179,276,-52,172,42,475,178,-37,-120,211,481,160,235,24,7,215
91657,153,238,257,118,94,550,141,209,-32,-76,406,275,179,272,185,227,179,282,-40,186,45,491,193,-6,-106,257,506,163,249,18,42,237
91658,216,265,347,94,118,535,199,147,-24,-71,449,305,217,283,191,237,203,309,-7,224,84,503,216,24,-48,266,539,191,287,54,56,244
91659,228,243,375,84,113,530,221,127,-23,-69,480,286,223,300,188,254,210,321,16,262,122,515,216,47,-29,290,559,241,330,99,80,271
91660,189,194,302,64,101,510,201,104,-27,-74,496,242,207,305,180,204,178,292,8,249,97,471,177,54,-21,285,517,222,309,95,102,241
91661,139,212,196,73,100,493,205,109,-31,-82,476,236,219,278,171,178,173,293,9,247,78,457,186,53,-11,290,507,232,299,119,111,245
91662,159,326,181,91,110,498,232,171,-13,-86,502,255,260,293,186,231,181,313,42,252,111,471,195,69,7,333,545,268,343,167,145,301
91663,133,317,134,74,103,468,208,166,-1,-91,507,221,230,290,193,306,136,270,13,250,119,409,161,45,-10,333,547,220,294,120,111,233
91664,86,227,146,164,106,467,193,132,-11,-78,494,219,197,279,198,420,134,254,17,259,127,355,164,37,-23,309,534,211,272,112,95,221
91665,134,224,223,156,105,465,219,131,-14,-68,481,173,199,284,207,381,134,269,30,260,130,370,148,49,7,305,515,173,281,126,90,220
91666,186,295,262,141,125,489,247,199,1,-30,526,142,235,309,238,243,138,328,38,275,169,422,172,80,48,355,520,153,322,138,134,242
91667,243,371,313,172,113,495,249,253,24,-39,529,158,249,307,238,-31,196,272,60,296,154,469,147,89,50,370,547,173,327,176,172,293
91668,212,333,322,166,99,503,237,262,16,-57,477,101,241,314,187,-22,221,252,61,288,82,498,141,95,53,358,540,171,311,158,165,297
91669,167,323,306,166,107,535,248,195,7,-50,477,28,274,331,202,210,175,326,94,305,118,494,203,133,82,378,564,224,345,198,221,304
91670,189,296,274,115,91,553,231,161,12,-69,463,148,262,323,184,170,137,332,82,291,108,429,228,134,73,376,543,198,336,220,211,299
91671,202,293,273,78,98,541,216,12,-7,-61,445,271,241,323,189,140,142,301,88,295,97,411,181,98,66,368,559,181,339,188,172,298
91672,198,188,320,57,87,499,136,-101,-33,-78,396,216,210,293,164,114,173,263,72,277,89,443,128,78,52,339,566,193,305,196,165,308
91673,216,119,376,145,115,483,121,253,15,-82,373,244,267,314,165,96,145,335,89,296,98,521,175,129,79,371,628,215,359,223,191,343
91674,219,216,373,161,125,471,157,231,11,-87,404,266,283,310,174,91,176,328,94,299,104,509,161,126,72,374,628,170,347,215,170,324
91675,225,291,352,154,134,470,164,193,1,-74,412,283,289,305,184,102,132,292,87,306,134,461,158,131,88,391,638,165,337,210,185,278
91676,167,325,352,164,106,471,122,215,7,-84,392,301,293,307,165,81,147,326,95,309,110,430,193,130,92,358,596,193,344,203,166,286
91677,178,330,375,160,108,470,127,200,29,-57,379,300,295,341,161,69,162,316,95,290,88,483,210,132,85,350,524,224,362,214,185,330
91678,195,292,362,131,126,498,141,162,19,-63,413,283,277,338,185,94,151,291,92,292,109,497,186,113,90,355,547,218,348,231,204,355
91679,203,262,343,113,116,514,130,154,17,-94,394,240,271,338,179,112,137,255,73,292,103,493,146,83,75,356,533,206,332,231,222,377
91680,207,247,353,118,106,539,152,174,24,-65,388,248,272,338,189,122,150,245,85,307,89,509,156,92,96,350,556,241,349,238,251,344
91681,198,232,350,116,123,538,126,168,-4,-68,385,240,264,338,184,138,161,283,88,307,94,496,160,109,93,345,549,262,379,230,238,275
91682,208,269,326,128,128,506,133,144,-14,-82,427,207,252,325,177,156,164,270,82,288,97,506,159,111,80,373,526,226,398,254,250,344
91683,247,334,306,112,123,481,206,120,-15,-85,460,216,252,312,174,175,182,274,73,288,101,513,179,104,75,361,555,224,405,273,248,377
91684,302,399,344,147,148,510,269,167,1,-57,509,219,271,311,207,213,218,292,87,306,132,551,198,137,113,385,622,276,445,299,292,411
91685,217,441,369,211,157,554,297,210,31,-21,517,200,286,298,243,253,231,302,109,320,178,597,249,177,124,427,674,303,479,347,356,474
91686,77,381,305,231,149,563,316,162,13,-56,496,207,255,286,214,231,233,306,103,318,151,568,256,162,101,416,658,313,485,358,346,456
91687,55,321,170,210,156,546,318,235,35,-58,536,181,277,282,215,204,260,326,77,297,147,544,231,161,92,397,634,318,470,335,311,371
91688,118,330,108,218,153,554,311,297,26,-58,526,173,269,283,218,202,250,289,63,292,172,531,188,149,99,381,630,296,439,316,305,410
91689,230,403,143,198,160,566,302,242,1,-78,522,191,227,265,182,181,192,258,57,284,132,514,160,111,74,363,648,237,413,299,277,411
91690,285,376,241,153,163,590,279,215,1,-73,506,227,229,286,174,195,145,285,44,266,96,488,181,104,64,343,612,231,402,266,257,395
91691,303,371,269,136,155,626,265,205,-5,-53,482,240,230,273,170,225,127,270,44,256,92,476,171,111,61,340,594,230,406,257,251,411
91692,281,416,284,130,168,624,283,169,-1,-41,490,225,238,278,169,228,120,269,46,263,92,520,174,125,72,356,573,250,429,273,253,397
91693,288,432,225,147,183,622,302,188,3,-32,484,206,245,306,174,200,135,281,65,254,80,523,171,117,80,349,576,258,416,266,224,397
91694,253,445,287,167,150,597,280,180,-6,-46,464,197,226,300,153,166,133,257,38,240,37,473,140,93,58,293,534,225,381,230,174,363
91695,266,415,357,182,148,578,254,201,0,-69,472,198,229,285,138,181,169,286,42,248,46,447,161,92,35,294,527,231,377,228,176,336
91696,230,341,325,167,141,573,253,139,-6,-76,476,147,231,264,138,188,222,256,15,226,62,465,126,72,16,289,536,247,361,220,163,336
91697,232,256,313,131,142,602,271,48,-20,-68,492,184,204,259,138,255,233,249,10,224,60,451,152,66,6,274,526,259,358,204,146,332
91698,245,265,319,153,162,598,314,296,5,-69,500,168,240,292,163,318,222,249,37,228,57,455,180,67,23,285,517,253,381,225,165,371
91699,237,361,346,157,153,583,289,245,18,-41,511,235,243,304,179,280,250,266,30,251,88,495,169,75,41,302,536,269,377,247,170,389
91700,230,398,329,143,132,555,270,160,-9,-62,470,229,218,303,171,104,251,225,21,238,68,451,154,61,34,295,516,246,375,237,167,333
91701,243,388,330,142,142,556,248,160,-9,-82,449,235,216,297,131,-53,190,244,8,223,16,438,194,42,10,256,483,256,357,205,155,257
91702,266,379,358,148,175,583,263,131,10,-69,459,248,218,288,131,79,209,269,6,217,-7,468,202,32,-18,254,483,255,366,213,172,320
91703,244,353,359,121,150,543,249,125,-7,-86,449,258,205,280,119,126,222,263,-4,190,0,457,198,27,-31,240,470,194,365,216,154,333
91704,228,359,359,149,144,550,264,131,-15,-85,440,237,203,301,117,139,181,258,-6,199,19,490,232,58,-13,253,494,226,363,212,163,285
91705,215,435,334,160,151,571,286,200,27,-74,458,259,228,318,133,168,209,299,21,224,57,511,234,81,8,283,540,268,404,267,203,328
91706,207,450,342,168,146,535,246,244,7,-79,428,286,242,283,117,139,237,292,26,205,38,464,221,87,-21,270,531,231,394,230,168,297
91707,205,397,359,161,132,508,202,207,19,-86,409,276,252,278,114,130,282,311,29,200,30,482,221,100,-5,263,520,276,402,236,204,328
91708,236,334,394,202,139,516,219,214,39,-71,415,261,278,307,127,132,341,328,55,217,44,493,195,124,27,306,539,335,434,283,229,371
91709,201,303,375,230,143,530,215,222,53,-80,415,235,283,295,118,110,329,309,45,235,44,462,197,116,33,319,542,325,431,291,241,361
91710,221,314,331,208,146,527,181,232,39,-76,410,251,272,290,123,93,260,303,62,227,41,451,242,113,38,305,514,289,418,249,217,304
91711,264,326,318,190,131,521,220,249,32,-79,416,291,280,297,125,108,247,340,77,237,38,441,287,128,35,298,498,286,427,243,199,326
91712,255,312,339,181,126,548,256,247,39,-80,417,303,278,300,133,138,235,338,73,251,47,436,259,138,35,289,550,271,413,261,192,360
91713,226,243,356,199,142,556,239,239,26,-70,399,278,291,310,150,143,220,323,66,253,55,482,211,121,42,301,564,274,402,250,198,377
91714,250,283,304,195,127,497,229,228,24,-79,384,251,282,322,154,107,239,301,67,263,55,517,173,96,42,289,562,235,365,220,192,383
91715,259,382,301,189,132,484,241,210,25,-68,380,225,282,338,157,88,260,289,87,266,51,498,175,95,62,301,559,279,382,234,193,390
91716,225,360,281,184,119,481,191,164,10,-73,364,196,250,330,132,67,173,247,70,246,26,452,137,87,42,270,516,226,344,219,160,350
91717,206,315,274,179,112,449,140,180,2,-102,338,175,221,320,103,22,133,222,39,219,-1,417,118,62,15,252,491,195,279,185,126,314
91718,220,323,274,189,126,454,132,175,15,-102,335,174,215,322,85,9,130,218,39,224,-12,414,100,39,6,246,497,169,253,138,100,298
91719,246,348,283,122,119,486,137,154,-2,-101,332,149,203,310,90,0,136,190,38,207,-15,437,83,30,3,242,524,158,220,123,78,266
91720,261,314,311,110,115,479,100,135,5,-106,328,137,190,296,82,26,130,195,25,197,-31,407,98,35,-3,223,502,177,229,116,67,244
91721,260,271,328,126,134,471,45,146,3,-104,340,165,208,295,90,26,169,203,29,209,-10,423,116,53,2,231,522,195,251,111,86,284
91722,255,274,297,111,146,456,73,185,6,-101,351,182,215,289,100,44,203,234,38,217,8,437,124,66,16,253,529,204,262,120,111,311
91723,244,334,264,122,153,467,141,237,27,-82,370,192,229,291,95,75,187,245,44,218,14,452,160,74,4,247,516,227,277,145,122,344
91724,253,378,260,144,134,476,173,264,35,-86,371,178,226,277,87,64,156,219,27,187,1,442,150,58,-17,221,497,214,265,122,59,274
91725,263,326,254,183,132,469,178,291,40,-114,361,158,240,275,70,71,150,229,10,171,-33,355,141,30,-36,188,447,211,263,121,31,218
91726,212,261,214,180,125,483,173,281,41,-121,337,143,251,280,82,56,108,225,12,174,-47,377,117,28,-44,182,409,204,259,84,23,219
91727,187,316,221,150,120,470,200,178,19,-118,351,124,229,272,75,79,73,198,22,176,-31,388,91,37,-34,188,423,139,241,88,32,217
91728,170,359,222,121,94,451,190,132,-1,-124,361,106,198,287,82,86,94,195,25,188,-31,404,110,43,-24,193,459,153,259,116,55,264
91729,221,381,318,124,108,483,224,129,31,-100,390,133,215,319,97,86,133,219,43,200,-7,450,106,44,-16,202,451,158,233,68,1,234
91730,237,384,379,140,121,498,260,133,14,-101,417,131,229,309,105,111,158,204,19,203,0,470,87,18,-26,203,448,166,232,68,-4,214
91731,207,366,338,151,105,486,268,108,-2,-114,420,116,226,286,123,120,176,194,11,193,18,463,91,7,-55,203,468,191,238,79,26,217
91732,229,376,349,80,124,467,240,63,-7,-98,423,123,222,314,128,121,164,249,47,202,20,415,140,30,-35,222,425,232,256,106,26,201
91733,154,334,255,80,126,470,241,89,2,-98,423,95,234,311,112,104,159,261,24,199,-14,392,155,40,-48,197,382,197,275,107,53,246
91734,162,346,236,111,124,471,240,109,2,-100,437,60,219,311,129,119,185,220,19,194,23,432,157,64,-34,207,400,141,298,106,50,288
91735,202,374,257,129,127,504,260,114,25,-70,477,144,246,325,143,127,234,284,67,210,31,434,228,100,-5,246,400,210,333,142,55,237
91736,156,295,156,121,102,509,232,110,17,-99,457,83,231,305,130,111,248,269,47,208,-5,392,209,90,-11,221,370,195,283,110,39,256
91737,129,241,133,106,109,516,199,151,19,-110,420,57,243,301,119,98,221,223,22,202,-26,390,179,55,-24,183,332,146,221,60,4,215
91738,122,207,106,95,104,491,146,50,23,-115,356,139,245,296,103,132,134,275,37,167,-58,334,217,60,-49,154,261,117,175,1,-40,115
91739,100,203,140,77,96,460,124,-121,4,-115,363,116,213,292,78,126,151,246,25,152,-99,325,186,55,-55,125,241,118,155,0,-70,83
91740,75,167,159,98,80,441,75,119,11,-143,369,61,189,285,54,21,139,147,-3,125,-125,266,66,-12,-72,102,219,66,113,-33,-112,30
91741,97,204,210,74,86,450,90,182,6,-130,392,64,199,298,80,-54,123,186,9,149,-99,295,73,-11,-84,96,228,98,120,-49,-84,65
91742,136,225,185,86,98,450,124,190,8,-116,365,50,211,279,73,-176,89,225,16,160,-108,301,69,-2,-83,103,267,92,125,-44,-97,80
91743,124,234,143,107,101,437,153,196,19,-132,329,24,244,286,39,-34,65,225,20,142,-120,263,56,0,-74,100,231,65,118,-56,-112,64
91744,100,219,82,105,91,416,177,165,0,-148,316,-73,212,279,43,41,103,172,7,140,-118,250,53,8,-79,94,234,67,103,-33,-119,56
91745,31,143,73,106,94,419,118,113,2,-116,284,81,184,287,52,-34,129,165,-2,155,-104,268,73,1,-91,96,258,97,121,-36,-103,101
91746,32,101,121,124,104,416,73,72,2,-127,308,143,203,295,54,-46,122,199,18,159,-114,286,102,1,-89,97,249,119,139,-42,-83,100
91747,1,122,91,87,68,405,72,97,0,-118,316,166,201,288,46,-53,12,237,16,146,-145,288,123,7,-86,79,228,87,140,-48,-112,55
91748,-39,67,41,86,63,384,31,167,-23,-144,293,148,200,284,19,-48,24,219,19,135,-170,274,132,-9,-97,80,218,70,125,-60,-109,72
91749,25,77,82,62,71,404,41,153,-13,-151,298,151,222,316,43,-2,74,217,17,157,-149,227,125,15,-80,89,216,101,146,-34,-83,111
91750,60,210,117,42,87,447,92,60,10,-112,309,134,230,359,87,-18,93,211,29,180,-114,247,85,20,-51,100,239,60,121,-44,-113,59
91751,51,258,111,15,81,433,67,21,-23,-105,298,82,165,347,60,-45,8,161,1,164,-130,221,-17,-47,-85,85,220,-18,38,-109,-155,-14
91752,21,249,83,-2,71,420,-2,-38,-56,-123,269,51,144,327,48,-57,-30,148,-12,138,-133,235,-33,-62,-105,95,220,-24,38,-128,-138,17
91753,-2,132,60,-41,46,422,-76,-60,-70,-150,214,26,130,311,49,-85,-30,108,-41,129,-142,218,-68,-85,-102,75,206,-6,52,-143,-130,49
91754,14,85,64,3,56,428,-30,-76,-31,-104,290,35,117,326,83,-42,-20,114,-38,155,-108,212,-67,-56,-86,107,250,40,92,-81,-98,81
91755,56,149,86,21,63,439,6,-39,-24,-111,350,56,120,315,103,-9,-13,135,-33,159,-81,211,-10,-32,-85,132,304,13,114,-57,-58,128
91756,79,194,114,-8,86,452,58,16,-38,-90,366,77,133,309,115,-6,18,146,-18,184,-56,210,5,-30,-63,166,314,23,144,-24,-51,102
91757,102,258,160,-19,71,439,73,43,-49,-89,340,66,127,311,108,-21,27,137,-27,191,-42,245,-7,-21,-61,171,336,38,138,-13,-52,53
91758,63,233,162,-30,54,430,26,7,-60,-119,314,37,118,284,102,-15,22,124,-40,198,-44,257,0,-19,-49,176,325,32,137,16,-15,71
91759,106,230,124,-31,69,438,84,0,-50,-123,338,30,133,317,116,70,55,172,-19,214,-13,279,66,0,-31,199,339,11,182,50,40,188
91760,126,204,113,1,71,404,88,-13,-42,-113,322,51,145,327,112,167,82,181,-11,208,4,277,70,9,-24,207,345,30,195,32,19,153
91761,53,167,80,57,83,402,56,29,-16,-117,317,-9,166,340,95,154,99,186,-12,204,-33,294,81,34,-14,189,275,87,203,65,9,94
91762,22,187,28,69,91,383,79,48,-31,-148,323,35,153,310,89,26,87,199,-1,197,-16,289,88,41,-9,180,307,53,200,29,0,187
91763,124,214,47,84,96,401,109,73,-27,-139,349,64,150,310,96,-204,71,205,3,207,-39,312,127,40,-6,191,340,13,198,47,16,228
91764,179,223,107,61,109,391,115,116,-21,-135,333,76,147,310,79,-210,123,169,-19,192,-71,381,91,31,-22,179,354,48,206,51,19,236
91765,143,235,117,81,95,415,121,-61,-29,-129,338,47,130,315,77,-39,147,200,15,194,-68,377,81,43,6,186,362,130,241,55,18,223
91766,59,187,40,138,62,423,79,190,-12,-138,308,-2,150,315,66,-57,86,206,-8,178,-67,326,67,35,-15,173,371,124,229,46,-15,196
91767,-52,139,49,192,69,391,26,312,-11,-136,284,25,159,327,71,-61,68,128,-16,177,-47,357,19,-1,-50,176,381,106,233,50,17,245
91768,-39,117,71,144,71,426,10,98,-31,-119,281,54,146,324,91,-7,78,122,-10,195,-17,384,-3,11,-31,205,388,92,233,56,32,301
91769,61,136,119,45,80,473,35,75,-24,-103,266,96,144,326,105,30,101,144,-2,214,-38,343,50,38,-24,206,332,150,265,82,16,175
91770,98,194,142,-18,82,485,40,20,-31,-99,318,90,152,348,110,45,63,176,-2,207,-36,327,60,47,-21,189,307,116,250,62,-23,67
91771,153,227,181,-4,86,465,47,-23,-62,-94,328,77,119,338,105,41,29,164,-17,213,-47,296,56,28,-32,161,282,67,212,35,-46,12
91772,197,266,197,16,81,475,137,-28,-40,-66,336,74,96,323,98,41,21,134,-33,198,-46,306,76,-4,-37,175,288,14,195,36,-53,77
91773,202,258,195,7,78,472,143,-10,-63,-88,315,67,87,308,106,80,43,131,-49,202,-31,366,60,-30,-27,184,330,50,208,54,-4,141
91774,188,301,205,-12,114,434,106,43,-53,-79,350,115,112,335,128,138,98,186,-12,218,5,421,118,6,9,208,350,134,249,71,12,130
91775,200,297,257,-11,95,445,87,11,-40,-104,395,95,130,329,137,178,121,187,-2,229,18,464,143,41,18,234,374,167,287,118,28,174
91776,225,370,268,49,101,477,141,97,-22,-96,423,119,166,341,126,190,129,186,9,250,38,481,114,40,17,233,374,218,295,139,49,167
91777,221,384,204,75,95,490,186,168,-29,-88,415,117,156,339,109,167,126,187,5,234,26,452,80,23,10,226,340,264,314,131,32,113
91778,202,330,191,70,109,476,187,116,-42,-101,418,95,145,332,93,165,136,203,-10,235,6,452,64,13,3,224,354,255,329,159,59,192
91779,212,290,213,135,114,458,173,81,-22,-96,394,114,144,319,106,189,235,207,13,230,7,451,49,16,5,239,394,195,303,142,91,248
91780,250,184,268,108,121,466,178,91,-19,-97,383,58,134,305,90,167,276,137,-10,199,-8,451,13,-5,-20,215,370,166,284,119,62,188
91781,204,163,283,89,124,469,199,110,-14,-103,412,84,142,321,80,147,85,195,-11,203,1,449,68,1,-14,209,368,196,292,135,85,205
91782,201,248,342,57,106,463,165,58,-31,-112,436,-14,144,327,78,159,66,188,4,205,-2,497,91,4,-11,209,383,211,286,147,100,262
91783,190,316,302,40,103,457,199,82,-39,-118,464,106,114,312,92,174,141,140,-5,183,-18,479,55,-21,-38,195,352,189,262,121,94,238
91784,132,229,269,51,97,401,176,96,-25,-146,430,146,131,316,86,150,134,169,-13,182,-16,458,65,-19,-42,206,388,201,282,156,107,343
91785,120,241,247,80,105,468,207,126,-2,-107,420,122,152,339,123,235,152,160,-9,219,13,440,86,2,-3,206,386,191,276,139,74,247
91786,149,204,209,110,122,514,258,155,0,-71,427,120,128,334,107,253,186,123,-18,197,3,387,49,-12,-24,198,322,157,240,99,15,29
91787,175,89,205,112,125,457,163,162,-4,-91,398,129,142,290,78,150,96,144,-29,187,-3,349,73,-12,-46,196,327,116,238,88,12,84
91788,146,193,244,105,128,473,79,173,-8,-105,415,64,143,282,97,26,59,174,-37,183,6,323,91,-11,-38,192,333,134,238,96,41,164
91789,145,308,283,116,125,480,105,150,-9,-100,405,102,136,274,65,-84,29,187,-50,169,-37,329,99,-13,-56,172,316,75,207,72,5,111
91790,198,315,275,103,134,475,126,167,4,-103,378,85,169,289,67,98,68,208,-16,172,-20,289,205,12,-39,199,346,88,235,91,26,110
91791,201,291,231,88,131,453,134,163,1,-117,350,151,198,289,83,164,115,197,-29,179,-7,332,160,-4,-51,184,355,122,231,97,27,156
91792,188,335,195,102,120,410,125,187,-3,-131,317,184,178,289,72,125,77,201,-41,148,-43,296,102,-25,-86,156,299,72,211,57,-20,116
91793,224,335,136,38,118,413,98,81,-15,-114,364,249,157,263,62,89,106,208,-35,145,-43,366,103,-34,-89,138,329,98,218,104,15,228
