,Fp1,Fp2,F7,F3,Fz,F4,F8,FC5,FC1,FC2,FC6,T7,C3,Cz,C4,T8,TP9,CP5,CP1,CP2,CP6,TP10,P7,P3,Pz,P4,P8,PO9,O1,Oz,O2,PO10
23854,-216,114,406,106,309,425,260,367,116,32,307,84,573,47,84,105,509,-21,52,189,43,306,302,394,337,283,375,-149,280,140,31,25
23855,-190,142,452,120,334,432,289,395,128,34,344,113,572,89,109,160,533,20,57,209,67,274,331,421,354,295,368,-127,307,171,63,80
23856,-172,176,487,135,343,435,319,409,126,37,346,142,571,68,117,174,578,52,68,227,88,273,355,445,367,304,379,-101,355,184,110,89
23857,-148,185,479,138,335,428,271,412,121,33,320,182,596,79,111,170,615,64,81,242,95,270,388,470,375,324,389,-74,362,207,122,106
23858,-147,216,467,142,328,447,325,414,140,48,354,197,610,94,129,223,605,61,127,241,105,309,395,470,396,353,405,-65,363,231,137,124
23859,-171,220,507,151,319,457,361,434,139,46,386,221,620,93,140,169,606,82,130,266,105,343,401,482,414,386,440,-29,400,247,156,160
23860,-147,215,513,140,324,446,345,442,117,42,390,216,614,99,160,71,643,98,106,273,130,349,408,488,410,367,440,-25,396,247,162,168
23861,-118,230,514,164,320,477,409,456,139,52,419,224,625,108,176,189,683,109,117,295,196,329,421,502,430,402,446,-21,434,272,204,191
23862,-104,237,563,166,308,488,407,477,149,57,417,249,638,112,171,283,687,135,150,301,203,365,424,527,443,425,461,-7,455,295,222,179
23863,-113,220,563,187,297,464,367,501,141,35,412,282,649,99,161,257,642,134,161,314,176,381,461,540,450,428,453,41,488,344,256,218
23864,-93,232,605,213,302,477,437,532,153,51,442,325,680,114,184,272,654,168,178,337,209,401,506,575,468,461,492,79,540,378,293,239
23865,-91,221,604,190,299,487,468,530,163,60,453,306,676,128,191,275,681,175,184,323,210,461,492,586,490,476,575,80,542,406,304,269
23866,-101,242,593,188,320,497,454,523,165,43,436,313,696,134,172,258,748,189,190,316,207,486,519,581,477,474,584,119,545,411,335,286
23867,-116,223,579,181,323,490,453,495,165,22,424,274,684,115,163,286,765,164,176,299,218,451,511,550,457,469,570,108,538,397,310,275
23868,-88,238,618,183,348,487,431,514,174,16,427,299,669,125,156,297,776,182,164,311,198,410,496,554,468,476,572,111,553,397,306,283
23869,-89,213,624,184,320,456,444,531,163,21,407,319,673,122,145,218,773,171,159,299,172,427,497,561,458,442,524,116,538,376,296,244
23870,-67,252,621,180,303,471,476,536,157,28,419,332,682,104,145,4,793,198,160,292,176,425,503,559,458,443,522,102,552,383,314,255
23871,-56,257,648,193,309,472,453,542,161,41,426,322,674,101,171,-5,777,208,165,289,196,424,522,576,453,468,518,128,549,408,316,296
23872,-92,230,626,180,297,453,447,527,140,32,400,320,683,79,171,198,779,194,147,283,214,435,528,555,443,454,519,119,543,413,304,314
23873,-59,253,631,180,300,446,477,530,141,33,407,322,661,72,164,367,771,173,128,273,208,414,510,539,435,453,540,83,528,382,298,264
23874,-59,275,621,179,309,451,505,527,151,29,439,335,677,89,184,393,792,188,135,307,245,471,537,561,462,489,573,118,555,408,326,301
23875,-84,254,589,175,307,494,526,510,147,26,455,314,667,72,189,370,775,173,135,301,256,487,522,555,467,472,601,128,570,417,336,355
23876,-66,268,606,173,328,485,488,509,128,29,423,290,652,59,173,279,782,151,134,287,238,439,498,537,448,456,617,121,552,426,336,318
23877,-73,305,604,184,341,492,482,491,140,53,440,276,662,54,168,117,761,165,115,292,233,508,492,532,440,453,586,99,542,416,318,331
23878,-84,312,632,193,333,522,485,509,150,57,449,286,661,57,182,140,771,161,105,290,180,492,497,522,444,448,539,97,549,397,311,352
23879,-97,278,623,188,330,538,462,499,141,64,440,301,639,58,189,334,793,137,103,295,209,424,494,520,441,472,565,128,565,411,312,375
23880,-84,284,606,209,350,551,492,505,146,69,475,293,652,63,208,337,770,152,127,312,225,320,485,536,455,495,590,137,555,416,315,364
23881,-92,251,593,195,340,516,456,484,144,47,445,292,655,55,190,320,755,136,117,301,218,211,484,535,447,474,507,120,530,391,282,251
23882,-135,248,597,192,350,515,403,491,143,50,408,286,651,49,177,313,740,121,106,301,179,222,463,510,439,460,495,79,509,366,254,179
23883,-142,259,609,213,358,510,410,499,145,63,396,284,656,71,174,300,655,126,129,311,191,466,428,508,438,466,527,80,512,360,263,213
23884,-120,239,596,197,342,515,415,489,155,56,394,290,650,72,167,194,623,110,121,303,167,475,434,509,413,471,526,66,470,331,285,223
23885,-84,269,601,218,380,533,440,489,170,62,408,264,669,64,167,109,625,118,108,296,139,378,410,493,413,440,495,26,468,320,232,212
23886,-98,230,586,196,398,524,380,487,164,53,395,265,635,51,153,173,645,84,95,270,154,356,389,466,381,417,457,-3,452,294,214,162
23887,-117,224,610,196,394,535,361,483,158,42,376,262,622,20,124,214,682,97,79,237,133,293,396,460,343,381,425,33,453,287,191,132
23888,-128,244,589,205,384,535,387,460,140,45,399,225,618,21,114,222,629,80,67,225,125,311,377,449,345,358,397,16,452,270,169,158
23889,-123,247,560,185,388,557,415,439,141,42,405,170,597,21,104,211,569,33,34,209,114,320,324,417,319,353,370,-66,367,210,128,125
23890,-146,239,528,165,392,555,409,419,132,50,379,165,580,13,104,187,567,36,41,193,99,280,305,387,312,338,382,-82,341,199,121,90
23891,-126,210,533,192,390,528,328,433,140,62,362,194,597,41,105,110,600,41,52,199,83,228,321,413,305,328,389,-96,357,210,121,99
23892,-164,180,529,177,373,529,323,413,130,42,377,148,581,25,91,113,570,21,20,178,70,230,329,384,288,320,389,-121,335,162,99,117
23893,-155,199,546,167,363,555,340,440,137,81,383,157,577,12,102,126,556,10,15,181,96,272,325,370,288,348,445,-153,319,161,102,114
23894,-134,233,518,163,392,580,348,428,145,76,406,168,581,18,114,80,565,6,25,183,90,249,312,373,286,345,461,-144,307,186,110,118
23895,-172,225,476,142,374,563,316,383,117,75,363,125,566,-14,97,-82,544,-9,3,166,71,167,266,345,256,302,391,-178,262,152,77,70
23896,-173,251,463,131,383,572,333,370,117,84,373,106,556,5,124,-95,546,-33,0,164,69,179,247,323,254,297,349,-174,249,99,40,12
23897,-173,228,453,131,402,563,295,349,119,68,365,74,521,3,87,17,503,-69,-25,150,34,170,201,287,219,265,293,-218,198,49,7,-42
23898,-154,232,460,156,393,553,279,348,131,84,339,60,535,-2,85,54,436,-97,-36,137,18,123,168,269,221,237,249,-208,194,48,-1,-13
23899,-181,230,418,135,396,560,280,324,120,86,319,19,512,-8,76,-163,417,-120,-62,112,-18,77,164,243,195,207,226,-195,175,18,-46,-74
23900,-180,210,423,137,402,566,241,315,100,87,295,7,517,-11,61,-208,412,-122,-59,117,-24,90,163,243,194,227,248,-166,179,26,-40,-94
23901,-186,213,409,112,388,584,276,303,106,91,290,14,505,5,86,61,363,-118,-35,134,24,93,156,263,215,242,265,-178,214,63,-31,-60
23902,-194,212,394,114,399,579,262,301,130,101,287,7,518,-15,91,-37,345,-120,-22,136,21,56,153,292,197,228,243,-218,207,61,-31,-57
23903,-214,180,384,104,396,547,238,292,111,92,279,10,509,-15,69,-113,327,-147,-31,140,14,52,122,276,205,203,175,-228,183,41,-53,-101
23904,-195,190,404,136,395,541,263,300,124,101,276,14,524,-8,82,-28,273,-139,-36,125,-28,71,95,269,197,189,137,-277,161,18,-100,-134
23905,-188,200,442,157,409,506,247,316,144,96,274,26,527,-29,63,-69,298,-125,-39,120,-86,73,96,260,191,178,111,-392,143,-3,-102,-125
23906,-198,190,414,145,409,545,234,324,129,76,281,13,533,-21,72,-182,348,-122,-24,128,-56,52,140,278,210,191,138,-316,175,11,-75,-90
23907,-234,169,404,146,406,539,222,307,98,76,286,13,546,-21,100,-184,380,-116,-15,137,-49,-84,163,296,213,218,116,-171,244,44,-75,-151
23908,-227,180,408,152,390,527,240,287,113,73,301,-10,495,-13,96,29,352,-136,-45,135,-19,-157,123,272,209,212,129,-267,205,23,-76,-142
23909,-163,201,454,172,406,540,289,325,129,91,306,15,512,24,88,49,353,-131,-38,156,5,-14,129,267,216,210,175,-292,170,19,-80,-98
23910,-168,174,462,181,424,540,243,363,141,81,318,42,538,23,108,-52,398,-116,-11,173,21,250,162,294,230,252,227,-237,217,46,-45,-24
23911,-172,159,486,181,422,528,223,352,138,74,320,35,526,10,101,-24,391,-123,-23,164,6,175,114,290,231,229,217,-323,189,43,-67,-72
23912,-199,157,456,153,394,534,268,344,129,82,328,57,529,13,110,49,417,-124,-17,145,-1,102,113,289,217,227,193,-319,179,17,-70,-85
23913,-184,163,459,161,401,553,275,346,138,90,319,41,528,18,78,101,390,-139,-9,145,11,152,99,272,227,232,228,-400,167,10,-68,-31
23914,-169,180,461,159,407,544,265,341,131,83,327,32,531,24,87,105,375,-124,-36,154,9,178,106,266,223,229,226,-411,156,21,-42,2
23915,-163,197,464,143,386,528,267,319,108,57,328,33,509,-18,63,104,365,-162,-60,119,-27,177,93,252,188,209,226,-387,154,-13,-65,-15
23916,-143,235,495,173,388,549,293,350,121,80,330,53,516,6,78,139,426,-137,-35,131,-6,204,133,274,201,206,263,-317,170,0,-45,-3
23917,-152,248,515,179,383,572,337,357,131,85,339,79,524,24,88,154,486,-115,-30,144,42,221,161,272,215,220,296,-247,210,39,-1,21
23918,-110,267,566,193,399,587,365,386,138,85,369,115,558,19,127,105,478,-93,-25,171,87,226,186,293,231,253,335,-206,255,82,23,40
23919,-81,269,592,178,403,573,347,396,152,77,374,160,570,34,115,-45,483,-75,-22,164,100,181,227,309,232,277,315,-146,259,109,24,29
23920,-119,243,555,169,379,549,350,382,129,78,371,139,563,27,115,-20,497,-66,-16,164,113,231,216,316,228,280,325,-184,252,85,41,44
23921,-115,226,549,158,363,541,376,370,115,66,373,125,559,30,117,150,571,-55,-10,174,147,244,278,343,238,314,361,-81,313,142,115,109
23922,-124,227,573,184,383,541,391,416,132,75,374,175,585,36,123,228,672,-7,18,188,153,263,342,375,265,332,398,3,379,203,145,151
23923,-90,258,608,224,386,551,436,442,132,77,388,217,593,39,133,237,659,9,25,188,167,300,352,386,285,341,469,-8,379,214,158,178
23924,-69,264,590,209,384,533,418,461,154,58,381,227,610,44,127,243,677,21,34,207,213,352,391,422,312,379,526,61,430,259,211,217
23925,-65,251,602,217,384,525,397,438,153,44,391,236,609,42,143,51,717,33,30,222,223,401,374,410,326,372,545,34,449,290,264,267
23926,-78,226,616,191,369,515,404,450,124,39,390,231,598,33,139,34,732,23,11,205,226,403,381,402,301,372,549,-6,445,291,234,233
23927,-50,265,652,203,379,524,469,469,150,65,435,259,603,53,152,326,763,45,34,219,258,422,414,442,319,402,517,49,474,298,211,243
23928,-36,286,653,204,377,529,486,480,143,55,435,266,604,60,169,304,741,42,24,229,264,446,427,446,300,384,505,44,465,295,220,283
23929,-36,288,623,173,366,514,495,439,135,54,432,267,594,51,174,266,744,50,20,226,260,504,426,435,282,401,535,71,457,316,215,306
23930,-40,313,637,167,351,517,491,431,121,50,444,280,583,41,169,401,796,63,33,228,240,502,444,449,304,399,564,53,459,320,233,358
23931,-20,307,679,200,356,518,484,479,147,56,434,330,613,47,181,474,869,75,30,238,241,481,462,447,330,407,645,86,493,345,260,356
23932,-38,299,671,196,349,519,492,455,137,42,440,288,588,25,181,441,780,52,7,212,261,482,443,437,309,400,662,99,465,309,254,293
23933,-40,315,679,217,358,528,524,477,142,54,465,303,599,55,191,428,838,99,35,221,265,525,470,462,331,416,633,130,491,339,273,366
23934,-12,333,685,225,393,548,527,500,152,57,476,327,627,61,207,412,850,117,68,229,270,523,480,475,337,417,593,162,530,345,295,401
23935,-43,312,666,213,384,538,511,467,136,32,453,296,615,37,172,374,784,83,54,210,228,513,449,454,322,398,503,167,504,333,265,317
23936,-46,307,675,239,389,545,496,492,149,63,445,309,637,59,160,252,766,96,77,219,202,464,475,479,341,393,485,184,512,350,274,262
23937,-108,288,652,224,370,542,467,498,150,59,436,299,631,70,166,153,721,86,62,226,190,394,455,476,338,377,489,101,480,331,262,250
23938,-106,241,658,199,353,495,407,481,134,21,389,307,611,50,143,173,733,91,28,217,152,344,446,447,334,360,456,90,465,317,223,148
23939,-100,266,643,205,367,484,480,465,122,28,422,301,596,64,130,248,686,69,12,219,174,357,396,426,332,356,452,10,409,295,227,163
23940,-94,274,646,195,369,538,481,476,130,52,435,271,613,66,152,150,692,63,27,225,192,246,394,451,341,403,455,38,440,309,239,225
23941,-72,266,624,203,372,538,451,461,98,38,444,245,599,42,168,-22,719,61,41,215,188,160,380,450,343,393,435,17,440,314,223,184
23942,-80,249,626,222,377,557,446,473,128,49,439,263,607,57,156,88,772,93,74,259,208,237,420,489,386,410,477,75,488,360,300,234
23943,-79,213,619,212,357,528,370,487,134,35,388,274,632,67,134,249,780,78,88,254,189,466,457,502,404,419,502,126,510,381,325,286
23944,-117,229,620,203,356,528,411,453,131,47,397,251,626,57,135,288,727,60,80,236,142,445,395,487,395,410,488,7,448,353,291,270
23945,-154,230,587,175,346,514,413,431,128,24,355,219,592,47,101,106,717,48,70,237,126,400,342,468,378,409,480,-34,431,327,258,285
23946,-157,212,554,157,349,491,375,415,121,18,366,241,604,72,109,18,729,68,78,235,154,414,365,480,411,432,530,21,460,347,280,292
23947,-170,206,569,164,347,504,409,433,141,46,394,252,624,93,110,366,695,80,84,264,158,384,391,491,435,442,529,53,490,367,302,255
23948,-195,165,519,124,333,469,403,396,125,35,344,205,605,82,102,450,680,62,82,261,148,385,362,489,442,454,518,21,491,371,308,255
23949,-214,147,504,118,314,446,355,387,100,0,341,213,596,51,86,165,675,44,61,238,123,372,336,485,416,441,503,-15,454,344,311,251
23950,-188,141,531,132,308,457,364,402,118,5,332,218,612,79,98,73,661,46,87,238,132,351,331,486,401,459,483,-13,452,359,318,290
23951,-196,117,505,83,292,450,369,367,98,5,316,180,575,56,83,141,616,16,49,221,139,336,281,430,373,423,459,-80,415,313,287,269
23952,-224,123,498,87,300,441,359,368,94,2,327,180,563,45,88,200,565,18,44,214,158,293,287,439,376,406,472,-26,429,315,270,220
23953,-235,109,504,108,291,458,359,378,119,11,360,209,596,68,110,244,603,51,86,241,146,281,356,487,387,441,502,121,517,369,317,245
23954,-263,89,483,83,299,465,354,374,130,16,348,189,604,83,119,262,621,58,84,241,106,296,371,485,416,445,496,233,528,367,323,223
23955,-280,103,445,57,275,445,342,349,127,8,332,135,585,59,98,221,566,15,46,234,102,256,293,429,381,398,446,70,440,289,244,157
23956,-280,104,445,94,294,447,365,362,123,10,331,121,567,70,69,203,531,-21,40,225,88,242,258,406,359,389,428,-68,393,262,229,173
23957,-259,119,468,119,300,451,355,365,133,11,323,122,574,61,59,162,470,-42,41,178,53,206,219,395,327,354,386,-175,287,193,166,144
23958,-249,119,464,107,306,431,323,377,132,12,319,96,559,34,49,137,456,-72,12,159,38,157,177,347,296,312,348,-269,248,157,117,75
23959,-256,131,439,111,310,465,324,358,131,2,314,109,558,41,66,101,472,-49,14,176,60,171,194,361,295,306,362,-197,287,167,79,55
23960,-257,160,440,104,311,482,349,342,119,12,314,103,570,59,75,-11,465,-53,6,152,36,172,180,330,272,291,324,-270,216,106,53,29
23961,-246,147,432,86,314,504,352,343,123,8,344,96,565,42,77,-152,423,-54,0,163,34,131,178,322,245,275,316,-295,198,101,48,38
23962,-263,112,430,84,293,499,330,350,115,0,358,108,539,25,75,-82,405,-49,-14,156,36,107,178,312,236,253,293,-215,249,96,32,58
23963,-254,138,449,103,301,503,376,359,137,19,373,118,562,46,89,115,474,-29,-11,175,43,48,232,343,253,274,285,-200,256,102,33,80
23964,-227,164,468,108,327,526,414,355,128,29,383,124,554,34,99,199,507,-27,-10,184,62,-10,245,349,233,279,256,-183,266,104,30,38
23965,-236,184,455,115,336,539,427,361,134,41,393,113,565,49,116,186,509,-29,5,195,95,88,231,348,251,294,322,-214,278,127,86,89
23966,-253,163,451,129,336,536,416,347,131,50,398,114,591,68,122,160,517,-39,25,222,104,345,258,354,286,334,408,-183,295,178,132,154
23967,-257,162,450,102,309,524,414,343,117,53,375,97,557,48,122,84,507,-50,7,203,96,253,253,339,264,307,371,-149,299,151,68,73
23968,-235,182,447,86,303,533,434,333,110,35,389,91,540,26,120,-169,493,-65,-27,187,76,205,201,306,235,267,325,-250,249,89,15,-16
23969,-197,236,488,127,342,562,437,386,133,74,408,129,582,64,146,-184,538,-21,4,214,95,254,254,347,259,297,325,-193,298,155,78,62
23970,-209,229,493,155,336,519,420,398,143,42,399,148,586,58,137,73,536,-15,15,212,102,247,269,344,266,301,274,-203,293,138,65,124
23971,-265,177,470,123,316,544,395,384,137,18,398,150,580,47,131,-6,543,-24,-2,198,88,254,252,357,248,288,286,-189,289,125,36,92
23972,-264,182,470,106,309,530,389,368,122,15,371,121,546,34,117,-185,511,-33,-13,177,70,244,256,337,224,282,286,-162,279,133,31,33
23973,-253,171,483,130,319,518,376,388,125,15,361,129,552,44,126,-14,542,3,-11,189,81,228,301,353,226,290,265,-39,341,137,38,9
23974,-256,147,452,113,330,513,390,364,115,2,342,125,549,35,89,220,524,-12,0,194,75,176,317,358,228,266,237,-44,326,133,26,24
23975,-262,151,432,102,314,524,393,334,112,3,331,137,558,43,91,237,498,2,9,198,90,176,326,371,246,273,265,-54,339,147,76,81
23976,-271,144,469,103,322,511,351,352,126,21,319,138,589,55,88,218,508,19,19,182,68,158,361,389,276,278,296,-98,352,175,91,138
23977,-271,139,455,91,302,489,303,340,126,20,296,130,599,33,84,206,490,19,19,173,11,210,330,396,252,262,313,-233,295,140,57,116
23978,-290,114,431,86,299,499,316,354,117,26,296,136,584,31,62,158,522,42,22,163,-6,192,347,404,264,244,244,-166,300,91,-5,-14
23979,-296,126,420,80,322,497,295,346,106,10,279,128,604,39,56,103,493,37,40,178,21,165,341,405,277,262,271,-149,323,110,0,21
23980,-283,118,429,84,309,495,304,331,114,9,276,106,597,52,73,61,472,17,45,187,55,150,318,399,261,250,313,-167,313,96,-10,11
23981,-279,102,415,58,285,459,298,310,112,-12,257,88,562,43,60,-74,448,-8,9,174,25,103,305,374,253,231,235,-169,271,57,-52,-38
23982,-310,95,390,37,296,422,263,299,106,1,253,109,549,29,37,-177,408,-23,-2,156,17,49,311,364,238,223,169,-139,253,34,-75,-52
23983,-306,106,427,67,294,442,287,349,146,23,291,155,590,60,104,-65,423,10,18,181,40,80,345,395,261,250,192,-52,314,76,-31,2
23984,-277,100,475,100,294,451,274,369,138,25,277,164,585,61,88,76,491,28,21,182,54,121,350,390,267,243,250,-105,328,102,-8,80
23985,-256,126,478,115,298,449,306,363,115,-6,288,154,575,16,82,134,534,32,-8,168,67,169,372,382,279,245,323,-98,327,121,-5,102
23986,-228,185,491,134,317,457,369,373,120,2,316,167,577,11,89,200,580,42,-13,166,109,277,389,385,293,251,386,-98,329,145,25,145
23987,-202,214,507,133,339,491,392,383,137,31,358,175,565,23,106,213,599,41,1,154,133,286,352,380,287,266,391,-148,288,108,21,121
23988,-198,203,509,143,338,465,366,375,129,10,323,182,565,7,76,151,629,26,14,138,105,240,372,404,278,266,412,-52,315,153,65,76
23989,-185,203,538,154,322,465,352,387,135,-2,322,213,567,7,55,153,653,46,23,154,94,227,408,424,302,270,433,-13,367,196,108,92
23990,-194,204,545,166,329,469,377,412,141,15,341,231,590,20,78,163,665,70,40,165,100,261,436,440,325,303,405,16,404,217,143,161
23991,-229,154,532,154,300,436,345,414,114,-8,318,210,600,11,80,68,641,82,33,147,75,254,451,450,337,291,387,72,414,232,171,181
23992,-231,161,503,150,325,455,347,410,117,1,340,221,605,18,81,-138,662,72,36,154,71,204,476,446,334,282,373,59,408,231,157,179
23993,-213,191,527,136,325,459,367,409,120,11,350,212,571,5,95,82,620,56,25,142,97,126,398,405,302,264,325,-121,333,170,117,96
23994,-211,168,509,127,316,439,391,385,125,0,335,179,539,-6,79,309,604,30,-5,115,116,152,409,421,308,289,394,-34,367,216,144,160
23995,-224,179,508,111,316,447,375,351,113,-8,315,165,530,-22,34,162,585,8,-24,111,113,370,373,393,302,284,426,-100,372,233,163,204
23996,-205,203,512,125,339,455,368,376,119,1,294,203,539,-6,27,-24,590,1,-10,89,98,407,367,405,300,276,398,-91,376,241,174,180
23997,-191,212,514,156,354,426,390,378,140,7,314,171,534,-20,19,46,613,-9,-25,81,97,362,362,399,284,274,387,-90,366,241,168,147
23998,-211,205,500,116,328,423,400,354,120,-2,300,160,525,-34,2,186,588,-20,-35,61,48,355,314,358,228,243,393,-99,346,206,138,154
23999,-190,216,482,122,334,463,435,340,123,-4,303,160,533,-22,-18,250,562,-31,-35,59,8,312,303,357,241,236,398,-63,371,205,139,136
24000,-163,206,515,171,353,465,391,379,151,7,280,174,549,3,-15,217,572,9,-17,84,25,351,352,383,282,268,448,-33,421,268,206,170
24001,-190,177,519,149,329,446,362,374,140,-2,261,162,536,4,-33,-4,514,0,-5,77,21,335,329,386,277,246,433,-17,415,268,201,176
24002,-215,174,506,132,304,423,368,343,137,-19,261,146,532,-16,-35,-183,472,-27,-31,61,-6,309,286,372,261,217,397,-81,377,229,143,161
24003,-196,178,509,153,330,418,393,351,158,-18,269,170,541,18,-8,-171,582,0,-17,83,14,329,326,383,270,245,405,-55,384,235,142,154
