,Fp1,Fp2,F7,F3,Fz,F4,F8,FC5,FC1,FC2,FC6,T7,C3,Cz,C4,T8,TP9,CP5,CP1,CP2,CP6,TP10,P7,P3,Pz,P4,P8,PO9,O1,Oz,O2,PO10
90885,-18,330,351,-116,-117,308,335,-11,105,-99,86,-180,71,142,13,71,-233,-203,0,-236,-90,2,74,-41,86,119,246,-192,-122,-68,-238,54
90886,14,343,374,-106,-111,241,281,1,124,-94,-13,-106,66,140,-5,49,-224,-189,5,-231,-121,150,14,-36,90,120,138,-41,-67,-21,-179,187
90887,0,278,335,-123,-101,239,239,37,135,-73,-7,-71,91,132,-4,4,-257,-191,0,-230,-141,200,-25,-44,94,105,104,1,-54,-35,-201,143
90888,-30,230,278,-102,-111,268,253,78,141,-71,17,-77,83,150,5,23,-283,-193,5,-233,-130,210,-56,-46,112,107,171,-38,-73,-31,-174,148
90889,-69,144,214,-116,-120,264,213,69,127,-93,-25,-147,69,111,-19,10,-292,-218,-12,-250,-149,207,-66,-44,85,95,177,-73,-65,-16,-144,119
90890,-79,199,206,-109,-118,274,188,87,125,-101,4,-161,69,102,-34,-18,-187,-199,-19,-264,-168,195,9,-45,96,94,194,-120,-91,-28,-174,-50
90891,-95,233,138,-87,-114,263,159,144,158,-96,29,-190,91,104,-28,-8,-156,-192,-14,-258,-149,170,52,-43,85,97,243,-120,-77,-50,-193,1
90892,-125,231,74,-44,-104,283,143,259,187,-77,56,-157,139,129,-16,6,-186,-165,9,-269,-151,113,78,-19,91,84,189,-158,-43,-45,-185,78
90893,-120,231,155,-42,-102,264,149,173,175,-77,89,-115,103,102,-12,16,-252,-163,-2,-266,-161,-2,74,-16,82,61,115,-145,-70,-61,-218,59
90894,-77,265,228,-71,-108,287,162,101,135,-71,67,-132,86,118,11,69,-308,-192,-12,-252,-133,80,0,-30,85,91,122,-287,-119,-89,-260,38
90895,-51,259,289,-61,-94,285,158,65,143,-89,36,-140,79,114,6,89,-288,-186,-15,-245,-114,113,42,-14,95,113,185,-229,-70,-45,-204,82
90896,-41,221,289,-39,-86,293,131,45,152,-90,34,-165,66,106,-5,27,-274,-213,-8,-261,-137,94,21,-21,96,97,177,-171,-63,-37,-232,91
90897,-30,235,196,-74,-78,301,153,72,143,-98,59,-123,67,96,-12,7,-222,-208,-21,-274,-166,78,25,-17,106,108,169,-137,-61,-26,-209,24
90898,-45,227,220,-113,-102,339,135,60,124,-75,41,-130,52,94,-26,13,-127,-201,-18,-262,-164,106,-11,-28,119,127,181,-114,-61,-3,-150,76
90899,-64,186,237,-91,-94,383,172,74,142,-59,80,-203,47,103,-18,12,-258,-244,-33,-262,-137,139,-69,-48,121,128,191,-180,-91,-15,-141,41
90900,-82,162,149,-79,-101,349,181,168,160,-88,68,-215,62,97,-27,19,-310,-245,-25,-276,-160,105,-67,-43,101,110,162,-208,-102,-33,-142,-37
90901,-84,166,156,-110,-111,346,169,163,159,-91,92,-186,75,113,-11,-8,-250,-210,6,-260,-157,144,-1,-7,139,130,252,-97,-59,15,-114,20
90902,-106,108,141,-131,-136,411,140,115,151,-67,125,-163,81,90,-22,14,-267,-206,-5,-267,-151,70,3,-3,136,124,232,-41,-51,8,-124,-6
90903,-109,43,38,-139,-127,388,235,140,150,-70,60,-201,82,129,-29,37,-355,-213,5,-259,-144,13,-23,-3,130,106,186,-128,-70,-2,-138,-26
90904,-140,106,45,-134,-127,330,171,37,122,-90,-14,-249,57,126,-53,-51,-326,-232,-1,-259,-169,59,-15,-8,127,112,185,-51,-18,10,-151,23
90905,-152,96,92,-156,-125,336,122,-3,116,-84,-5,-259,35,110,-38,-98,-267,-226,-22,-256,-170,71,16,-31,120,114,174,-121,-56,-26,-188,30
90906,-125,119,133,-114,-95,299,126,62,142,-56,9,-201,78,120,-13,-36,-194,-196,-7,-230,-144,86,56,-18,115,109,194,-152,-65,-30,-190,-3
90907,-179,95,145,-76,-85,302,72,54,145,-56,27,-180,79,115,0,-17,-161,-198,2,-237,-132,101,87,-14,119,138,250,-138,-60,-6,-198,56
90908,-268,81,137,-84,-109,351,111,43,137,-56,56,-199,41,104,-23,-36,-226,-202,-40,-265,-166,20,141,-38,90,108,200,-225,-102,-74,-245,-31
90909,-235,121,160,-133,-127,350,156,-26,132,-59,82,-240,22,84,-29,-21,-257,-239,-64,-252,-169,-32,76,-58,95,85,193,-356,-135,-126,-281,-91
90910,-114,230,242,-132,-131,279,189,-40,136,-73,8,-222,37,108,-24,55,-308,-272,-43,-233,-115,-3,10,-41,107,111,240,-388,-154,-129,-311,-166
90911,-138,212,259,-140,-146,237,136,-58,124,-69,6,-228,16,110,-7,43,-367,-293,-38,-236,-103,-40,-25,-62,128,144,289,-276,-131,-74,-230,-179
90912,-119,183,257,-162,-155,249,84,-40,114,-83,47,-196,28,135,-25,15,-421,-295,-18,-219,-104,6,-50,-62,115,134,307,-300,-122,-53,-211,-258
90913,-84,202,254,-155,-136,256,137,11,116,-81,71,-144,50,126,-27,-40,-363,-243,-17,-217,-142,0,-16,-28,133,140,273,-322,-93,-34,-185,-209
90914,-104,208,246,-135,-128,263,157,8,104,-100,44,-194,47,114,-37,-51,-238,-242,-21,-245,-167,1,-30,-40,150,115,199,-266,-90,-36,-184,-45
90915,-98,270,233,-112,-99,267,161,54,128,-81,47,-265,42,139,-30,0,-247,-254,-16,-231,-161,35,-32,-37,142,113,136,-199,-88,-16,-163,55
90916,-119,241,104,-110,-95,302,188,163,136,-85,62,-272,54,132,-29,14,-352,-282,-1,-234,-168,53,-87,-46,138,107,148,-178,-84,-2,-144,78
90917,-203,170,69,-39,-112,269,145,199,152,-115,37,-241,77,130,-54,10,-310,-277,-8,-264,-176,14,-78,-40,116,111,190,-185,-59,11,-146,74
90918,-213,81,106,-70,-109,283,146,96,141,-123,9,-159,64,122,-54,16,-275,-258,-5,-275,-157,-41,-31,-28,133,102,186,-163,-18,37,-103,95
90919,-136,115,99,-98,-111,307,199,99,140,-101,26,-99,79,122,-38,40,-234,-204,33,-264,-151,-2,8,-23,138,108,200,-173,-54,3,-170,61
90920,-100,197,144,-71,-121,290,240,98,148,-114,33,-136,79,141,-21,66,-236,-203,27,-240,-135,36,10,-1,178,151,255,-127,-31,6,-158,98
90921,-33,287,142,-67,-110,288,306,127,141,-95,58,-165,83,143,8,109,-216,-205,23,-211,-102,107,1,30,188,178,309,-78,-3,61,-94,171
90922,-10,304,216,-86,-111,348,297,107,134,-72,89,-143,89,160,20,84,-190,-182,53,-185,-87,220,25,48,202,185,323,-74,13,80,-78,156
90923,-104,255,239,-114,-126,393,282,98,119,-55,72,-157,73,161,0,3,-194,-183,31,-193,-103,197,13,35,194,178,275,-129,-8,30,-80,44
90924,-94,296,277,-72,-100,382,297,197,158,-66,97,-113,107,180,11,55,-163,-144,49,-177,-105,159,50,63,220,182,259,-13,24,40,-67,-97
90925,-61,286,327,-114,-118,362,355,152,134,-76,116,-80,109,147,5,65,-181,-148,44,-185,-105,77,54,65,198,194,277,-7,31,50,-76,-48
90926,-42,304,361,-80,-124,321,296,104,137,-100,68,-40,108,141,1,84,-124,-137,53,-173,-85,72,92,62,209,197,296,-8,50,78,-57,62
90927,-7,251,338,-82,-138,338,230,55,125,-90,79,-127,69,158,8,117,-155,-175,47,-176,-61,201,68,42,214,210,385,-34,45,96,-36,99
90928,-37,197,316,-78,-129,340,196,61,136,-80,125,-149,90,170,21,121,-90,-155,51,-173,-54,188,96,41,224,223,437,-9,67,107,-21,98
90929,-55,171,223,-88,-128,330,180,101,151,-74,145,-116,116,184,33,116,-33,-123,79,-156,-45,233,156,79,239,230,368,91,152,158,6,230
90930,-106,166,227,-96,-138,320,181,131,159,-86,129,-125,109,174,31,143,-103,-136,76,-171,-43,306,153,88,249,240,347,111,148,195,19,326
90931,-170,200,276,-65,-168,285,216,168,154,-105,118,-117,113,155,15,127,-141,-120,65,-178,-48,265,157,85,233,222,342,-8,105,165,43,264
90932,-138,238,276,-37,-163,309,236,220,175,-81,164,-102,152,190,32,127,-102,-83,101,-151,-49,211,261,116,252,212,342,71,148,170,35,212
90933,-30,278,307,-49,-142,320,226,215,158,-87,138,-121,130,186,8,146,-94,-112,108,-163,-40,247,249,95,238,203,372,-25,116,165,-8,107
90934,-13,300,346,-31,-154,381,250,185,142,-72,147,-136,104,179,23,164,-59,-115,61,-177,-23,267,252,58,223,213,388,-242,53,132,-15,41
90935,-4,313,334,-69,-150,379,311,100,130,-70,169,-110,93,171,30,124,-167,-139,63,-177,-38,184,223,42,217,198,331,-211,33,108,-52,108
90936,-1,338,296,-84,-137,304,329,106,130,-90,116,-121,114,173,19,128,-274,-128,84,-160,-56,186,217,58,201,175,270,-29,75,114,-7,214
90937,-22,323,298,-80,-138,262,302,124,125,-97,77,-103,120,163,47,136,-199,-105,88,-146,-42,229,252,77,227,206,289,139,108,171,11,246
90938,-1,335,303,-68,-136,303,365,137,127,-95,113,-86,123,176,59,126,-113,-132,61,-155,-33,231,195,64,213,221,306,84,66,149,-11,238
90939,-34,327,251,-75,-132,312,345,136,135,-83,148,-117,106,186,78,189,-178,-150,52,-145,-1,244,106,38,204,228,341,-9,16,108,-32,207
90940,-80,267,249,-55,-128,349,338,119,138,-54,124,-139,94,179,86,202,-202,-162,58,-147,4,226,50,23,192,237,383,-42,9,103,-29,128
90941,-32,234,294,-50,-115,376,255,138,149,-21,162,-116,111,194,96,184,-199,-151,43,-163,1,212,32,9,184,237,385,-14,-10,90,-41,30
90942,-58,168,280,-99,-130,382,187,119,119,-68,159,-142,81,166,76,174,-230,-215,4,-187,-9,104,-53,-46,122,209,441,-84,-101,-26,-149,-348
90943,-79,133,183,-104,-131,449,188,192,130,-51,183,-143,78,145,66,170,-185,-231,-27,-223,-34,32,-64,-79,98,165,383,-164,-140,-81,-192,-153
90944,-144,157,59,-72,-101,405,231,274,166,-52,119,-134,97,141,35,108,-196,-207,14,-242,-95,41,-8,-40,105,124,264,-213,-109,-47,-154,11
90945,-159,161,168,-50,-108,350,255,222,164,-60,72,-149,95,168,39,109,-253,-214,10,-223,-111,85,-19,-31,132,160,280,-180,-81,-6,-152,115
90946,-229,192,175,-62,-116,367,264,201,145,-43,93,-125,87,154,24,108,-282,-229,-4,-210,-124,126,-39,-23,130,154,245,-150,-93,3,-158,115
90947,-166,255,262,-61,-93,393,346,138,120,-43,132,-88,82,163,44,117,-253,-215,22,-210,-103,130,-22,-13,139,163,241,-91,-57,12,-114,55
90948,-19,335,353,-71,-101,354,354,70,119,-45,141,-86,97,164,44,85,-175,-190,30,-199,-107,171,53,15,168,164,243,71,33,61,-63,75
90949,41,368,336,-149,-119,342,316,36,98,-47,139,-164,83,173,36,95,-166,-202,34,-199,-77,230,47,9,187,184,248,50,26,80,-84,147
90950,46,390,320,-167,-125,309,252,36,89,-62,129,-169,66,157,32,111,-104,-193,32,-201,-88,186,49,28,182,187,234,35,62,104,-62,179
90951,-13,400,251,-155,-134,294,304,109,105,-56,65,-183,74,162,30,123,-109,-192,33,-197,-99,205,80,36,178,189,249,-38,43,109,-65,180
90952,-38,392,272,-134,-123,293,312,65,117,-52,107,-189,74,175,61,149,-157,-195,52,-181,-63,269,55,36,189,210,301,-19,19,101,-80,215
90953,-6,326,313,-143,-118,348,275,31,116,-33,183,-188,67,189,84,150,-141,-199,54,-139,-33,273,68,42,203,229,341,-26,38,122,-27,219
90954,-32,305,203,-189,-143,342,249,70,108,-50,129,-167,57,160,58,107,-190,-215,26,-163,-71,240,49,37,168,215,325,-121,10,94,-52,99
90955,-59,229,182,-149,-146,374,201,99,91,-48,114,-98,67,154,58,60,-164,-175,21,-190,-74,236,57,21,168,193,328,-98,15,66,-82,110
90956,-73,162,234,-144,-133,433,208,66,79,-45,137,-64,71,149,62,95,-167,-176,26,-180,-56,187,95,38,174,191,288,-28,35,98,-22,222
90957,-58,215,256,-157,-124,400,218,33,83,-42,143,-111,68,148,80,119,-207,-178,10,-173,-30,205,87,44,164,203,272,45,38,113,-14,255
90958,-47,209,306,-158,-128,333,210,18,79,-58,121,-160,31,132,61,100,-153,-199,16,-162,-36,143,92,32,180,197,271,76,32,102,-60,199
90959,-37,228,325,-150,-120,348,223,14,95,-41,75,-194,17,137,48,125,-171,-223,10,-173,-50,105,29,4,173,192,255,-25,-13,60,-101,76
90960,-56,263,223,-117,-122,337,215,43,104,-49,71,-221,28,143,42,91,-207,-234,-2,-177,-62,68,-26,-19,156,176,261,-192,-86,-2,-172,-114
90961,-119,244,124,-123,-118,322,191,94,118,-69,92,-167,55,144,62,84,-208,-204,16,-161,-17,108,39,12,187,204,393,-152,-57,17,-134,-66
90962,-113,257,169,-95,-118,327,170,118,122,-61,109,-118,61,149,45,81,-185,-173,33,-164,-30,118,89,23,173,191,346,-113,-44,34,-134,23
90963,-91,238,244,-63,-124,324,166,151,123,-70,63,-100,71,153,29,37,-169,-172,26,-200,-95,52,106,0,129,134,190,-103,-43,7,-149,77
90964,-66,232,201,-91,-140,286,171,118,128,-101,54,-154,68,140,-2,78,-154,-185,11,-227,-126,22,130,-12,110,101,136,-167,-56,-16,-183,40
90965,-44,298,295,-81,-107,281,202,117,161,-72,82,-156,70,151,-11,35,-120,-170,12,-232,-120,26,158,18,125,94,166,-291,-83,-17,-170,-32
90966,-81,326,270,-79,-111,260,289,71,137,-87,85,-211,64,117,-27,-34,-230,-203,-2,-259,-157,54,72,-9,91,83,173,-216,-88,-32,-175,-19
90967,-135,270,248,-78,-115,287,288,75,121,-104,45,-198,53,115,-38,-37,-173,-218,2,-255,-156,168,85,-7,90,73,188,-67,-57,-2,-137,80
90968,-44,198,269,-79,-111,356,286,124,130,-76,34,-150,84,132,-36,8,-139,-183,22,-254,-155,154,117,4,119,48,136,-62,-48,-13,-158,43
90969,18,131,256,-75,-90,365,205,82,150,-78,27,-139,89,131,-46,-12,-163,-139,47,-272,-163,97,134,10,126,34,140,-112,-62,-32,-174,2
90970,-17,67,252,-125,-111,343,76,-38,117,-82,20,-145,57,120,-60,-69,-181,-185,11,-305,-201,39,84,-34,82,3,102,-170,-88,-55,-205,-46
90971,-65,75,269,-126,-125,262,61,-19,104,-86,33,-149,67,112,-59,-17,-155,-187,12,-280,-188,82,81,-17,82,23,140,-141,-67,-21,-178,38
90972,-53,108,303,-111,-103,299,119,43,135,-81,37,-160,90,128,-31,-33,-125,-175,26,-247,-173,116,94,-8,126,55,168,-101,-37,22,-115,91
90973,-73,138,273,-129,-117,350,99,81,121,-79,58,-192,84,117,-26,-63,-147,-179,13,-269,-212,100,135,-16,92,43,150,-187,-85,-16,-172,27
90974,-64,186,263,-85,-112,346,133,123,135,-60,-10,-177,87,122,-41,-46,-216,-177,8,-285,-211,123,94,-24,78,28,143,-339,-162,-83,-262,4
90975,-93,203,196,-52,-104,351,120,160,146,-72,-32,-130,97,107,-54,-61,-113,-165,13,-280,-215,56,139,-13,80,22,138,-347,-169,-85,-231,-11
90976,-160,230,112,-62,-119,333,80,187,153,-110,9,-157,92,104,-61,-68,-135,-190,0,-293,-227,-5,149,-17,72,5,119,-272,-154,-82,-208,-96
90977,-104,274,201,-53,-116,338,121,186,163,-113,-14,-116,107,112,-45,-3,-197,-175,-6,-295,-207,-2,91,-19,67,23,161,-264,-137,-75,-199,-200
90978,-70,299,254,-54,-100,311,132,141,163,-93,12,-95,95,120,-37,-35,-227,-198,-2,-272,-202,-19,27,-21,81,39,216,-198,-138,-71,-228,-198
90979,-77,280,207,-83,-122,274,155,102,146,-85,45,-120,69,102,-55,-62,-276,-240,2,-269,-207,-10,-26,-39,76,43,239,-230,-164,-66,-205,-207
90980,-72,238,215,-58,-120,305,182,93,141,-75,19,-161,73,109,-55,-31,-276,-235,19,-257,-211,42,-13,-37,89,59,217,-284,-126,-40,-183,-97
90981,-113,215,135,-59,-125,302,169,184,161,-95,6,-190,94,123,-54,-82,-200,-213,12,-257,-245,-75,41,-21,90,15,118,-272,-100,-20,-186,-25
90982,-71,236,135,-91,-141,292,182,189,163,-90,43,-200,113,133,-46,-91,-165,-162,53,-239,-229,-60,114,0,109,24,98,-199,-79,-13,-165,99
90983,-57,301,233,-121,-131,316,179,6,143,-69,58,-195,110,155,-18,-58,-193,-168,68,-222,-192,33,137,10,128,73,176,-177,-72,-2,-153,149
90984,-107,244,226,-68,-139,289,150,-15,141,-104,-31,-162,115,161,-39,-53,-174,-163,63,-243,-202,-23,138,19,122,69,243,-240,-75,14,-145,102
90985,-85,197,251,-60,-126,285,147,12,147,-94,-15,-129,124,167,-52,-75,-206,-147,57,-263,-229,-113,159,13,111,59,209,-319,-97,-31,-170,36
90986,-59,194,238,-88,-147,222,37,28,123,-97,-34,-124,119,131,-79,-111,-199,-159,27,-297,-284,-272,86,-13,95,2,2,-228,-125,-69,-232,-148
90987,-111,128,90,-62,-148,195,-50,61,133,-116,0,-175,100,133,-62,-63,-206,-197,31,-289,-242,-243,5,-21,101,21,0,-176,-74,-37,-188,-173
90988,-238,31,64,-26,-153,271,-60,76,141,-104,54,-206,87,146,-41,-70,-283,-222,19,-257,-212,-242,-16,-11,106,54,96,-18,-36,5,-123,-222
90989,-207,24,149,-35,-148,301,-40,124,140,-81,75,-206,89,142,-27,-41,-290,-220,20,-247,-181,-141,-32,-12,115,60,166,-48,-65,-45,-186,-336
90990,-78,146,199,-37,-134,262,88,134,147,-102,20,-206,89,131,-32,-84,-248,-225,28,-244,-177,48,-13,-7,135,67,177,-56,-81,-44,-198,-216
90991,-31,239,291,-62,-123,235,149,73,142,-112,-28,-226,70,134,-48,-94,-204,-217,17,-246,-205,116,-23,-11,136,64,123,-40,-80,-18,-156,-4
90992,-18,215,285,-61,-129,272,158,68,142,-111,-32,-164,93,156,-38,-54,-127,-190,32,-240,-202,5,10,12,135,64,33,33,-59,-32,-170,-34
90993,-96,170,253,-85,-125,313,179,41,131,-114,13,-186,70,154,-8,-65,-253,-193,25,-231,-191,-33,-18,1,127,65,39,-17,-76,-25,-184,-318
90994,-187,234,182,-93,-147,311,180,51,142,-91,77,-226,74,147,11,-24,-373,-215,15,-207,-144,-82,-74,-15,133,116,224,-145,-117,-75,-213,-635
90995,-329,147,174,-75,-143,317,127,84,141,-70,91,-227,85,164,42,86,-286,-213,38,-203,-86,-127,-43,0,156,123,318,-141,-72,-41,-179,-410
90996,-344,92,136,-96,-139,423,133,53,150,-63,117,-193,92,186,62,127,-176,-197,59,-173,-38,-138,48,36,176,136,427,-79,-11,-19,-160,-373
90997,-218,75,129,-93,-132,406,126,79,139,-49,126,-153,117,183,44,92,-128,-170,67,-181,-100,-149,134,35,175,127,320,-221,-42,-18,-160,-178
90998,-191,122,190,-89,-135,325,96,146,142,-80,50,-47,126,162,-21,-76,-10,-88,70,-230,-209,-72,329,83,165,71,53,-344,16,7,-140,51
90999,-138,208,229,-82,-158,259,105,119,157,-124,-7,-9,167,162,-72,-198,7,19,83,-254,-288,-18,589,130,176,35,-105,-428,74,26,-133,174
91000,-93,220,129,-97,-164,184,138,199,149,-134,-29,-36,173,156,-74,-173,-98,-39,67,-248,-297,-85,432,89,172,29,-91,-625,-16,19,-125,173
91001,-138,161,82,-93,-169,244,188,222,145,-114,-42,-109,137,137,-88,-120,-220,-144,36,-267,-270,-68,175,-29,99,12,-2,-490,-154,-75,-221,-15
91002,-160,157,142,-112,-169,303,207,115,145,-103,-7,-178,94,119,-114,-139,-332,-212,5,-301,-305,-103,19,-73,112,-10,-40,-229,-159,-69,-221,50
91003,-132,145,154,-84,-149,291,138,148,171,-105,2,-197,104,142,-98,-101,-296,-239,6,-289,-280,-96,-72,-50,131,7,3,-151,-111,-2,-150,106
91004,-145,143,223,-26,-166,215,138,201,173,-108,-33,-62,118,143,-80,-109,-302,-215,3,-274,-244,-96,-82,-60,129,28,99,-162,-78,9,-135,79
91005,-161,116,266,-35,-140,261,66,221,153,-99,-25,-22,117,141,-66,-73,-401,-184,13,-257,-206,-110,7,-18,147,58,207,-407,-57,25,-120,-84
91006,-129,79,295,-116,-119,226,46,133,152,-98,-55,-80,97,171,-63,35,-368,-180,29,-229,-92,-66,62,1,174,142,484,-343,-44,11,-133,-574
91007,-192,23,278,-85,-123,296,2,64,148,-75,65,-112,104,161,-37,30,-270,-179,25,-235,-113,-131,57,-11,146,130,390,-389,-86,-47,-202,-450
91008,-271,24,93,-69,-116,236,4,140,175,-69,58,-125,133,168,-46,-36,-207,-194,31,-245,-195,-208,50,-41,140,60,78,-366,-121,-79,-225,-208
91009,-241,46,108,-41,-131,222,32,115,159,-93,18,-185,82,149,-52,-55,-307,-255,-4,-274,-221,-75,-97,-106,100,11,-1,-220,-200,-109,-252,-3
91010,-138,121,291,-97,-138,242,127,65,142,-97,27,-229,55,150,-58,-86,-342,-298,5,-257,-211,33,-165,-117,103,16,52,-6,-158,-86,-236,70
91011,-181,208,395,-88,-134,255,201,101,122,-87,-8,-200,55,132,-51,-78,-333,-306,-1,-243,-179,97,-255,-101,149,90,209,183,-94,-48,-191,29
91012,-164,100,403,-96,-154,288,165,85,111,-96,21,-167,48,143,-7,-26,-291,-303,3,-219,-179,4,-249,-91,150,92,131,149,-55,19,-138,118
91013,-109,37,409,-126,-165,317,140,2,116,-68,72,-159,42,152,17,-13,-305,-291,27,-195,-146,98,-229,-65,166,113,105,171,-19,75,-72,52
91014,-148,183,363,-77,-133,324,202,27,147,-58,87,-184,65,173,14,-112,-269,-280,20,-194,-155,82,-222,-57,188,145,142,120,-28,67,-89,43
91015,-166,236,347,-57,-128,295,242,108,166,-96,30,-124,93,157,-26,-114,-186,-244,31,-227,-177,73,-169,-26,152,94,80,117,-12,54,-104,121
91016,-153,352,368,-30,-121,257,220,140,185,-75,10,-97,105,145,-31,-63,-220,-212,34,-220,-165,112,-109,-12,158,89,52,43,-34,22,-137,123
91017,-150,309,362,-16,-125,266,220,182,192,-76,33,-88,145,153,-42,-61,-178,-187,50,-221,-186,15,-45,-5,167,84,57,13,-44,1,-152,-76
91018,-145,278,344,-13,-119,248,217,193,186,-78,7,-68,161,173,-35,-36,-133,-155,54,-212,-172,97,15,16,185,107,184,106,-38,8,-142,-245
91019,-105,349,366,-24,-115,262,304,185,193,-83,52,-83,150,161,-37,-66,-177,-163,53,-239,-223,64,12,-1,151,41,28,88,-69,-65,-205,90
91020,-95,289,389,1,-116,255,265,186,181,-89,39,-54,147,150,-51,-92,-142,-133,42,-264,-250,53,67,-2,140,17,-42,26,-54,-76,-204,188
91021,-113,229,363,-18,-146,267,136,187,184,-76,54,-30,128,137,-43,-23,-63,-113,52,-254,-205,23,98,11,164,30,51,-84,-14,-20,-170,202
91022,-126,174,327,-20,-140,304,45,181,177,-68,121,-19,133,134,-25,14,-7,-101,32,-240,-163,-31,169,45,166,56,116,-44,33,47,-116,230
91023,-153,156,291,-12,-120,357,99,173,159,-74,135,-37,121,121,-18,9,-75,-118,25,-271,-202,-148,184,34,130,38,117,24,21,-18,-174,120
91024,-216,112,263,15,-124,374,188,219,181,-69,158,-52,125,119,-8,107,-113,-160,33,-255,-170,-238,121,-3,110,41,150,-420,-55,-120,-261,-168
91025,-394,75,216,61,-125,353,184,318,186,-68,144,-30,148,127,0,123,-169,-152,20,-242,-118,-93,143,-31,111,62,271,-682,-143,-106,-259,-268
91026,-556,-22,184,56,-117,447,137,331,197,-31,213,31,164,151,25,53,-134,-117,35,-216,-141,24,238,-15,127,60,251,-546,-121,-91,-250,-148
91027,-416,-38,189,18,-133,374,46,206,161,-57,190,14,131,136,11,-33,-53,-116,36,-231,-189,129,259,9,110,36,161,-289,-49,-45,-194,73
91028,-263,83,119,-10,-132,365,77,246,164,-57,156,13,155,143,19,-32,-108,-118,35,-225,-181,87,165,11,151,57,84,-74,-33,-60,-220,118
91029,-243,95,43,-56,-161,382,84,260,160,-47,165,0,153,145,39,-25,-142,-123,42,-215,-148,35,185,11,161,100,136,-276,-29,-47,-210,16
91030,-117,152,121,-59,-161,342,187,227,149,-50,114,-50,140,157,60,0,-77,-117,61,-159,-89,166,169,46,204,164,296,83,56,49,-77,128
91031,-29,233,259,-77,-164,261,288,247,158,-85,45,-106,138,180,60,7,-150,-141,71,-151,-69,228,27,49,241,211,337,226,93,99,-55,236
91032,-52,253,338,-91,-165,246,248,178,149,-83,21,-110,115,175,69,37,-167,-150,82,-138,-46,208,20,54,244,207,283,302,93,113,-36,119
91033,-80,280,343,-63,-134,266,308,158,164,-67,37,-69,145,190,89,65,-53,-149,87,-132,-48,198,-19,35,257,180,246,315,57,78,-101,14
91034,-90,328,446,-56,-106,261,307,119,163,-73,73,-72,126,193,87,109,-39,-149,114,-116,-47,226,-53,39,255,204,304,329,69,113,-66,146
