,Fp1,Fp2,F7,F3,Fz,F4,F8,FC5,FC1,FC2,FC6,T7,C3,Cz,C4,T8,TP9,CP5,CP1,CP2,CP6,TP10,P7,P3,Pz,P4,P8,PO9,O1,Oz,O2,PO10
114389,-14,103,350,39,-129,203,527,357,43,110,154,153,451,249,335,182,60,153,147,182,122,428,350,320,349,443,491,127,439,395,581,304
114390,36,136,345,73,-139,402,447,361,32,110,201,109,429,219,342,156,50,117,128,174,175,298,298,264,317,418,525,-35,318,326,554,362
114391,68,177,289,138,-145,331,400,369,25,108,124,59,409,228,324,116,65,97,107,161,150,197,294,262,299,409,517,-82,324,337,585,413
114392,42,118,273,155,-155,230,319,392,45,118,195,165,427,232,339,160,65,93,94,159,149,421,331,254,293,397,502,-43,336,347,613,448
114393,48,83,290,167,-147,217,375,427,43,106,171,133,440,234,327,105,32,128,112,151,141,398,324,259,273,365,474,77,377,349,540,368
114394,94,150,310,169,-151,75,478,365,49,95,233,117,427,225,351,-21,124,148,113,135,151,338,326,253,259,341,423,71,383,297,459,251
114395,105,169,341,147,-161,86,491,341,53,68,177,251,438,227,342,-58,229,177,125,139,150,322,422,285,280,357,487,103,447,348,530,258
114396,76,117,393,117,-143,242,375,301,43,104,186,197,428,209,319,130,213,157,100,131,120,288,451,270,262,346,482,149,483,372,537,231
114397,127,61,436,96,-150,288,291,226,15,126,251,236,424,191,308,341,264,210,108,119,94,381,740,308,258,361,530,254,549,407,560,231
114398,179,118,447,107,-156,-78,240,197,0,131,242,265,440,208,304,195,291,219,109,110,106,409,640,285,245,340,553,152,400,319,500,281
114399,216,176,483,167,-131,-30,326,286,44,127,217,258,447,216,314,112,346,185,100,108,125,379,254,238,223,303,540,46,327,264,483,321
114400,165,110,474,184,-116,-25,420,337,63,98,146,232,468,215,292,165,354,174,85,102,113,360,265,276,231,303,548,187,403,317,508,348
114401,146,189,548,176,-133,135,322,397,55,62,278,230,471,210,283,256,358,165,106,110,116,390,392,276,237,317,579,286,444,361,532,390
114402,126,275,436,82,-175,658,404,288,13,133,400,209,420,204,332,203,285,143,86,110,142,346,354,237,219,315,583,93,388,306,486,330
114403,105,182,441,83,-133,490,407,269,26,141,232,289,442,210,323,195,239,197,110,127,138,485,423,286,243,322,567,225,426,345,533,390
114404,77,253,407,120,-121,172,499,375,38,95,108,354,455,208,288,215,278,185,108,108,130,443,371,259,237,295,532,165,353,290,469,343
114405,18,269,391,201,-120,77,493,486,39,80,17,375,469,206,284,216,301,185,123,104,123,417,317,258,237,311,535,61,299,237,419,276
114406,57,263,445,179,-120,168,484,337,52,67,-37,227,484,211,305,217,247,238,140,129,135,476,397,287,247,305,553,145,377,285,447,293
114407,92,282,343,133,-123,171,581,242,55,58,35,213,473,220,310,196,288,228,133,125,159,492,472,273,252,294,543,230,394,275,464,348
114408,140,300,391,106,-127,126,608,369,70,57,68,357,463,202,285,87,306,194,90,78,82,313,427,234,200,219,443,112,298,195,385,288
114409,161,259,400,96,-135,112,625,334,35,56,107,284,442,204,314,117,315,160,70,79,58,223,469,214,159,202,382,184,316,199,353,234
114410,174,192,418,88,-141,146,515,407,34,69,142,194,426,215,301,67,213,165,79,101,52,368,459,200,153,211,389,206,307,183,364,257
114411,99,95,389,86,-153,154,376,374,30,88,264,248,424,184,293,56,183,138,46,59,58,289,400,157,126,175,381,154,270,159,336,227
114412,121,123,376,68,-136,182,393,339,7,94,231,199,447,177,320,76,197,152,58,63,60,263,386,156,127,183,392,109,255,145,330,235
114413,154,77,435,101,-121,214,409,363,35,85,132,154,481,203,297,85,209,177,76,76,35,169,423,175,141,195,415,170,258,165,340,259
114414,112,52,475,89,-141,164,182,313,41,120,206,238,440,178,301,111,283,147,55,65,14,290,454,167,145,199,387,215,270,159,345,264
114415,129,204,477,85,-171,-278,225,227,16,144,298,197,421,172,326,-16,294,113,41,56,62,209,417,174,136,211,378,194,268,165,357,256
114416,111,259,456,141,-171,-278,277,254,52,142,295,190,458,182,341,-51,324,155,70,60,84,288,468,206,166,225,415,243,311,203,346,237
114417,130,129,420,159,-118,114,291,269,41,117,272,128,443,189,311,-76,242,142,59,53,58,346,420,173,142,172,355,164,235,132,298,200
114418,117,35,387,157,-102,298,338,353,32,97,149,134,428,159,284,11,193,128,38,53,45,190,434,142,111,151,348,210,222,94,271,160
114419,136,112,449,177,-110,267,396,417,41,45,56,197,433,149,227,153,151,135,29,41,19,161,406,152,127,133,298,92,180,72,234,126
114420,175,190,468,154,-98,319,427,411,61,29,54,305,443,156,202,115,180,146,48,16,-31,156,276,135,117,123,234,-150,16,-47,186,95
114421,139,193,393,132,-98,291,501,332,58,50,23,293,442,162,235,61,192,159,51,30,-26,300,286,140,135,136,239,-156,29,-36,206,70
114422,18,154,368,128,-112,275,451,273,43,52,91,211,438,145,236,20,193,143,49,42,-58,302,325,145,144,147,253,6,130,62,270,115
114423,-22,96,315,155,-130,224,456,313,39,78,233,193,446,174,290,83,119,123,63,72,12,302,336,170,158,166,286,81,187,83,277,152
114424,-65,43,355,216,-123,190,383,334,76,111,231,216,457,182,280,12,241,121,71,56,-18,229,338,180,157,168,278,54,166,65,268,158
114425,-179,57,270,231,-149,230,307,442,74,86,168,227,449,175,255,23,288,101,92,41,-26,145,377,163,149,153,293,58,175,65,255,153
114426,-82,130,249,256,-141,273,157,579,83,70,28,232,463,179,253,80,220,138,85,58,-9,150,392,174,144,161,293,141,209,95,257,123
114427,-51,115,265,202,-151,288,269,433,65,54,28,171,440,182,248,45,192,128,71,57,-20,139,433,196,160,173,310,239,294,178,330,173
114428,-11,117,301,180,-148,211,396,295,70,78,12,187,436,197,268,48,203,125,98,89,20,207,435,208,203,239,372,203,308,231,390,255
114429,41,175,359,165,-121,191,429,280,58,95,46,279,445,200,297,2,242,154,83,89,30,113,463,212,207,232,351,203,258,177,386,200
114430,80,151,334,142,-139,174,431,289,47,86,126,272,447,202,296,85,177,157,80,92,57,237,447,203,208,219,393,207,246,145,333,212
114431,68,106,293,92,-140,169,407,292,42,97,230,114,451,208,333,165,212,177,102,127,104,230,479,248,232,265,435,359,351,237,390,304
114432,80,161,346,118,-139,92,494,328,57,95,132,207,496,219,323,232,237,233,116,141,121,267,781,281,253,281,400,294,328,217,393,313
114433,95,189,408,104,-145,103,580,307,28,72,6,216,466,220,320,211,204,184,99,126,134,352,504,231,239,289,441,-40,178,124,370,328
114434,48,49,374,82,-152,173,499,353,30,85,135,136,440,196,335,169,227,149,93,111,122,341,207,204,219,263,452,51,171,130,368,268
114435,62,23,399,112,-148,215,523,387,33,85,122,183,444,217,333,174,300,131,83,123,122,348,204,212,236,258,417,-41,187,137,379,253
114436,114,111,411,89,-152,174,521,341,9,50,75,205,424,188,290,154,273,84,46,86,64,324,233,157,185,205,342,-140,121,62,269,125
114437,96,113,449,84,-146,125,458,338,30,69,106,211,427,195,283,139,229,129,68,84,52,318,277,144,172,218,334,-109,93,35,242,70
114438,4,38,350,45,-162,181,312,273,27,109,201,144,434,202,301,167,74,117,59,88,61,323,226,140,151,216,470,-107,108,53,287,98
114439,14,-24,303,18,-156,284,103,212,14,115,390,125,380,189,313,5,183,12,46,89,-3,245,271,133,156,186,274,4,160,87,300,204
114440,11,112,242,-26,-179,-143,120,190,23,120,250,166,398,219,336,-77,268,90,69,123,88,182,382,176,203,233,332,200,260,155,330,190
114441,-27,185,262,-39,-193,-353,299,269,31,72,68,149,429,212,308,-41,155,115,70,105,62,193,352,179,204,230,332,256,300,179,332,139
114442,-47,65,294,19,-177,10,290,272,23,71,76,133,417,214,293,49,100,105,79,104,57,120,292,150,170,212,324,7,161,92,306,195
114443,-41,-71,303,84,-157,29,323,189,24,82,103,149,421,223,313,78,153,104,103,115,89,228,286,144,165,237,381,-169,101,71,310,211
114444,-38,-64,306,85,-151,-165,165,153,14,94,73,185,410,224,311,-6,146,108,77,96,75,214,296,141,160,207,358,-125,127,72,285,174
114445,-67,-103,232,25,-166,233,117,149,6,127,104,154,392,205,322,-72,92,109,60,97,91,264,349,152,166,202,370,1,155,92,278,183
114446,-129,-156,201,31,-168,436,208,155,-9,109,133,90,372,170,294,5,194,77,38,73,76,326,352,155,154,195,406,93,200,115,302,124
114447,-124,-104,223,55,-139,327,376,235,5,65,100,107,392,177,258,65,138,102,46,56,27,246,320,156,147,174,349,191,262,156,321,187
114448,-67,67,255,98,-139,129,315,261,56,84,91,187,431,196,262,108,189,105,82,80,37,303,357,183,180,198,376,106,274,219,389,301
114449,-18,141,222,123,-145,186,158,278,46,77,89,294,417,203,296,192,182,91,67,98,115,352,301,183,189,218,450,-117,219,177,400,295
114450,-32,140,211,127,-141,111,348,293,31,70,-50,140,412,197,284,178,157,98,80,114,139,303,392,240,221,254,499,172,347,248,435,301
114451,-127,117,187,98,-155,54,467,289,44,78,-22,-37,460,200,309,174,55,129,112,145,152,259,429,266,249,291,513,318,446,343,500,279
114452,-158,7,258,114,-133,191,421,347,46,81,182,60,464,207,335,225,262,154,117,146,149,308,456,291,270,303,457,400,497,380,515,323
114453,-113,17,285,134,-130,283,391,364,31,88,239,157,405,203,341,178,274,127,91,147,135,352,436,265,257,318,521,269,466,363,547,508
114454,-95,85,282,81,-146,275,391,257,0,79,199,101,391,198,325,18,228,119,96,133,127,278,409,251,246,321,594,186,379,322,526,443
114455,-50,63,293,84,-147,206,379,213,29,97,267,172,423,235,342,-1,201,153,117,162,146,270,457,268,247,326,528,249,391,313,489,368
114456,42,185,288,112,-143,160,465,264,42,102,223,249,431,237,358,158,221,157,130,175,155,271,448,252,261,323,458,98,308,262,490,346
114457,98,221,264,150,-137,92,568,314,38,81,16,237,436,226,329,278,273,189,130,166,162,346,454,274,294,328,512,139,341,285,486,334
114458,125,210,346,140,-140,148,474,393,32,99,176,215,458,235,335,308,246,178,101,141,137,417,425,264,262,302,517,183,342,255,462,322
114459,36,169,248,63,-149,228,93,352,15,97,271,211,450,211,312,336,196,153,96,117,105,383,404,262,247,291,513,344,447,333,519,345
114460,-46,15,231,-39,-172,44,-1,158,-9,105,136,246,395,202,320,121,187,125,92,120,82,396,404,251,235,293,497,280,400,291,510,367
114461,-14,37,299,-65,-151,-46,105,136,14,136,280,173,400,215,343,71,171,87,68,111,84,394,290,173,178,262,475,-187,125,92,382,299
114462,3,92,313,-3,-154,40,172,198,12,125,223,111,420,213,322,107,209,120,72,100,80,333,334,179,178,258,461,-17,257,181,406,297
114463,-45,143,326,56,-156,13,432,265,2,78,198,130,417,187,313,125,172,113,86,86,101,353,424,207,194,276,504,194,338,251,462,402
114464,-127,138,293,67,-142,157,515,308,9,85,129,140,415,196,320,138,175,122,77,97,128,330,430,219,197,277,542,132,305,247,478,463
114465,-84,222,158,71,-144,83,425,257,30,93,64,176,426,215,294,199,298,117,92,116,134,377,447,251,233,304,574,172,392,339,567,564
114466,15,194,166,16,-160,-40,454,222,27,80,0,207,446,220,299,176,331,166,119,132,115,385,522,279,248,310,562,277,409,322,526,505
114467,-5,59,271,13,-154,83,481,248,36,59,-5,196,436,206,287,129,362,211,109,102,77,310,713,281,223,269,504,325,374,266,440,343
114468,-63,20,307,40,-145,184,494,59,22,50,68,164,420,197,281,124,240,197,94,94,47,404,649,225,204,238,487,-95,243,198,404,332
114469,-67,-31,336,8,-170,98,150,11,7,102,254,177,376,209,342,35,229,93,66,107,84,272,233,190,182,243,432,63,263,197,402,286
114470,-50,-17,324,23,-166,-14,70,256,-11,153,436,236,355,195,361,-130,190,25,33,90,81,237,180,187,180,211,374,224,314,192,374,206
114471,-7,6,282,5,-170,-83,251,295,4,131,351,166,367,187,326,-6,171,53,54,72,86,333,182,164,170,179,429,130,265,139,292,133
114472,9,-36,204,5,-167,-63,353,340,32,94,271,22,418,202,305,269,137,128,81,75,93,283,258,194,180,184,456,107,252,147,284,28
114473,6,-121,179,113,-163,539,281,353,30,99,140,66,421,196,291,157,126,85,69,66,62,224,315,196,184,145,292,231,252,130,272,49
114474,-51,-22,166,103,-163,490,277,332,38,104,53,123,423,215,282,-6,85,36,56,48,47,177,277,144,162,156,311,-9,135,62,262,137
114475,-94,33,172,70,-166,279,230,299,12,79,134,78,401,183,260,60,100,26,42,31,-1,160,171,95,104,135,298,-200,49,16,246,146
114476,-85,52,244,64,-161,-10,375,247,33,43,-124,-13,415,188,228,150,91,69,68,50,13,264,284,186,159,183,364,190,295,204,355,165
114477,-44,109,294,35,-186,-32,488,160,22,23,-176,67,406,185,211,176,93,56,72,43,33,330,332,176,156,190,381,126,264,191,361,205
114478,43,157,319,0,-149,104,497,161,27,37,-30,170,409,197,266,175,196,103,87,68,94,374,365,200,192,242,457,55,252,200,418,363
114479,35,107,302,6,-160,47,325,136,5,47,-30,142,389,178,261,65,177,84,42,73,80,308,342,178,159,214,454,60,188,145,368,332
114480,-12,5,317,26,-176,34,187,199,18,86,84,152,378,186,278,28,161,57,39,60,41,193,320,157,145,177,396,11,194,127,324,250
114481,-109,-97,261,67,-179,277,142,182,10,81,172,150,377,185,252,53,129,72,37,45,28,149,311,169,145,166,404,23,228,135,323,217
114482,-147,-96,252,126,-159,404,219,187,2,74,110,158,387,176,265,114,71,112,60,58,51,239,299,197,159,186,423,27,229,142,322,231
114483,-140,9,239,129,-163,163,287,266,26,65,74,170,441,203,290,142,225,168,106,92,61,283,396,253,212,230,425,163,329,261,411,345
114484,-90,132,299,102,-161,27,347,279,36,59,109,76,453,202,278,95,281,143,101,112,91,276,430,281,232,261,435,281,390,283,420,239
114485,-169,154,305,41,-151,40,416,246,9,92,175,33,401,197,289,49,250,100,91,102,90,274,415,265,225,265,422,256,362,248,403,214
114486,-141,100,315,55,-158,-113,490,211,5,93,212,134,382,194,295,225,241,103,89,114,85,376,462,282,240,251,422,316,411,282,420,226
114487,-19,-11,272,71,-145,-31,370,210,22,91,138,143,396,200,276,142,191,144,98,116,97,277,471,272,243,270,445,309,428,291,459,284
114488,0,-54,297,104,-162,-7,239,276,20,66,64,279,417,192,269,53,140,147,104,117,87,260,456,281,235,304,497,265,411,304,468,320
114489,-1,54,316,120,-151,151,294,329,15,69,76,393,434,214,302,118,148,150,111,142,127,217,420,280,255,321,524,162,368,267,458,314
114490,-56,52,208,108,-164,183,305,375,33,59,78,133,438,213,295,98,121,168,123,124,104,238,487,308,258,302,470,410,451,298,473,276
114491,-103,-18,199,89,-176,151,367,357,15,56,35,67,428,219,267,73,88,164,104,96,62,328,487,275,232,264,454,557,422,287,435,269
114492,-74,-130,194,16,-170,149,380,299,23,80,40,290,413,221,291,177,209,116,99,127,100,296,521,276,254,300,484,536,467,327,485,314
114493,-28,-29,177,1,-165,170,295,280,12,81,97,288,393,189,299,172,245,80,68,98,116,296,350,198,195,278,522,-165,225,182,421,362
114494,-8,52,276,70,-177,72,176,267,0,102,181,162,406,202,322,22,229,122,58,111,126,332,339,176,178,292,550,-186,165,211,454,449
114495,-17,111,291,97,-172,61,267,260,17,115,144,167,439,216,331,1,275,166,82,131,122,267,423,237,212,283,537,41,317,272,498,426
114496,12,65,325,65,-179,-80,295,306,25,87,113,189,445,232,299,97,252,164,93,123,134,281,446,255,211,266,505,166,341,244,425,381
114497,-10,92,361,55,-159,-30,400,319,37,60,104,214,468,224,285,62,182,214,124,124,89,344,550,321,247,274,470,537,484,342,447,286
114498,-3,67,347,32,-166,55,268,213,2,67,290,193,424,211,287,107,145,144,82,95,68,281,409,228,202,248,466,77,312,220,364,267
114499,70,69,388,90,-158,-129,-24,216,7,67,432,177,430,208,287,218,225,88,58,92,91,306,249,141,156,222,493,-495,-23,-21,236,228
114500,-30,-24,279,67,-209,289,75,219,0,74,214,124,429,183,302,95,109,87,57,85,93,262,255,130,144,222,491,-263,5,-7,295,219
114501,-67,-61,222,4,-190,336,252,268,-10,84,119,107,394,184,300,-9,161,49,64,102,81,244,309,179,167,225,401,-82,154,80,338,251
114502,-91,55,229,6,-172,305,316,207,-2,85,132,107,419,211,329,75,198,89,85,136,147,242,350,194,208,276,489,-8,211,137,377,276
114503,-157,84,197,-1,-185,93,417,191,-10,61,44,108,443,230,340,200,170,149,111,155,192,225,474,246,252,307,548,77,251,180,404,282
114504,-204,-13,139,15,-221,-78,420,259,31,52,11,151,467,246,327,242,197,215,166,168,187,361,824,324,288,338,564,133,375,278,493,388
114505,-199,-181,168,44,-209,-27,365,328,36,85,-14,118,488,259,329,213,212,180,179,180,188,369,482,315,304,355,586,239,399,294,509,370
114506,-83,-175,325,107,-183,40,364,390,35,65,-42,138,497,248,290,171,258,155,157,160,148,322,293,295,273,324,540,248,370,262,468,356
114507,91,9,543,122,-163,132,402,411,36,53,-24,130,471,200,263,116,199,145,122,113,82,329,342,257,231,266,432,133,296,217,425,298
114508,60,203,536,81,-157,69,487,392,41,56,9,103,465,197,257,108,216,164,127,98,62,266,358,234,226,261,401,100,270,187,372,237
114509,-33,211,430,39,-171,109,442,226,35,62,48,226,469,225,263,192,140,189,140,110,91,323,340,246,237,290,515,70,261,189,414,310
114510,-36,89,405,37,-182,59,451,153,34,72,77,333,467,242,282,257,284,215,142,141,118,366,427,271,271,308,533,160,293,217,424,292
114511,-45,-29,421,1,-199,61,366,214,24,59,-7,293,462,241,273,31,384,203,133,122,93,335,447,271,271,300,433,156,303,213,437,361
114512,-30,-89,451,63,-202,100,272,254,27,52,6,308,473,241,267,-69,227,209,120,114,67,267,350,260,234,290,464,127,263,206,429,325
114513,-12,-123,453,77,-208,61,251,285,47,54,6,273,482,250,276,-33,141,236,153,138,99,271,357,279,264,303,534,273,348,268,462,344
114514,-21,-122,428,101,-206,128,263,330,48,79,0,336,484,226,272,57,274,196,126,115,102,228,399,272,235,279,477,267,337,230,401,254
114515,5,-55,411,148,-180,160,298,375,55,75,41,357,453,217,279,108,287,128,94,98,66,161,412,209,193,217,369,260,267,151,326,138
114516,-7,4,384,164,-168,186,340,335,41,83,78,164,423,204,292,75,201,125,81,83,50,218,362,179,168,213,484,102,197,125,349,239
114517,-2,1,394,144,-171,88,210,309,17,75,91,129,428,183,262,7,174,144,52,51,12,207,363,167,135,182,356,45,178,89,335,264
114518,-5,-38,446,108,-168,129,119,310,25,78,141,213,432,189,263,20,172,158,32,34,-6,112,365,161,132,164,304,108,208,92,311,213
114519,-17,-99,397,108,-183,46,184,324,38,91,119,252,437,186,270,-75,168,152,42,45,4,150,391,169,132,152,339,130,205,105,312,279
114520,24,-28,358,104,-169,-305,259,376,48,81,99,291,465,197,257,-284,244,181,73,67,19,260,486,198,160,195,391,333,296,187,380,379
114521,29,-40,354,120,-187,-136,135,405,51,79,160,308,478,191,258,-204,234,152,83,69,21,203,436,204,160,207,420,257,301,204,405,373
114522,59,2,410,173,-196,121,137,411,72,51,26,241,480,193,221,36,234,161,82,48,-2,183,398,197,147,182,403,6,220,136,341,232
114523,68,50,484,225,-192,197,259,455,85,56,-49,267,497,209,239,132,268,192,91,38,50,259,427,186,146,187,412,-91,163,114,344,212
114524,21,-5,496,232,-174,101,238,454,84,66,-1,297,513,198,230,137,272,218,89,30,10,219,445,160,117,136,343,13,99,-20,164,99
114525,-105,-2,379,164,-198,175,218,389,63,56,75,219,495,191,215,99,228,199,73,22,-29,226,522,167,104,94,263,171,162,2,117,-52
114526,-37,15,361,64,-206,52,236,395,66,68,144,274,467,208,242,86,223,147,68,42,9,312,486,173,138,136,338,170,229,93,249,-14
114527,31,11,386,117,-184,195,194,361,84,86,85,237,469,219,261,61,230,132,82,53,17,223,408,180,150,165,372,175,224,102,272,104
114528,69,18,456,207,-151,423,313,461,86,96,138,229,486,201,262,79,234,158,76,45,38,179,401,151,140,157,349,93,157,68,236,138
114529,92,-83,456,189,-156,197,201,476,68,81,64,250,486,193,251,149,169,137,73,41,47,241,297,111,123,184,392,-59,99,29,259,203
114530,53,-136,358,175,-164,194,-25,482,63,104,138,299,452,214,236,253,119,126,67,72,36,330,389,154,129,198,442,157,198,116,339,301
114531,-4,-80,386,153,-175,266,8,443,71,97,120,279,477,205,262,177,63,137,71,69,52,242,387,161,141,196,487,182,222,133,365,371
114532,-72,-64,338,125,-198,169,154,291,29,79,22,205,465,178,241,17,87,164,66,48,17,196,331,145,121,178,446,2,129,64,319,315
114533,-55,-103,399,49,-168,24,159,235,38,89,-48,185,454,197,251,68,271,166,81,48,37,362,378,168,134,170,409,0,138,65,284,136
114534,15,-70,495,12,-164,-117,266,124,49,77,-20,175,454,205,261,110,305,184,100,91,83,345,471,213,175,221,447,266,272,173,369,256
114535,49,38,519,86,-183,-23,421,171,35,40,-32,187,466,202,262,137,164,172,94,88,76,335,449,216,171,216,431,234,286,170,343,270
114536,66,92,501,107,-162,90,433,371,52,61,9,253,475,211,261,125,234,167,79,87,78,373,447,196,172,216,424,94,235,140,343,150
114537,76,56,455,123,-162,86,411,372,55,57,2,297,459,205,256,118,297,163,82,84,83,229,433,190,175,249,445,14,183,107,349,220
